SpectraSuite Data File
++++++++++++++++++++++++++++++++++++
Date: Thu Feb 02 17:14:06 EET 2017
User: optolab
Dark Spectrum Present: Yes
Reference Spectrum Present: Yes
Number of Sampled Component Spectra: 1
Spectrometers: USB4C02475
Integration Time (usec): 100000 (USB4C02475)
Spectra Averaged: 1 (USB4C02475)
Boxcar Smoothing: 0 (USB4C02475)
Correct for Electrical Dark: No (USB4C02475)
Strobe/Lamp Enabled: No (USB4C02475)
Correct for Detector Non-linearity: No (USB4C02475)
Correct for Stray Light: No (USB4C02475)
Number of Pixels in Processed Spectrum: 3648
>>>>>Begin Processed Spectral Data<<<<<
344,91	-25,000
345,13	-25,000
345,35	-25,000
345,57	5,882
345,79	134,783
346,00	82,353
346,22	-357,143
346,44	-21,212
346,66	134,043
346,87	126,087
347,09	323,077
347,31	3100,000
347,53	-800,000
347,74	-25,581
347,96	-457,143
348,18	158,824
348,40	382,353
348,61	-94,872
348,83	2100,000
349,05	174,359
349,27	123,529
349,48	-3700,000
349,70	242,857
349,92	52,381
350,14	-62,162
350,35	-261,538
350,57	-300,000
350,79	53,846
351,01	-0,000
351,22	210,000
351,44	325,000
351,66	211,111
351,87	916,667
352,09	100,000
352,31	126,786
352,53	185,714
352,74	-314,286
352,96	152,632
353,18	-28,125
353,40	-250,000
353,61	273,333
353,83	145,833
354,05	150,000
354,26	210,714
354,48	-220,000
354,70	219,048
354,92	222,222
355,13	-25,581
355,35	29,630
355,57	114,063
355,78	164,286
356,00	114,894
356,22	-36,364
356,44	137,209
356,65	200,000
356,87	172,222
357,09	80,000
357,30	13,636
357,52	-566,667
357,74	151,613
357,95	205,714
358,17	53,623
358,39	124,000
358,60	111,111
358,82	100,000
359,04	148,718
359,26	102,273
359,47	138,462
359,69	142,857
359,91	352,000
360,12	45,000
360,34	-16,667
360,56	-1850,000
360,77	422,222
360,99	125,000
361,21	-78,261
361,42	-725,000
361,64	-133,333
361,86	73,134
362,07	346,667
362,29	165,000
362,51	156,757
362,72	-100,000
362,94	133,333
363,16	75,714
363,37	481,818
363,59	-3200,000
363,81	450,000
364,02	74,667
364,24	206,818
364,46	276,190
364,67	95,238
364,89	147,059
365,11	118,919
365,32	203,704
365,54	43,750
365,76	136,364
365,97	126,829
366,19	89,474
366,41	200,000
366,62	116,000
366,84	291,667
367,05	85,294
367,27	740,000
367,49	184,615
367,70	-33,333
367,92	112,500
368,14	123,077
368,35	97,059
368,57	-27,273
368,79	76,923
369,00	60,256
369,22	-16,667
369,43	205,263
369,65	-55,172
369,87	-111,765
370,08	100,000
370,30	228,571
370,51	-36,364
370,73	177,778
370,95	220,000
371,16	77,193
371,38	100,000
371,60	153,333
371,81	53,261
372,03	-275,000
372,24	-50,000
372,46	1166,667
372,68	108,824
372,89	50,459
373,11	2,326
373,32	70,588
373,54	200,000
373,76	255,556
373,97	90,909
374,19	-163,158
374,40	85,714
374,62	182,353
374,84	275,000
375,05	117,308
375,27	102,703
375,48	75,309
375,70	211,765
375,92	151,786
376,13	278,947
376,35	258,333
376,56	110,000
376,78	38,776
376,99	103,030
377,21	56,250
377,43	100,000
377,64	64,000
377,86	112,500
378,07	31,818
378,29	50,000
378,51	48,810
378,72	40,909
378,94	86,957
379,15	-11,364
379,37	6,250
379,58	16,667
379,80	36,364
380,01	116,000
380,23	117,391
380,45	120,833
380,66	90,278
380,88	97,297
381,09	117,391
381,31	200,000
381,52	200,000
381,74	100,000
381,95	78,571
382,17	184,000
382,39	112,903
382,60	417,647
382,82	82,759
383,03	633,333
383,25	77,778
383,46	266,667
383,68	204,255
383,89	90,909
384,11	42,466
384,32	78,947
384,54	-57,143
384,76	217,647
384,97	90,000
385,19	84,211
385,40	175,000
385,62	54,839
385,83	85,106
386,05	471,429
386,26	296,154
386,48	330,769
386,69	83,333
386,91	-100,000
387,12	125,641
387,34	45,763
387,55	100,000
387,77	208,000
387,98	95,918
388,20	94,366
388,41	-14,286
388,63	50,000
388,84	85,000
389,06	172,093
389,27	153,125
389,49	32,530
389,70	137,288
389,92	15,909
390,13	138,462
390,35	46,875
390,56	112,500
390,78	95,455
390,99	60,000
391,21	30,682
391,42	-21,739
391,64	-30,000
391,85	115,517
392,07	-35,714
392,28	30,769
392,50	620,000
392,71	2500,000
392,93	79,032
393,14	126,087
393,36	51,282
393,57	112,500
393,79	73,016
394,00	24,658
394,22	-14,000
394,43	150,000
394,65	89,286
394,86	87,500
395,08	-112,500
395,29	57,447
395,50	-5600,000
395,72	428,571
395,93	104,000
396,15	235,714
396,36	26,667
396,58	-228,571
396,79	30,233
397,01	228,571
397,22	73,913
397,44	142,553
397,65	71,622
397,87	78,571
398,08	165,385
398,29	58,333
398,51	100,000
398,72	117,391
398,94	86,047
399,15	65,000
399,37	32,609
399,58	76,190
399,80	206,667
400,01	105,882
400,22	242,857
400,44	219,048
400,65	67,123
400,87	200,000
401,08	67,416
401,30	66,667
401,51	38,182
401,72	127,419
401,94	165,854
402,15	57,143
402,37	-4,545
402,58	155,814
402,80	-25,000
403,01	-63,889
403,22	33,735
403,44	8,333
403,65	30,612
403,87	109,333
404,08	36,538
404,30	-6,250
404,51	24,286
404,72	545,455
404,94	51,807
405,15	91,045
405,37	46,154
405,58	170,968
405,79	78,571
406,01	67,407
406,22	70,238
406,44	156,140
406,65	92,857
406,86	107,000
407,08	81,481
407,29	89,333
407,51	64,423
407,72	40,594
407,93	83,544
408,15	80,682
408,36	251,429
408,58	75,000
408,79	55,814
409,00	94,326
409,22	88,235
409,43	118,919
409,64	51,282
409,86	123,864
410,07	71,304
410,29	102,000
410,50	53,968
410,71	70,968
410,93	108,911
411,14	111,215
411,35	93,056
411,57	65,972
411,78	96,324
412,00	99,333
412,21	77,876
412,42	108,293
412,64	115,556
412,85	102,073
413,06	97,321
413,28	106,667
413,49	93,953
413,70	94,421
413,92	91,429
414,13	104,348
414,34	100,000
414,56	110,213
414,77	96,310
414,98	101,413
415,20	107,527
415,41	104,545
415,63	99,430
415,84	89,197
416,05	96,687
416,27	100,557
416,48	105,924
416,69	97,674
416,91	92,800
417,12	81,674
417,33	90,971
417,55	95,200
417,76	98,732
417,97	97,566
418,19	101,464
418,40	98,081
418,61	94,340
418,83	101,408
419,04	89,147
419,25	102,711
419,46	101,766
419,68	97,493
419,89	91,304
420,10	93,817
420,32	104,901
420,53	95,107
420,74	94,026
420,96	95,261
421,17	98,290
421,38	93,896
421,60	96,249
421,81	89,990
422,02	93,621
422,23	92,008
422,45	96,364
422,66	92,642
422,87	94,826
423,09	98,026
423,30	97,583
423,51	94,944
423,73	94,006
423,94	97,545
424,15	98,042
424,36	96,465
424,58	94,347
424,79	100,586
425,00	99,069
425,22	100,471
425,43	97,734
425,64	105,989
425,85	94,025
426,07	95,581
426,28	98,719
426,49	99,898
426,71	94,109
426,92	93,736
427,13	93,850
427,34	96,116
427,56	95,597
427,77	98,137
427,98	97,620
428,19	98,139
428,41	99,265
428,62	96,827
428,83	93,119
429,04	92,945
429,26	95,223
429,47	94,927
429,68	93,593
429,89	90,309
430,11	95,226
430,32	97,431
430,53	95,612
430,74	96,927
430,96	96,957
431,17	99,438
431,38	99,434
431,59	97,316
431,81	96,365
432,02	95,994
432,23	95,932
432,44	98,235
432,66	94,648
432,87	95,308
433,08	96,823
433,29	98,876
433,51	94,487
433,72	95,329
433,93	98,536
434,14	96,636
434,35	96,241
434,57	96,896
434,78	96,605
434,99	94,023
435,20	97,990
435,42	96,453
435,63	94,889
435,84	98,090
436,05	94,068
436,26	93,813
436,48	95,138
436,69	94,047
436,90	92,524
437,11	92,506
437,32	89,890
437,54	88,996
437,75	89,227
437,96	86,941
438,17	87,417
438,38	86,719
438,60	87,941
438,81	89,573
439,02	90,060
439,23	91,434
439,44	90,810
439,66	91,380
439,87	90,092
440,08	87,901
440,29	86,418
440,50	86,597
440,72	86,284
440,93	85,651
441,14	80,519
441,35	68,937
441,56	53,713
441,77	36,594
441,99	22,588
442,20	13,057
442,41	6,493
442,62	3,401
442,83	2,174
443,04	1,326
443,26	0,911
443,47	0,973
443,68	0,437
443,89	0,667
444,10	0,504
444,31	0,958
444,53	0,471
444,74	0,583
444,95	0,206
445,16	0,074
445,37	0,370
445,58	0,240
445,80	0,181
446,01	0,499
446,22	0,619
446,43	0,674
446,64	-0,043
446,85	0,297
447,06	0,253
447,28	0,327
447,49	0,384
447,70	0,456
447,91	0,645
448,12	0,392
448,33	0,329
448,54	0,207
448,76	0,363
448,97	0,258
449,18	0,355
449,39	0,344
449,60	0,656
449,81	0,469
450,02	0,524
450,23	0,593
450,45	0,417
450,66	0,195
450,87	0,333
451,08	0,190
451,29	0,748
451,50	0,557
451,71	0,279
451,92	0,289
452,13	0,509
452,35	0,275
452,56	0,156
452,77	0,483
452,98	0,751
453,19	0,286
453,40	0,441
453,61	0,231
453,82	0,340
454,03	0,593
454,25	0,223
454,46	0,312
454,67	0,340
454,88	0,390
455,09	0,606
455,30	0,218
455,51	0,362
455,72	0,151
455,93	0,291
456,14	0,281
456,35	0,234
456,56	0,175
456,78	0,548
456,99	0,476
457,20	0,375
457,41	0,324
457,62	0,163
457,83	0,290
458,04	0,646
458,25	0,188
458,46	0,241
458,67	0,273
458,88	0,125
459,09	0,323
459,30	0,058
459,51	0,219
459,73	0,084
459,94	0,406
460,15	0,205
460,36	0,208
460,57	0,278
460,78	0,323
460,99	0,391
461,20	0,342
461,41	0,442
461,62	0,084
461,83	0,086
462,04	0,188
462,25	0,373
462,46	0,240
462,67	0,217
462,88	0,261
463,09	0,262
463,30	0,436
463,51	0,266
463,72	0,281
463,93	0,269
464,15	0,256
464,36	0,329
464,57	0,115
464,78	0,215
464,99	0,306
465,20	0,203
465,41	0,145
465,62	0,394
465,83	0,119
466,04	0,291
466,25	0,191
466,46	0,249
466,67	0,184
466,88	0,227
467,09	0,298
467,30	0,186
467,51	0,319
467,72	0,177
467,93	0,159
468,14	0,148
468,35	0,362
468,56	0,125
468,77	0,227
468,98	0,506
469,19	0,302
469,40	0,248
469,61	0,294
469,82	0,290
470,03	0,137
470,24	0,301
470,45	0,374
470,66	0,510
470,87	0,309
471,08	0,433
471,29	0,094
471,50	0,356
471,71	0,264
471,92	0,174
472,13	0,172
472,34	0,220
472,55	0,300
472,76	0,448
472,97	0,332
473,18	0,207
473,39	0,333
473,60	0,293
473,81	0,226
474,01	0,337
474,22	0,276
474,43	0,260
474,64	0,359
474,85	0,246
475,06	0,375
475,27	0,396
475,48	0,378
475,69	0,251
475,90	0,292
476,11	0,248
476,32	0,320
476,53	0,372
476,74	0,306
476,95	0,291
477,16	0,223
477,37	0,437
477,58	0,212
477,79	0,425
478,00	0,339
478,21	0,611
478,41	0,347
478,62	0,362
478,83	0,442
479,04	0,423
479,25	0,274
479,46	0,344
479,67	0,321
479,88	0,267
480,09	0,162
480,30	0,336
480,51	0,475
480,72	0,270
480,93	0,547
481,14	0,271
481,34	0,413
481,55	0,500
481,76	0,675
481,97	0,454
482,18	0,422
482,39	0,260
482,60	0,414
482,81	0,405
483,02	0,382
483,23	0,615
483,44	0,605
483,65	0,356
483,85	0,353
484,06	0,682
484,27	0,545
484,48	0,304
484,69	0,553
484,90	0,346
485,11	0,355
485,32	0,460
485,53	0,589
485,73	0,477
485,94	0,407
486,15	0,584
486,36	0,549
486,57	0,755
486,78	0,807
486,99	0,777
487,20	0,698
487,41	0,903
487,61	0,801
487,82	0,809
488,03	0,765
488,24	0,868
488,45	0,821
488,66	0,752
488,87	0,964
489,08	0,882
489,28	0,625
489,49	1,008
489,70	0,898
489,91	1,223
490,12	0,922
490,33	1,545
490,54	2,470
490,74	4,206
490,95	7,452
491,16	13,783
491,37	23,755
491,58	37,441
491,79	53,874
492,00	67,253
492,20	78,268
492,41	84,333
492,62	87,129
492,83	88,770
493,04	90,034
493,25	91,633
493,45	91,664
493,66	90,539
493,87	91,053
494,08	89,253
494,29	88,202
494,50	89,786
494,70	90,208
494,91	90,798
495,12	91,987
495,33	94,229
495,54	94,720
495,75	94,715
495,95	95,841
496,16	94,626
496,37	95,796
496,58	96,860
496,79	96,033
496,99	96,478
497,20	96,382
497,41	94,748
497,62	95,078
497,83	94,952
498,04	94,341
498,24	95,105
498,45	95,219
498,66	95,086
498,87	95,413
499,08	95,500
499,28	95,445
499,49	96,022
499,70	95,852
499,91	97,164
500,12	96,535
500,32	96,747
500,53	96,561
500,74	96,921
500,95	96,657
501,15	95,511
501,36	95,782
501,57	94,794
501,78	94,609
501,99	93,941
502,19	94,726
502,40	94,918
502,61	93,565
502,82	93,388
503,02	93,679
503,23	92,995
503,44	92,444
503,65	92,013
503,86	92,183
504,06	90,986
504,27	91,646
504,48	90,637
504,69	92,183
504,89	91,942
505,10	92,927
505,31	92,639
505,52	93,981
505,72	95,513
505,93	96,335
506,14	96,740
506,35	97,895
506,55	97,462
506,76	98,624
506,97	98,108
507,18	97,719
507,38	96,921
507,59	98,018
507,80	98,066
508,01	97,123
508,21	96,489
508,42	96,832
508,63	95,031
508,84	96,007
509,04	93,796
509,25	93,934
509,46	93,526
509,67	93,650
509,87	92,241
510,08	91,474
510,29	90,674
510,49	91,318
510,70	89,245
510,91	90,087
511,12	88,244
511,32	88,628
511,53	89,105
511,74	89,076
511,94	90,248
512,15	89,511
512,36	91,226
512,57	92,129
512,77	91,129
512,98	91,175
513,19	91,912
513,39	91,161
513,60	90,489
513,81	90,114
514,01	90,798
514,22	91,350
514,43	92,351
514,64	91,562
514,84	90,496
515,05	87,575
515,26	80,962
515,46	70,551
515,67	55,988
515,88	41,349
516,08	27,775
516,29	16,880
516,50	10,365
516,70	6,264
516,91	4,122
517,12	2,587
517,32	1,701
517,53	1,017
517,74	0,955
517,95	0,826
518,15	0,815
518,36	0,653
518,57	0,491
518,77	0,366
518,98	0,500
519,19	0,606
519,39	0,597
519,60	0,286
519,80	0,408
520,01	0,393
520,22	0,463
520,42	0,409
520,63	0,444
520,84	0,376
521,04	0,565
521,25	0,408
521,46	0,470
521,66	0,384
521,87	0,403
522,08	0,417
522,28	0,495
522,49	0,365
522,70	0,180
522,90	0,372
523,11	0,278
523,31	0,468
523,52	0,414
523,73	0,148
523,93	0,429
524,14	0,385
524,35	0,268
524,55	0,296
524,76	0,309
524,97	0,224
525,17	0,345
525,38	0,316
525,58	0,242
525,79	0,340
526,00	0,291
526,20	0,283
526,41	0,259
526,61	0,327
526,82	0,326
527,03	0,237
527,23	0,350
527,44	0,305
527,64	0,324
527,85	-0,004
528,06	0,380
528,26	0,324
528,47	0,457
528,68	0,472
528,88	0,144
529,09	0,087
529,29	0,531
529,50	0,305
529,70	0,406
529,91	0,260
530,12	0,348
530,32	0,263
530,53	0,315
530,73	0,140
530,94	0,384
531,15	0,165
531,35	0,463
531,56	0,404
531,76	0,405
531,97	0,374
532,17	0,360
532,38	0,212
532,59	0,312
532,79	0,371
533,00	0,095
533,20	0,290
533,41	0,415
533,61	0,062
533,82	0,188
534,03	0,293
534,23	0,230
534,44	0,326
534,64	0,452
534,85	0,214
535,05	0,226
535,26	0,271
535,46	0,157
535,67	0,029
535,88	0,194
536,08	0,280
536,29	0,317
536,49	0,277
536,70	0,417
536,90	0,346
537,11	0,291
537,31	0,318
537,52	0,415
537,72	0,383
537,93	0,450
538,13	0,166
538,34	0,232
538,55	0,222
538,75	0,223
538,96	0,158
539,16	0,326
539,37	0,134
539,57	0,252
539,78	0,305
539,98	0,247
540,19	0,247
540,39	0,223
540,60	0,293
540,80	0,309
541,01	0,449
541,21	0,492
541,42	0,170
541,62	0,438
541,83	0,118
542,03	0,308
542,24	0,289
542,44	0,240
542,65	0,241
542,85	0,407
543,06	0,364
543,26	0,388
543,47	0,288
543,67	0,502
543,88	0,279
544,08	0,204
544,29	0,253
544,49	0,160
544,70	0,210
544,90	0,606
545,11	0,223
545,31	0,216
545,52	0,351
545,72	0,278
545,93	0,158
546,13	0,169
546,34	0,465
546,54	0,248
546,75	0,397
546,95	0,470
547,15	0,176
547,36	0,494
547,56	0,213
547,77	0,424
547,97	0,210
548,18	0,240
548,38	0,254
548,59	0,294
548,79	0,496
549,00	0,306
549,20	0,373
549,41	0,437
549,61	0,198
549,81	0,257
550,02	0,282
550,22	0,243
550,43	0,131
550,63	0,334
550,84	0,346
551,04	0,231
551,25	0,303
551,45	0,439
551,65	0,355
551,86	0,272
552,06	0,418
552,27	0,242
552,47	0,317
552,68	0,460
552,88	0,425
553,08	0,395
553,29	0,247
553,49	0,258
553,70	0,546
553,90	0,440
554,11	0,592
554,31	0,289
554,51	0,438
554,72	0,396
554,92	0,346
555,13	0,229
555,33	0,336
555,53	0,491
555,74	0,424
555,94	0,539
556,15	0,320
556,35	0,185
556,56	0,398
556,76	0,360
556,96	0,647
557,17	0,747
557,37	0,886
557,58	0,543
557,78	0,674
557,98	0,718
558,19	0,647
558,39	0,744
558,59	0,849
558,80	0,862
559,00	0,753
559,21	0,959
559,41	0,751
559,61	0,917
559,82	1,033
560,02	1,278
560,23	1,652
560,43	2,552
560,63	4,130
560,84	6,901
561,04	12,238
561,24	20,373
561,45	31,563
561,65	45,055
561,85	60,945
562,06	74,438
562,26	83,078
562,47	89,385
562,67	91,354
562,87	93,309
563,08	94,694
563,28	94,348
563,48	95,988
563,69	96,220
563,89	97,269
564,09	98,503
564,30	97,846
564,50	97,619
564,70	96,741
564,91	97,306
565,11	96,586
565,31	97,415
565,52	98,263
565,72	97,277
565,92	98,319
566,13	97,858
566,33	97,692
566,53	98,096
566,74	96,640
566,94	98,898
567,14	98,726
567,35	98,016
567,55	98,186
567,75	96,863
567,96	95,859
568,16	96,556
568,36	95,177
568,57	94,662
568,77	93,795
568,97	94,185
569,18	92,530
569,38	92,086
569,58	92,614
569,79	91,766
569,99	92,524
570,19	93,007
570,39	92,800
570,60	91,663
570,80	92,863
571,00	93,167
571,21	94,335
571,41	95,135
571,61	95,089
571,82	94,631
572,02	96,120
572,22	95,713
572,42	95,999
572,63	95,725
572,83	96,206
573,03	95,986
573,24	96,638
573,44	96,599
573,64	94,885
573,84	95,888
574,05	94,330
574,25	94,812
574,45	92,765
574,66	93,827
574,86	93,479
575,06	93,158
575,26	93,611
575,47	93,662
575,67	93,485
575,87	92,747
576,07	93,425
576,28	93,362
576,48	94,291
576,68	93,681
576,88	95,437
577,09	93,099
577,29	93,813
577,49	94,504
577,69	93,714
577,90	94,605
578,10	93,728
578,30	93,382
578,50	92,792
578,71	92,733
578,91	92,818
579,11	92,362
579,31	92,864
579,52	93,490
579,72	91,906
579,92	92,837
580,12	91,937
580,33	93,647
580,53	93,227
580,73	93,354
580,93	93,423
581,13	94,382
581,34	93,082
581,54	94,765
581,74	95,023
581,94	94,329
582,15	95,133
582,35	94,455
582,55	93,380
582,75	89,407
582,95	85,703
583,16	78,650
583,36	68,223
583,56	55,164
583,76	41,273
583,96	28,468
584,17	18,664
584,37	12,333
584,57	7,519
584,77	4,946
584,97	3,299
585,18	2,300
585,38	1,620
585,58	1,250
585,78	0,788
585,98	0,759
586,19	0,496
586,39	0,608
586,59	0,502
586,79	0,495
586,99	0,230
587,20	0,456
587,40	0,381
587,60	0,243
587,80	0,314
588,00	0,520
588,20	0,347
588,41	0,300
588,61	0,413
588,81	0,310
589,01	0,328
589,21	0,406
589,41	0,323
589,62	0,208
589,82	0,296
590,02	0,361
590,22	0,296
590,42	0,380
590,62	0,315
590,83	0,201
591,03	0,113
591,23	0,251
591,43	0,393
591,63	0,226
591,83	0,235
592,03	0,248
592,24	0,405
592,44	0,164
592,64	0,303
592,84	0,302
593,04	0,181
593,24	0,228
593,44	0,210
593,65	0,253
593,85	0,188
594,05	0,140
594,25	0,265
594,45	0,205
594,65	0,122
594,85	0,108
595,06	0,236
595,26	0,296
595,46	0,145
595,66	0,223
595,86	0,140
596,06	0,188
596,26	0,236
596,46	0,266
596,66	0,174
596,87	0,296
597,07	0,235
597,27	0,152
597,47	0,274
597,67	0,156
597,87	0,029
598,07	0,198
598,27	0,040
598,47	0,220
598,67	0,095
598,88	0,300
599,08	0,214
599,28	0,155
599,48	-0,041
599,68	0,246
599,88	0,115
600,08	0,167
600,28	-0,007
600,48	0,196
600,68	0,190
600,88	0,179
601,09	0,191
601,29	0,288
601,49	0,113
601,69	0,222
601,89	0,045
602,09	0,170
602,29	0,124
602,49	-0,121
602,69	0,167
602,89	0,248
603,09	0,208
603,29	0,270
603,49	0,203
603,69	0,202
603,90	0,000
604,10	0,106
604,30	0,255
604,50	0,258
604,70	0,042
604,90	0,164
605,10	0,023
605,30	0,050
605,50	0,299
605,70	0,267
605,90	-0,031
606,10	0,230
606,30	0,058
606,50	0,425
606,70	0,123
606,90	-0,015
607,10	0,081
607,30	0,322
607,50	0,050
607,70	0,187
607,90	0,234
608,10	0,156
608,30	0,154
608,50	0,089
608,70	0,251
608,90	0,159
609,11	0,125
609,31	0,179
609,51	0,189
609,71	0,172
609,91	0,066
610,11	0,359
610,31	0,156
610,51	0,420
610,71	0,176
610,91	0,114
611,11	0,059
611,31	0,039
611,51	-0,051
611,71	-0,135
611,91	0,296
612,11	0,134
612,31	0,332
612,51	0,224
612,71	0,183
612,91	0,020
613,11	0,199
613,31	0,071
613,51	0,000
613,71	-0,020
613,91	0,258
614,11	0,279
614,31	0,142
614,50	0,211
614,70	0,032
614,90	0,132
615,10	0,071
615,30	0,207
615,50	0,016
615,70	0,123
615,90	0,168
616,10	0,004
616,30	0,163
616,50	0,000
616,70	0,116
616,90	0,182
617,10	0,231
617,30	-0,044
617,50	0,261
617,70	0,040
617,90	0,059
618,10	0,221
618,30	-0,087
618,50	0,166
618,70	0,095
618,90	0,048
619,10	-0,105
619,30	-0,100
619,49	0,055
619,69	0,024
619,89	0,174
620,09	-0,008
620,29	0,115
620,49	0,095
620,69	0,000
620,89	0,016
621,09	0,160
621,29	0,213
621,49	0,176
621,69	-0,004
621,89	0,154
622,09	0,187
622,29	0,140
622,48	0,004
622,68	0,039
622,88	0,113
623,08	0,136
623,28	-0,132
623,48	0,035
623,68	0,156
623,88	0,093
624,08	0,172
624,28	0,131
624,48	0,158
624,67	0,019
624,87	0,092
625,07	0,176
625,27	0,142
625,47	0,116
625,67	0,173
625,87	-0,031
626,07	0,107
626,27	0,224
626,47	0,079
626,66	0,068
626,86	0,227
627,06	0,258
627,26	0,124
627,46	-0,011
627,66	0,208
627,86	0,094
628,06	0,187
628,25	0,207
628,45	0,145
628,65	0,105
628,85	0,063
629,05	0,235
629,25	-0,019
629,45	0,053
629,65	0,097
629,84	-0,011
630,04	0,251
630,24	0,226
630,44	0,015
630,64	0,148
630,84	-0,126
631,04	0,251
631,23	-0,058
631,43	0,058
631,63	0,040
631,83	0,157
632,03	0,111
632,23	0,281
632,42	0,069
632,62	0,196
632,82	0,087
633,02	0,130
633,22	0,047
633,42	0,184
633,62	-0,095
633,81	-0,013
634,01	0,197
634,21	0,112
634,41	0,214
634,61	0,073
634,80	0,033
635,00	0,186
635,20	0,212
635,40	-0,164
635,60	0,064
635,80	0,221
635,99	0,337
636,19	0,191
636,39	0,126
636,59	0,144
636,79	0,036
636,98	0,151
637,18	-0,153
637,38	0,255
637,58	0,118
637,78	0,319
637,97	0,028
638,17	0,111
638,37	0,227
638,57	0,101
638,77	0,136
638,96	0,074
639,16	0,248
639,36	-0,075
639,56	0,320
639,76	0,135
639,95	0,154
640,15	-0,060
640,35	-0,061
640,55	0,127
640,75	0,232
640,94	-0,164
641,14	0,179
641,34	-0,080
641,54	0,044
641,73	-0,144
641,93	0,190
642,13	-0,019
642,33	0,026
642,53	0,220
642,72	0,110
642,92	0,299
643,12	-0,086
643,32	0,178
643,51	0,407
643,71	-0,087
643,91	0,102
644,11	0,274
644,30	0,048
644,50	0,286
644,70	-0,063
644,90	0,373
645,09	0,149
645,29	0,085
645,49	0,235
645,69	0,014
645,88	0,447
646,08	0,101
646,28	0,570
646,48	-0,044
646,67	0,022
646,87	0,362
647,07	0,239
647,26	0,544
647,46	0,008
647,66	0,061
647,86	0,431
648,05	0,425
648,25	0,679
648,45	0,108
648,65	0,290
648,84	0,015
649,04	0,289
649,24	0,439
649,43	0,213
649,63	0,124
649,83	0,290
650,03	0,558
650,22	0,267
650,42	0,238
650,62	0,158
650,81	0,379
651,01	-0,008
651,21	0,310
651,40	0,396
651,60	-0,049
651,80	0,416
652,00	0,260
652,19	0,295
652,39	0,130
652,59	0,551
652,78	0,378
652,98	-0,066
653,18	-0,025
653,37	0,109
653,57	0,334
653,77	0,217
653,96	-0,025
654,16	0,219
654,36	0,339
654,55	-0,177
654,75	0,233
654,95	0,204
655,14	0,095
655,34	0,359
655,54	0,465
655,73	0,009
655,93	0,052
656,13	0,469
656,32	-0,255
656,52	0,247
656,72	0,252
656,91	0,424
657,11	0,052
657,31	0,261
657,50	0,095
657,70	0,460
657,90	0,382
658,09	0,469
658,29	0,493
658,49	0,218
658,68	0,139
658,88	0,279
659,07	0,375
659,27	-0,017
659,47	0,096
659,66	-0,026
659,86	0,070
660,06	0,182
660,25	-0,230
660,45	0,087
660,64	0,097
660,84	0,131
661,04	0,289
661,23	0,352
661,43	-0,053
661,63	0,249
661,82	0,156
662,02	0,078
662,21	0,166
662,41	0,560
662,61	0,718
662,80	0,202
663,00	-0,173
663,19	0,672
663,39	-0,250
663,59	0,387
663,78	0,352
663,98	0,256
664,17	0,060
664,37	0,207
664,57	-0,120
664,76	0,212
664,96	0,094
665,15	-0,128
665,35	0,000
665,55	-0,085
665,74	-0,194
665,94	0,515
666,13	0,158
666,33	0,363
666,53	0,192
666,72	0,632
666,92	0,115
667,11	0,341
667,31	0,149
667,50	0,050
667,70	0,255
667,90	-0,311
668,09	0,361
668,29	-0,008
668,48	0,130
668,68	-0,008
668,87	0,016
669,07	-0,376
669,26	0,232
669,46	0,224
669,66	0,024
669,85	0,237
670,05	0,032
670,24	0,120
670,44	-0,087
670,63	0,164
670,83	0,055
671,02	-0,141
671,22	-0,008
671,42	0,023
671,61	0,126
671,81	0,262
672,00	0,348
672,20	-0,030
672,39	0,420
672,59	0,300
672,78	-0,226
672,98	-0,008
673,17	-0,126
673,37	0,015
673,56	0,174
673,76	-0,255
673,95	0,182
674,15	0,310
674,34	0,293
674,54	0,342
674,73	0,213
674,93	0,064
675,13	0,342
675,32	0,456
675,52	0,091
675,71	0,213
675,91	0,211
676,10	0,378
676,30	0,165
676,49	-0,061
676,69	0,161
676,88	0,171
677,08	0,105
677,27	-0,111
677,47	-0,033
677,66	0,356
677,86	0,275
678,05	-0,006
678,24	0,089
678,44	0,451
678,63	0,075
678,83	0,310
679,02	0,344
679,22	0,160
679,41	0,059
679,61	0,055
679,80	-0,077
680,00	-0,101
680,19	0,129
680,39	0,186
680,58	0,029
680,78	0,138
680,97	-0,028
681,17	0,113
681,36	0,096
681,56	0,084
681,75	-0,056
681,94	0,088
682,14	0,307
682,33	-0,011
682,53	0,011
682,72	0,075
682,92	0,315
683,11	0,121
683,31	0,105
683,50	-0,162
683,69	-0,118
683,89	0,195
684,08	0,046
684,28	-0,281
684,47	0,035
684,67	0,045
684,86	-0,039
685,06	0,128
685,25	0,091
685,44	0,087
685,64	0,213
685,83	0,347
686,03	-0,112
686,22	0,130
686,42	0,116
686,61	0,077
686,80	0,014
687,00	0,122
687,19	0,075
687,39	-0,067
687,58	0,018
687,77	0,139
687,97	0,213
688,16	0,070
688,36	0,013
688,55	0,000
688,74	-0,140
688,94	0,107
689,13	-0,004
689,33	0,037
689,52	0,058
689,71	0,050
689,91	0,028
690,10	0,057
690,30	-0,028
690,49	0,008
690,68	0,075
690,88	0,000
691,07	0,020
691,27	-0,118
691,46	0,099
691,65	-0,079
691,85	0,031
692,04	0,016
692,23	-0,099
692,43	0,075
692,62	0,072
692,82	0,100
693,01	0,020
693,20	0,173
693,40	0,104
693,59	0,008
693,78	0,029
693,98	-0,114
694,17	0,012
694,36	0,228
694,56	0,164
694,75	-0,021
694,94	0,175
695,14	-0,013
695,33	0,127
695,53	0,284
695,72	0,279
695,91	-0,218
696,11	0,179
696,30	0,062
696,49	0,171
696,69	0,036
696,88	0,041
697,07	0,026
697,27	0,367
697,46	0,088
697,65	-0,023
697,85	0,006
698,04	0,195
698,23	0,024
698,43	0,281
698,62	-0,039
698,81	0,375
699,01	0,274
699,20	0,063
699,39	0,231
699,58	-0,060
699,78	-0,230
699,97	0,047
700,16	0,129
700,36	0,367
700,55	0,190
700,74	0,219
700,94	-0,018
701,13	-0,190
701,32	-0,340
701,52	0,010
701,71	0,225
701,90	0,374
702,09	0,520
702,29	0,616
702,48	-0,080
702,67	0,595
702,87	0,591
703,06	0,538
703,25	0,351
703,44	0,269
703,64	0,249
703,83	0,487
704,02	0,533
704,22	0,915
704,41	-0,217
704,60	0,467
704,79	-0,064
704,99	0,281
705,18	0,627
705,37	0,724
705,56	0,145
705,76	0,921
705,95	0,804
706,14	0,851
706,33	0,158
706,53	0,020
706,72	-0,293
706,91	0,778
707,11	0,172
707,30	0,427
707,49	-0,023
707,68	0,296
707,88	0,146
708,07	-0,024
708,26	0,323
708,45	0,078
708,64	1,220
708,84	0,404
709,03	1,974
709,22	-0,362
709,41	0,839
709,61	-0,145
709,80	1,335
709,99	0,571
710,18	0,987
710,38	-0,346
710,57	-0,985
710,76	-0,393
710,95	0,372
711,14	0,132
711,34	1,824
711,53	1,680
711,72	0,571
711,91	1,033
712,11	1,733
712,30	0,115
712,49	1,263
712,68	0,277
712,87	-0,612
713,07	2,288
713,26	1,125
713,45	-0,125
713,64	0,655
713,83	-0,616
714,03	0,403
714,22	2,081
714,41	1,071
714,60	-1,234
714,79	-1,440
714,99	-0,189
715,18	2,538
715,37	1,529
715,56	0,749
715,75	2,901
715,94	2,559
716,14	2,729
716,33	1,665
716,52	0,996
716,71	2,072
716,90	-1,110
717,10	-2,450
717,29	1,182
717,48	1,168
717,67	1,072
717,86	-0,750
718,05	1,639
718,24	2,497
718,44	1,495
718,63	1,217
718,82	2,311
719,01	-0,249
719,20	2,540
719,39	1,242
719,59	-0,195
719,78	1,670
719,97	1,406
720,16	3,226
720,35	2,959
720,54	0,978
720,73	5,461
720,93	-2,242
721,12	-1,580
721,31	0,292
721,50	2,400
721,69	-0,074
721,88	2,458
722,07	2,326
722,27	0,000
722,46	2,099
722,65	-1,668
722,84	-1,048
723,03	3,007
723,22	0,725
723,41	1,495
723,60	-0,654
723,79	6,436
723,99	1,593
724,18	5,579
724,37	0,091
724,56	-0,681
724,75	-1,043
724,94	5,068
725,13	4,721
725,32	2,520
725,51	3,070
725,71	2,662
725,90	1,890
726,09	0,274
726,28	0,095
726,47	2,071
726,66	2,708
726,85	2,559
727,04	-1,835
727,23	1,624
727,42	1,442
727,61	-2,469
727,81	-7,135
728,00	-0,832
728,19	0,542
728,38	-1,201
728,57	2,917
728,76	4,077
728,95	7,500
729,14	1,732
729,33	3,441
729,52	2,025
729,71	0,325
729,90	0,110
730,09	2,576
730,28	1,810
730,48	-1,129
730,67	0,893
730,86	5,792
731,05	-0,117
731,24	-1,341
731,43	4,297
731,62	7,904
731,81	1,476
732,00	3,473
732,19	0,721
732,38	3,205
732,57	3,178
732,76	-0,137
732,95	3,089
733,14	-3,730
733,33	0,000
733,52	-1,826
733,71	0,574
733,90	0,000
734,09	3,784
734,28	1,837
734,47	1,667
734,66	-0,267
734,85	2,571
735,04	-2,853
735,23	4,482
735,42	6,284
735,61	3,207
735,81	0,592
736,00	0,855
736,19	5,319
736,38	-5,389
736,57	8,230
736,76	5,109
736,95	3,503
737,14	3,030
737,33	6,648
737,52	2,769
737,71	0,820
737,90	5,100
738,09	4,871
738,28	4,335
738,47	-3,650
738,66	0,000
738,85	6,306
739,04	-1,029
739,22	0,334
739,41	3,493
739,60	-6,485
739,79	-4,676
739,98	-0,538
740,17	5,973
740,36	2,532
740,55	11,306
740,74	4,288
740,93	1,912
741,12	-3,571
741,31	3,521
741,50	-0,945
741,69	3,186
741,88	0,395
742,07	4,529
742,26	-0,190
742,45	9,016
742,64	1,828
742,83	4,071
743,02	-1,895
743,21	6,498
743,40	-5,797
743,59	7,169
743,78	4,501
743,97	5,962
744,16	0,591
744,34	2,564
744,53	2,680
744,72	2,505
744,91	1,471
745,10	3,145
745,29	5,847
745,48	12,045
745,67	4,556
745,86	6,181
746,05	1,659
746,24	7,423
746,43	-3,426
746,62	11,638
746,81	7,191
747,00	-5,689
747,18	6,100
747,37	14,526
747,56	-4,000
747,75	-0,739
747,94	5,583
748,13	12,304
748,32	9,524
748,51	3,553
748,70	5,066
748,89	2,342
749,08	0,291
749,26	6,828
749,45	3,753
749,64	4,030
749,83	2,921
750,02	15,217
750,21	1,781
750,40	7,085
750,59	0,000
750,78	5,237
750,96	-0,552
751,15	1,636
751,34	-4,261
751,53	-0,820
751,72	-9,296
751,91	4,663
752,10	11,257
752,29	10,667
752,47	-5,444
752,66	0,635
752,85	1,913
753,04	0,838
753,23	3,715
753,42	6,469
753,61	5,956
753,80	0,687
753,98	13,889
754,17	7,295
754,36	-4,194
754,55	6,627
754,74	6,818
754,93	11,570
755,12	-0,593
755,30	5,195
755,49	0,872
755,68	3,681
755,87	10,355
756,06	2,778
756,25	9,726
756,43	-13,087
756,62	9,006
756,81	11,258
757,00	0,987
757,19	-8,681
757,38	-3,861
757,56	-14,000
757,75	22,867
757,94	-5,323
758,13	-4,795
758,32	12,463
758,51	-3,367
758,69	13,127
758,88	3,367
759,07	16,766
759,26	3,887
759,45	8,421
759,63	7,359
759,82	20,702
760,01	12,454
760,20	12,579
760,39	16,719
760,57	4,530
760,76	16,376
760,95	13,889
761,14	-2,190
761,33	3,548
761,51	8,214
761,70	11,524
761,89	-16,000
762,08	31,599
762,27	5,415
762,45	9,058
762,64	-4,020
762,83	25,100
763,02	-1,739
763,21	-29,500
763,39	5,245
763,58	5,948
763,77	3,797
763,96	14,741
764,14	15,000
764,33	0,000
764,52	18,304
764,71	16,721
764,89	21,875
765,08	8,867
765,27	-1,277
765,46	-8,072
765,65	21,569
765,83	22,172
766,02	-12,857
766,21	-12,568
766,40	20,233
766,58	-4,762
766,77	10,550
766,96	12,195
767,15	22,689
767,33	14,493
767,52	-1,310
767,71	0,439
767,90	1,005
768,08	18,563
768,27	7,724
768,46	7,895
768,64	7,870
768,83	15,196
769,02	-10,345
769,21	7,812
769,39	13,571
769,58	15,584
769,77	15,426
769,96	-0,901
770,14	30,055
770,33	11,215
770,52	12,950
770,70	-3,784
770,89	-3,243
771,08	-14,458
771,27	1,579
771,45	5,294
771,64	1,818
771,83	20,588
772,01	24,227
772,20	3,483
772,39	12,658
772,57	6,965
772,76	-2,027
772,95	13,793
773,14	17,007
773,32	14,124
773,51	16,071
773,70	-5,036
773,88	1,290
774,07	16,751
774,26	0,000
774,44	-6,015
774,63	30,539
774,82	-1,948
775,00	26,168
775,19	-1,786
775,38	11,170
775,56	32,298
775,75	9,890
775,94	0,833
776,12	39,216
776,31	3,008
776,50	6,164
776,68	1,613
776,87	29,187
777,06	38,365
777,24	34,454
777,43	12,299
777,62	37,640
777,80	23,899
777,99	13,333
778,18	13,218
778,36	58,475
778,55	-2,542
778,74	25,781
778,92	14,815
779,11	18,182
779,29	-39,007
779,48	30,496
779,67	-4,505
779,85	-24,561
780,04	-2,899
780,23	20,238
780,41	31,356
780,60	23,490
780,79	25,806
780,97	14,379
781,16	26,064
781,34	25,000
781,53	-4,464
781,72	-35,135
781,90	11,976
782,09	-18,605
782,28	14,286
782,46	32,143
782,65	28,169
782,83	18,239
783,02	30,702
783,21	6,015
783,39	13,445
783,58	24,348
783,76	21,769
783,95	52,113
784,14	55,263
784,32	5,882
784,51	35,811
784,69	24,219
784,88	-14,953
785,06	20,530
785,25	26,241
785,44	8,065
785,62	4,286
785,81	0,926
785,99	47,368
786,18	38,739
786,37	32,967
786,55	18,056
786,74	46,364
786,92	6,294
787,11	4,861
787,29	-11,607
787,48	13,978
787,67	15,094
787,85	31,646
788,04	2,703
788,22	10,891
788,41	29,921
788,59	22,368
788,78	-27,473
788,96	42,149
789,15	12,500
789,34	50,000
789,52	-14,516
789,71	-0,719
789,89	11,688
790,08	-3,750
790,26	42,675
790,45	61,111
790,63	3,448
790,82	3,077
791,00	29,204
791,19	10,400
791,38	-4,762
791,56	41,818
791,75	-15,278
791,93	8,000
792,12	19,130
792,30	7,299
792,49	19,192
792,67	-3,676
792,86	26,400
793,04	28,704
793,23	41,053
793,41	-10,870
793,60	36,806
793,78	57,143
793,97	43,056
794,15	56,391
794,34	4,000
794,52	20,430
794,71	48,062
794,89	-0,758
795,08	20,000
795,26	33,333
795,45	45,833
795,63	32,258
795,82	-39,560
796,00	24,000
796,19	10,569
796,37	23,664
796,56	-26,214
796,74	-25,263
796,93	33,333
797,11	7,229
797,30	23,889
797,48	17,969
797,67	4,065
797,85	15,385
798,04	22,881
798,22	47,436
798,41	-7,692
798,59	20,000
798,77	22,892
798,96	35,185
799,14	33,065
799,33	38,532
799,51	63,889
799,70	66,154
799,88	43,119
800,07	28,244
800,25	-38,554
800,44	-14,815
800,62	19,444
800,80	41,549
800,99	75,342
801,17	12,069
801,36	47,857
801,54	15,000
801,73	18,947
801,91	13,223
802,10	41,176
802,28	32,800
802,46	40,789
802,65	7,194
802,83	10,667
803,02	51,613
803,20	28,916
803,39	49,425
803,57	22,047
803,75	3,252
803,94	37,302
804,12	37,241
804,31	-39,130
804,49	19,200
804,67	6,618
804,86	-30,973
805,04	-4,819
805,23	38,938
805,41	5,000
805,59	37,671
805,78	39,200
805,96	-8,434
806,15	59,406
806,33	25,000
806,51	8,000
806,70	15,038
806,88	26,744
807,07	63,964
807,25	39,560
807,43	20,536
807,62	16,814
807,80	9,524
807,99	13,846
808,17	21,260
808,35	16,000
808,54	41,304
808,72	40,541
808,90	25,342
809,09	8,696
809,27	18,667
809,46	41,758
809,64	28,049
809,82	1,987
810,01	18,750
810,19	16,162
810,37	17,969
810,56	60,000
810,74	44,156
810,92	20,000
811,11	-30,702
811,29	15,094
811,48	10,000
811,66	8,989
811,84	10,989
812,03	-7,377
812,21	30,702
812,39	6,087
812,58	15,789
812,76	58,273
812,94	-3,614
813,13	7,447
813,31	22,000
813,49	1,852
813,68	15,455
813,86	0,000
814,04	4,959
814,23	21,084
814,41	26,966
814,59	53,398
814,78	30,147
814,96	-0,629
815,14	-7,477
815,33	23,256
815,51	3,150
815,69	38,095
815,87	5,941
816,06	40,000
816,24	31,056
816,42	22,794
816,61	33,333
816,79	25,000
816,97	26,136
817,16	22,485
817,34	23,810
817,52	-20,661
817,70	8,911
817,89	47,407
818,07	16,438
818,25	-5,102
818,44	5,128
818,62	10,078
818,80	0,752
818,98	44,586
819,17	19,328
819,35	27,660
819,53	12,687
819,72	54,430
819,90	34,884
820,08	3,419
820,26	17,241
820,45	-0,671
820,63	50,000
820,81	37,600
820,99	44,681
821,18	38,776
821,36	15,823
821,54	21,379
821,73	17,778
821,91	4,386
822,09	25,000
822,27	34,839
822,46	8,088
822,64	14,400
822,82	14,917
823,00	-4,972
823,19	25,824
823,37	21,212
823,55	14,773
823,73	21,379
823,91	28,261
824,10	7,527
824,28	42,211
824,46	-35,922
824,64	19,737
824,83	17,391
825,01	-12,667
825,19	9,677
825,37	11,304
825,56	23,113
825,74	19,898
825,92	26,752
826,10	24,432
826,28	-6,548
826,47	0,526
826,65	48,227
826,83	-5,172
827,01	42,197
827,19	26,786
827,38	29,630
827,56	10,227
827,74	2,793
827,92	14,535
828,10	17,949
828,29	19,527
828,47	34,553
828,65	10,000
828,83	-3,030
829,01	17,391
829,20	37,912
829,38	32,955
829,56	32,065
829,74	-3,774
829,92	6,746
830,10	11,494
830,29	8,543
830,47	13,568
830,65	-4,268
830,83	6,696
831,01	39,881
831,20	33,981
831,38	-7,656
831,56	12,558
831,74	4,739
831,92	16,447
832,10	27,619
832,29	23,649
832,47	1,685
832,65	-0,980
832,83	7,042
833,01	10,500
833,19	17,195
833,37	15,837
833,56	-8,861
833,74	-1,471
833,92	1,389
834,10	17,427
834,28	8,017
834,46	28,507
834,64	20,370
834,83	10,455
835,01	9,129
835,19	23,200
835,37	14,050
835,55	11,458
835,73	30,049
835,91	26,568
836,09	15,589
836,28	8,856
836,46	7,200
836,64	30,075
836,82	10,407
837,00	20,290
837,18	11,524
837,36	14,741
837,54	11,364
837,72	-7,328
837,91	6,343
838,09	-3,586
838,27	13,667
838,45	1,418
838,63	3,309
838,81	1,688
838,99	14,113
839,17	8,784
839,35	7,801
839,53	3,158
839,72	1,880
839,90	17,869
840,08	24,308
840,26	18,254
840,44	19,335
840,62	5,517
840,80	26,871
840,98	-8,235
841,16	-6,844
841,34	10,368
841,52	10,092
841,70	3,692
841,89	-2,419
842,07	5,329
842,25	23,851
842,43	-9,052
842,61	24,211
842,79	11,017
842,97	4,886
843,15	10,561
843,33	6,940
843,51	6,627
843,69	29,060
843,87	-4,104
844,05	2,432
844,23	14,414
844,41	0,313
844,59	1,153
844,77	4,762
844,95	22,832
845,13	14,769
845,31	-0,581
845,50	11,257
845,68	-1,608
845,86	2,299
846,04	15,642
846,22	-2,452
846,40	8,333
846,58	11,111
846,76	5,108
846,94	12,968
847,12	9,585
847,30	-2,062
847,48	-16,099
847,66	10,099
847,84	4,645
848,02	6,522
848,20	0,775
848,38	-12,251
848,56	8,807
848,74	16,706
848,92	-8,229
849,10	3,750
849,28	11,134
849,46	11,467
849,64	10,855
849,82	-2,160
850,00	10,280
850,18	16,809
850,36	-4,857
850,54	7,018
850,72	12,853
850,90	12,391
851,08	8,753
851,26	5,470
851,44	1,549
851,62	-1,395
851,80	10,793
851,98	14,286
852,16	7,092
852,34	8,247
852,52	4,464
852,70	0,000
852,87	4,566
853,05	-0,780
853,23	13,814
853,41	9,070
853,59	11,618
853,77	8,532
853,95	5,696
854,13	3,540
854,31	11,294
854,49	0,200
854,67	6,695
854,85	7,246
855,03	5,010
855,21	6,526
855,39	-7,646
855,57	3,943
855,75	11,496
855,93	3,333
856,11	10,251
856,28	9,779
856,46	8,897
856,64	9,143
856,82	7,732
857,00	-0,406
857,18	6,859
857,36	6,408
857,54	6,401
857,72	5,088
857,90	1,292
858,08	-0,784
858,26	-6,418
858,44	0,780
858,61	0,871
858,79	5,017
858,97	3,186
859,15	6,811
859,33	5,938
859,51	0,670
859,69	-2,326
859,87	7,414
860,05	-3,375
860,23	3,571
860,40	1,246
860,58	2,951
860,76	1,905
860,94	8,130
861,12	9,385
861,30	3,297
861,48	5,714
861,66	3,968
861,84	0,897
862,01	3,093
862,19	3,559
862,37	1,059
862,55	6,052
862,73	-1,084
862,91	1,028
863,09	3,869
863,27	-0,862
863,44	2,680
863,62	4,620
863,80	2,813
863,98	5,045
864,16	-4,769
864,34	3,253
864,52	2,815
864,69	8,187
864,87	-0,868
865,05	6,939
865,23	2,092
865,41	2,016
865,59	1,884
865,76	6,598
865,94	8,010
866,12	4,000
866,30	-2,244
866,48	5,263
866,66	-2,016
866,83	6,361
867,01	0,639
867,19	1,821
867,37	-1,423
867,55	-0,358
867,73	0,481
867,90	1,796
868,08	1,330
868,26	4,289
868,44	2,227
868,62	6,020
868,79	1,031
868,97	1,259
869,15	-1,972
869,33	4,518
869,51	3,600
869,69	-0,976
869,86	2,807
870,04	6,897
870,22	6,849
870,40	0,351
870,57	0,231
870,75	2,762
870,93	4,842
871,11	6,169
871,29	4,338
871,46	4,857
871,64	8,054
871,82	1,507
872,00	8,848
872,18	-1,266
872,35	2,601
872,53	4,496
872,71	5,102
872,89	6,688
873,06	4,154
873,24	5,820
873,42	2,579
873,60	0,632
873,77	2,965
873,95	-1,344
874,13	-4,651
874,31	3,199
874,49	4,163
874,66	1,222
874,84	0,702
875,02	4,216
875,20	1,576
875,37	4,817
875,55	0,286
875,73	3,671
875,91	-0,279
876,08	2,834
876,26	-2,473
876,44	5,474
876,61	4,029
876,79	3,587
876,97	-1,004
877,15	0,881
877,32	1,108
877,50	-1,076
877,68	-0,428
877,86	-0,340
878,03	2,316
878,21	2,138
878,39	5,854
878,56	1,818
878,74	3,746
878,92	-0,726
879,10	1,537
879,27	3,007
879,45	2,550
879,63	2,096
879,80	3,593
879,98	1,806
880,16	2,183
880,34	4,127
880,51	-1,183
880,69	-1,265
880,87	1,275
881,04	0,796
881,22	1,231
881,40	2,799
881,57	2,669
881,75	1,316
881,93	5,182
882,10	1,335
882,28	1,793
882,46	4,315
882,63	1,127
882,81	1,831
882,99	0,652
883,16	0,854
883,34	-0,067
883,52	3,219
883,69	1,718
883,87	-0,456
884,05	0,487
884,22	2,870
884,40	2,438
884,58	-0,387
884,75	2,404
884,93	2,616
885,11	1,031
885,28	0,561
885,46	-3,506
885,64	0,771
885,81	0,942
885,99	2,540
886,17	-0,116
886,34	-0,948
886,52	-0,641
886,70	2,962
886,87	0,544
887,05	0,056
887,22	1,051
887,40	2,253
887,58	0,481
887,75	3,030
887,93	3,740
888,11	3,487
888,28	1,592
888,46	1,424
888,63	0,256
888,81	3,127
888,99	1,818
889,16	2,382
889,34	1,590
889,51	1,501
889,69	-0,857
889,87	3,976
890,04	1,379
890,22	2,292
890,39	0,000
890,57	2,301
890,75	0,655
890,92	1,576
891,10	1,407
891,27	1,749
891,45	0,472
891,63	1,523
891,80	0,230
891,98	0,782
892,15	-0,092
892,33	0,646
892,51	3,006
892,68	2,219
892,86	0,502
893,03	0,366
893,21	2,039
893,38	2,042
893,56	1,471
893,74	2,790
893,91	1,887
894,09	0,605
894,26	1,410
894,44	2,379
894,61	1,191
894,79	0,127
894,96	1,962
895,14	0,466
895,32	0,374
895,49	1,576
895,67	2,238
895,84	0,931
896,02	-0,301
896,19	-0,084
896,37	0,832
896,54	3,052
896,72	-0,162
896,89	0,323
897,07	2,047
897,25	1,426
897,42	1,074
897,60	2,002
897,77	1,207
897,95	0,818
898,12	0,898
898,30	2,090
898,47	0,039
898,65	0,783
898,82	0,777
899,00	0,079
899,17	1,931
899,35	-0,158
899,52	1,616
899,70	0,153
899,87	-1,375
900,05	0,495
900,22	0,610
900,40	-0,151
900,57	0,445
900,75	-1,121
900,92	1,669
901,10	0,633
901,27	-0,185
901,45	2,356
901,62	2,585
901,80	-0,709
901,97	0,396
902,15	1,020
902,32	1,186
902,50	-0,431
902,67	3,478
902,85	0,428
903,02	2,008
903,20	0,749
903,37	0,142
903,54	1,006
903,72	1,001
903,89	1,299
904,07	0,749
904,24	3,451
904,42	0,634
904,59	-0,357
904,77	0,814
904,94	0,651
905,12	-0,354
905,29	0,105
905,47	0,105
905,64	0,698
905,81	0,174
905,99	-1,260
906,16	-1,006
906,34	0,650
906,51	0,553
906,69	0,552
906,86	0,670
907,03	0,774
907,21	-0,299
907,38	0,068
907,56	1,643
907,73	-0,234
907,91	0,548
908,08	1,170
908,25	2,227
908,43	0,067
908,60	0,162
908,78	-0,885
908,95	0,646
909,13	2,512
909,30	1,889
909,47	0,489
909,65	1,532
909,82	0,825
910,00	0,310
910,17	0,639
910,34	1,632
910,52	0,498
910,69	-0,221
910,87	1,284
911,04	-0,727
911,21	1,302
911,39	0,000
911,56	2,460
911,73	0,751
911,91	0,604
912,08	1,072
912,26	-0,997
912,43	1,509
912,60	0,149
912,78	1,422
912,95	1,620
913,13	-0,202
913,30	1,898
913,47	1,100
913,65	1,099
913,82	0,432
913,99	0,902
914,17	0,811
914,34	-0,488
914,51	0,943
914,69	0,516
914,86	0,884
915,03	1,094
915,21	0,832
915,38	0,665
915,56	0,583
915,73	-0,256
915,90	0,418
916,08	0,622
916,25	0,056
916,42	0,620
916,60	1,390
916,77	0,524
916,94	1,140
917,12	0,479
917,29	0,386
917,46	0,988
917,64	0,779
917,81	0,274
917,98	1,174
918,16	-0,348
918,33	1,721
918,50	0,969
918,67	-0,054
918,85	0,788
919,02	0,078
919,19	-0,104
919,37	-0,419
919,54	1,421
919,71	2,274
919,89	-0,052
920,06	1,358
920,23	0,230
920,41	0,898
920,58	0,312
920,75	1,616
920,92	-0,076
921,10	-0,103
921,27	0,150
921,44	1,083
921,62	1,617
921,79	0,323
921,96	0,245
922,13	1,401
922,31	-0,097
922,48	-0,884
922,65	-0,267
922,82	-0,074
923,00	0,531
923,17	0,342
923,34	-0,381
923,52	-0,164
923,69	1,289
923,86	1,058
924,03	0,165
924,21	-0,260
924,38	0,783
924,55	0,795
924,72	-0,189
924,90	0,070
925,07	-0,118
925,24	0,896
925,41	0,588
925,59	0,457
925,76	-0,346
925,93	0,772
926,10	0,544
926,28	0,023
926,45	0,227
926,62	0,541
926,79	0,774
926,96	1,325
927,14	1,805
927,31	0,375
927,48	0,108
927,65	0,476
927,83	0,838
928,00	0,926
928,17	0,456
928,34	0,260
928,51	1,468
928,69	0,684
928,86	0,175
929,03	0,110
929,20	-0,151
929,37	-0,191
929,55	0,104
929,72	0,846
929,89	1,047
930,06	0,417
930,23	1,242
930,41	0,458
930,58	0,484
930,75	0,394
930,92	1,484
931,09	0,532
931,27	-0,475
931,44	-0,225
931,61	0,867
931,78	0,933
931,95	0,286
932,12	0,802
932,30	0,936
932,47	0,103
932,64	1,035
932,81	0,446
932,98	0,455
933,16	0,484
933,33	0,932
933,50	-0,305
933,67	0,606
933,84	2,084
934,01	0,483
934,18	0,602
934,36	-0,324
934,53	0,986
934,70	0,523
934,87	0,324
935,04	0,120
935,21	1,006
935,38	-0,260
935,56	0,659
935,73	0,240
935,90	0,456
936,07	0,589
936,24	1,078
936,41	0,927
936,58	-0,020
936,76	0,197
936,93	-0,098
937,10	0,607
937,27	0,547
937,44	1,195
937,61	0,161
937,78	0,842
937,95	0,654
938,13	0,408
938,30	0,713
938,47	0,221
938,64	0,160
938,81	0,099
938,98	0,259
939,15	1,207
939,32	0,394
939,49	-0,677
939,66	0,378
939,84	0,020
940,01	0,344
940,18	0,668
940,35	0,473
940,52	-0,103
940,69	0,607
940,86	1,360
941,03	0,907
941,20	0,628
941,37	-0,042
941,54	1,659
941,71	0,858
941,89	1,253
942,06	0,713
942,23	1,054
942,40	0,716
942,57	0,273
942,74	0,680
942,91	2,145
943,08	1,196
943,25	0,799
943,42	0,711
943,59	2,052
943,76	1,621
943,93	0,359
944,10	0,450
944,27	0,665
944,44	-0,161
944,61	0,759
944,79	2,155
944,96	1,180
945,13	0,796
945,30	1,333
945,47	1,207
945,64	0,849
945,81	0,561
945,98	0,894
946,15	1,096
946,32	2,125
946,49	1,742
946,66	2,116
946,83	0,624
947,00	1,212
947,17	0,598
947,34	1,621
947,51	1,269
947,68	2,167
947,85	1,984
948,02	2,466
948,19	1,652
948,36	2,189
948,53	0,640
948,70	1,272
948,87	2,871
949,04	3,188
949,21	1,588
949,38	2,865
949,55	3,193
949,72	1,822
949,89	2,006
950,06	2,493
950,23	1,345
950,40	1,526
950,57	0,784
950,74	2,028
950,91	2,091
951,08	2,245
951,25	1,788
951,42	1,771
951,59	1,482
951,76	0,995
951,93	-0,430
952,10	0,403
952,27	1,352
952,44	3,269
952,61	1,975
952,77	1,135
952,94	1,932
953,11	0,606
953,28	2,779
953,45	3,308
953,62	1,404
953,79	1,432
953,96	1,105
954,13	2,516
954,30	2,935
954,47	-0,215
954,64	0,572
954,81	3,583
954,98	1,348
955,15	0,484
955,32	0,580
955,49	2,824
955,65	-0,511
955,82	4,227
955,99	2,974
956,16	3,916
956,33	1,526
956,50	-2,212
956,67	0,218
956,84	1,908
957,01	1,791
957,18	2,662
957,35	-1,815
957,52	2,653
957,68	1,403
957,85	2,215
958,02	3,424
958,19	-2,062
958,36	3,813
958,53	-0,567
958,70	0,651
958,87	0,499
959,04	0,613
959,21	5,195
959,37	5,188
959,54	2,199
959,71	0,110
959,88	-1,860
960,05	2,328
960,22	2,264
960,39	-0,251
960,56	-0,384
960,72	5,125
960,89	6,711
961,06	4,709
961,23	0,153
961,40	2,790
961,57	2,556
961,74	-5,684
961,90	6,531
962,07	5,082
962,24	-1,284
962,41	5,172
962,58	2,676
962,75	10,256
962,92	1,053
963,08	2,917
963,25	-5,976
963,42	10,040
963,59	5,339
963,76	9,742
963,93	6,925
964,10	2,715
964,26	9,524
964,43	-0,465
964,60	3,712
964,77	10,738
964,94	1,235
965,10	9,471
965,27	5,587
965,44	2,540
965,61	-2,397
965,78	-7,453
965,95	10,697
966,11	-1,212
966,28	7,821
966,45	10,784
966,62	-2,091
966,79	10,239
966,95	3,559
967,12	15,556
967,29	7,716
967,46	20,641
967,63	17,255
967,79	9,732
967,96	-16,055
968,13	27,143
968,30	18,930
968,47	11,923
968,63	17,647
968,80	13,027
968,97	0,578
969,14	11,299
969,31	14,796
969,47	17,935
969,64	-27,473
969,81	9,677
969,98	15,789
970,14	15,054
970,31	-3,774
970,48	-10,738
970,65	-14,876
970,81	-33,566
970,98	21,875
971,15	36,970
971,32	15,152
971,48	51,190
971,65	5,960
971,82	0,909
971,99	44,937
972,15	-11,628
972,32	43,750
972,49	-14,754
972,66	19,835
972,82	30,137
972,99	5,000
973,16	47,682
973,33	28,889
973,49	25,610
973,66	14,286
973,83	2,469
974,00	-27,848
974,16	-3,636
974,33	50,667
974,50	5,051
974,67	48,810
974,83	52,041
975,00	49,091
975,17	27,419
975,33	32,184
975,50	8,197
975,67	-11,538
975,84	-7,317
976,00	22,368
976,17	4,348
976,34	64,706
976,50	15,385
976,67	61,905
976,84	79,167
977,00	30,769
977,17	71,111
977,34	117,308
977,50	21,429
977,67	69,412
977,84	30,508
978,01	31,081
978,17	3,448
978,34	40,741
978,51	124,000
978,67	85,714
978,84	-23,636
979,01	-60,526
979,17	-4,286
979,34	165,217
979,51	34,091
979,67	162,500
979,84	42,373
980,01	-34,615
980,17	88,235
980,34	56,164
980,51	77,778
980,67	42,222
980,84	41,429
981,01	152,941
981,17	42,647
981,34	11,429
981,50	78,947
981,67	66,667
981,84	85,714
982,00	-100,000
982,17	59,375
982,34	95,122
982,50	0,000
982,67	28,571
982,84	305,000
983,00	14,815
983,17	85,714
983,33	-155,556
983,50	24,390
983,67	49,275
983,83	114,286
984,00	100,000
984,17	66,667
984,33	-264,286
984,50	75,676
984,66	-100,000
984,83	-100,000
985,00	69,231
985,16	-12,903
985,33	900,000
985,49	95,349
985,66	65,000
985,83	-33,333
985,99	166,667
986,16	-63,158
986,32	35,616
986,49	100,000
986,66	200,000
986,82	142,424
986,99	100,000
987,15	124,242
987,32	82,353
987,49	175,000
987,65	-0,000
987,82	20,000
987,98	75,758
988,15	-85,714
988,31	80,000
988,48	92,157
988,65	140,000
988,81	52,727
988,98	140,541
989,14	550,000
989,31	59,322
989,47	-3,571
989,64	177,778
989,80	76,596
989,97	58,182
990,14	114,286
990,30	-150,000
990,47	-204,167
990,63	142,105
990,80	100,000
990,96	483,333
991,13	26,667
991,29	27,451
991,46	8,333
991,62	0,000
991,79	40,000
991,95	76,471
992,12	733,333
992,29	-147,619
992,45	88,095
992,62	-42,857
992,78	133,333
992,95	58,065
993,11	212,500
993,28	500,000
993,44	-65,517
993,61	96,491
993,77	0,000
993,94	97,436
994,10	585,714
994,27	47,368
994,43	228,125
994,60	421,429
994,76	93,939
994,93	-410,000
995,09	-143,750
995,26	187,500
995,42	237,500
995,59	80,000
995,75	25,000
995,92	-14,286
996,08	-360,000
996,25	36,364
996,41	640,000
996,58	168,000
996,74	20,000
996,91	41,935
997,07	116,000
997,23	78,431
997,40	50,000
997,56	-1266,667
997,73	221,739
997,89	840,000
998,06	91,228
998,22	85,106
998,39	181,633
998,55	342,105
998,72	-900,000
998,88	162,000
999,05	253,333
999,21	182,353
999,37	272,093
999,54	145,161
999,70	109,524
999,87	633,333
1000,03	100,000
1000,20	-171,429
1000,36	-375,000
1000,52	150,000
1000,69	332,000
1000,85	50,000
1001,02	176,190
1001,18	200,000
1001,35	0,000
1001,51	242,857
1001,67	165,000
1001,84	21,951
1002,00	-527,273
1002,17	-400,000
1002,33	300,000
1002,50	600,000
1002,66	550,000
1002,82	63,415
1002,99	-68,182
1003,15	-5500,000
1003,32	7,143
1003,48	-533,333
1003,64	260,870
1003,81	205,263
1003,97	57,971
1004,14	-3,636
1004,30	309,091
1004,46	-300,000
1004,63	-307,692
1004,79	51,351
1004,95	-40,000
1005,12	261,538
1005,28	116,667
1005,45	-266,667
1005,61	323,077
1005,77	-271,429
1005,94	45,652
1006,10	40,000
1006,26	137,037
1006,43	48,485
1006,59	235,484
1006,76	-36,000
1006,92	234,783
1007,08	40,909
1007,25	66,667
1007,41	213,636
1007,57	-282,353
1007,74	117,391
1007,90	-71,429
1008,06	-26,667
1008,23	-94,737
1008,39	36,111
1008,55	61,176
1008,72	-900,000
1008,88	-114,286
1009,04	-277,778
1009,21	162,500
1009,37	245,161
1009,53	-120,000
1009,70	68,182
1009,86	68,421
1010,02	106,818
1010,19	340,000
1010,35	2200,000
1010,51	185,714
1010,68	90,909
1010,84	190,000
1011,00	7,143
1011,17	1466,667
1011,33	126,923
1011,49	93,750
1011,66	218,750
1011,82	-641,667
1011,98	340,000
1012,14	307,692
1012,31	61,364
1012,47	157,143
1012,63	2100,000
1012,80	138,889
1012,96	69,444
1013,12	-48,148
1013,29	279,167
1013,45	-35,294
1013,61	-740,000
1013,77	-11,111
1013,94	270,833
1014,10	3200,000
1014,26	-58,824
1014,43	173,684
1014,59	0,000
1014,75	170,000
1014,91	171,429
1015,08	126,923
1015,24	40,000
1015,40	180,000
1015,56	394,118
1015,73	159,184
1015,89	377,778
1016,05	108,108
1016,21	96,296
1016,38	131,579
1016,54	-152,000
1016,70	278,947
1016,86	-484,615
1017,03	0,000
1017,19	112,500
1017,35	100,000
1017,51	566,667
1017,68	214,286
1017,84	236,842
1018,00	-14,286
1018,16	-200,000
1018,33	72,727
1018,49	200,000
1018,65	-209,091
1018,81	63,415
1018,97	146,154
1019,14	-400,000
1019,30	276,190
1019,46	92,308
1019,62	600,000
1019,79	-285,714
1019,95	-250,000
1020,11	-80,000
1020,27	-30,000
1020,43	-437,500
1020,60	0,000
1020,76	88,235
1020,92	3000,000
1021,08	-66,667
1021,24	1550,000
1021,41	106,061
1021,57	-104,167
1021,73	0,000
1021,89	-50,000
1022,05	165,714
1022,21	-38,462
1022,38	126,316
1022,54	340,000
1022,70	37,037
1022,86	-400,000
1023,02	366,667
1023,19	-180,000
1023,35	71,698
1023,51	135,484
1023,67	60,526
1023,83	54,545
1023,99	88,571
1024,16	16,923
1024,32	231,250
1024,48	177,551
1024,64	380,000
1024,80	100,000
1024,96	246,154
1025,12	1666,667
1025,29	275,000
1025,45	95,833
1025,61	466,667
1025,77	261,905
1025,93	323,077
1026,09	2000,000
1026,26	14,286
1026,42	425,000
1026,58	69,231
1026,74	300,000
1026,90	147,368
1027,06	-360,000
1027,22	58,333
1027,38	322,222
1027,55	-156,000
1027,71	375,000
1027,87	45,000
1028,03	22,727
1028,19	-139,394
1028,35	33,784
1028,51	48,387
1028,67	-80,000
1028,83	133,333
1029,00	342,857
1029,16	-13,333
1029,32	194,118
1029,48	1050,000
1029,64	400,000
1029,80	1116,667
1029,96	156,863
1030,12	337,500
1030,28	450,000
1030,44	-550,000
1030,61	90,625
1030,77	-165,217
1030,93	48,837
1031,09	-35,714
1031,25	-588,889
1031,41	-0,000
1031,57	21,053
1031,73	300,000
1031,89	-121,212
1032,05	785,714
1032,21	50,000
1032,37	79,412
1032,53	75,000
1032,69	1700,000
1032,86	400,000
1033,02	137,500
1033,18	-353,846
1033,34	38,462
1033,50	151,613
1033,66	288,889
1033,82	153,571
1033,98	-229,412
1034,14	444,444
1034,30	-9,091
1034,46	312,500
1034,62	194,444
1034,78	36,508
1034,94	154,839
1035,10	-336,364
1035,26	-377,778
1035,42	11,429
1035,58	220,000
1035,74	-60,000
1035,90	-358,333
1036,06	100,000
1036,22	-200,000
1036,38	653,333
1036,54	40,000
1036,70	-1250,000
1036,86	-71,429
1037,02	-200,000
1037,18	-25,000
1037,34	160,870
1037,50	-340,000
1037,66	-566,667
1037,82	70,588
1037,98	47,619
1038,14	-75,862
1038,30	132,692
1038,46	77,083
1038,62	103,226
1038,78	150,000
1038,94	18,421
1039,10	-4,167
1039,26	121,053
1039,42	-114,286
1039,58	62,264
1039,74	-15,625
1039,90	-10,256
1040,06	223,529
>>>>>End Processed Spectral Data<<<<<
