SpectraSuite Data File
++++++++++++++++++++++++++++++++++++
Date: Thu Feb 02 17:18:34 EET 2017
User: optolab
Dark Spectrum Present: Yes
Reference Spectrum Present: Yes
Number of Sampled Component Spectra: 1
Spectrometers: USB4C02475
Integration Time (usec): 100000 (USB4C02475)
Spectra Averaged: 1 (USB4C02475)
Boxcar Smoothing: 0 (USB4C02475)
Correct for Electrical Dark: No (USB4C02475)
Strobe/Lamp Enabled: No (USB4C02475)
Correct for Detector Non-linearity: No (USB4C02475)
Correct for Stray Light: No (USB4C02475)
Number of Pixels in Processed Spectrum: 3648
>>>>>Begin Processed Spectral Data<<<<<
344,91	-950,000
345,13	-950,000
345,35	-950,000
345,57	-100,000
345,79	50,000
346,00	-5,882
346,22	-600,000
346,44	-103,030
346,66	153,191
346,87	191,304
347,09	200,000
347,31	4400,000
347,53	-1200,000
347,74	-130,233
347,96	-657,143
348,18	158,824
348,40	300,000
348,61	-71,795
348,83	2900,000
349,05	115,385
349,27	376,471
349,48	-3000,000
349,70	250,000
349,92	71,429
350,14	113,514
350,35	-130,769
350,57	-44,444
350,79	25,641
351,01	-173,333
351,22	60,000
351,44	258,333
351,66	55,556
351,87	333,333
352,09	67,105
352,31	150,000
352,53	157,143
352,74	-685,714
352,96	89,474
353,18	-65,625
353,40	-325,000
353,61	360,000
353,83	118,750
354,05	175,000
354,26	278,571
354,48	-740,000
354,70	138,095
354,92	150,000
355,13	-69,767
355,35	140,741
355,57	145,312
355,78	-35,714
356,00	112,766
356,22	159,091
356,44	151,163
356,65	200,000
356,87	116,667
357,09	171,429
357,30	27,273
357,52	-866,667
357,74	132,258
357,95	142,857
358,17	94,203
358,39	100,000
358,60	61,111
358,82	81,818
359,04	192,308
359,26	86,364
359,47	-323,077
359,69	200,000
359,91	348,000
360,12	140,000
360,34	-47,222
360,56	1300,000
360,77	566,667
360,99	483,333
361,21	56,522
361,42	-650,000
361,64	-266,667
361,86	149,254
362,07	313,333
362,29	222,500
362,51	216,216
362,72	-1000,000
362,94	288,889
363,16	77,143
363,37	500,000
363,59	-4600,000
363,81	725,000
364,02	78,667
364,24	86,364
364,46	509,524
364,67	54,762
364,89	282,353
365,11	191,892
365,32	129,630
365,54	325,000
365,76	70,455
365,97	126,829
366,19	91,228
366,41	410,000
366,62	93,000
366,84	400,000
367,05	72,549
367,27	740,000
367,49	220,513
367,70	488,889
367,92	195,833
368,14	-200,000
368,35	126,471
368,57	96,970
368,79	203,846
369,00	67,949
369,22	427,778
369,43	357,895
369,65	-193,103
369,87	-247,059
370,08	265,000
370,30	207,143
370,51	600,000
370,73	72,222
370,95	170,000
371,16	57,895
371,38	101,887
371,60	226,667
371,81	88,043
372,03	-1150,000
372,24	-65,625
372,46	2500,000
372,68	108,824
372,89	55,046
373,11	67,442
373,32	84,874
373,54	354,545
373,76	294,444
373,97	193,939
374,19	-78,947
374,40	121,429
374,62	305,882
374,84	312,500
375,05	125,000
375,27	172,973
375,48	83,951
375,70	117,647
375,92	187,500
376,13	284,211
376,35	266,667
376,56	200,000
376,78	61,224
376,99	151,515
377,21	112,500
377,43	63,636
377,64	118,000
377,86	250,000
378,07	134,091
378,29	197,222
378,51	61,905
378,72	-127,273
378,94	80,435
379,15	36,364
379,37	450,000
379,58	-126,667
379,80	75,000
380,01	166,000
380,23	182,609
380,45	72,917
380,66	52,778
380,88	232,432
381,09	226,087
381,31	207,692
381,52	100,000
381,74	94,643
381,95	164,286
382,17	236,000
382,39	62,903
382,60	417,647
382,82	144,828
383,03	500,000
383,25	54,321
383,46	500,000
383,68	191,489
383,89	222,727
384,11	113,699
384,32	131,579
384,54	-542,857
384,76	135,294
384,97	45,000
385,19	242,105
385,40	150,000
385,62	74,194
385,83	182,979
386,05	314,286
386,26	450,000
386,48	300,000
386,69	108,333
386,91	250,000
387,12	107,692
387,34	106,780
387,55	174,286
387,77	272,000
387,98	110,204
388,20	95,775
388,41	82,540
388,63	107,143
388,84	160,000
389,06	16,279
389,27	228,125
389,49	61,446
389,70	193,220
389,92	100,000
390,13	133,333
390,35	68,750
390,56	106,250
390,78	186,364
390,99	135,556
391,21	98,864
391,42	52,174
391,64	-200,000
391,85	77,586
392,07	-100,000
392,28	211,538
392,50	1040,000
392,71	2900,000
392,93	88,710
393,14	204,348
393,36	114,103
393,57	275,000
393,79	139,683
394,00	36,986
394,22	56,000
394,43	214,286
394,65	114,286
394,86	218,750
395,08	-537,500
395,29	40,426
395,50	-4400,000
395,72	328,571
395,93	188,000
396,15	192,857
396,36	63,333
396,58	-266,667
396,79	113,953
397,01	242,857
397,22	84,058
397,44	97,872
397,65	97,297
397,87	80,000
398,08	-34,615
398,29	50,000
398,51	97,561
398,72	150,000
398,94	123,256
399,15	83,333
399,37	73,913
399,58	115,873
399,80	280,000
400,01	126,471
400,22	500,000
400,44	185,714
400,65	64,384
400,87	700,000
401,08	59,551
401,30	104,000
401,51	25,455
401,72	85,484
401,94	124,390
402,15	106,122
402,37	79,545
402,58	123,256
402,80	306,250
403,01	-13,889
403,22	65,060
403,44	188,889
403,65	16,327
403,87	134,667
404,08	132,692
404,30	209,375
404,51	82,857
404,72	409,091
404,94	60,241
405,15	74,627
405,37	127,473
405,58	148,387
405,79	471,429
406,01	84,444
406,22	108,333
406,44	198,246
406,65	116,667
406,86	119,000
407,08	118,519
407,29	122,667
407,51	75,000
407,72	121,782
407,93	107,595
408,15	69,318
408,36	274,286
408,58	114,167
408,79	50,388
409,00	101,418
409,22	125,490
409,43	122,523
409,64	80,769
409,86	142,045
410,07	98,261
410,29	76,667
410,50	78,571
410,71	92,742
410,93	121,782
411,14	133,645
411,35	84,028
411,57	97,917
411,78	119,853
412,00	111,333
412,21	79,204
412,42	89,268
412,64	110,000
412,85	79,793
413,06	106,696
413,28	88,235
413,49	105,116
413,70	96,996
413,92	107,619
414,13	94,466
414,34	80,669
414,56	117,021
414,77	89,668
414,98	97,527
415,20	116,846
415,41	97,727
415,63	90,598
415,84	99,723
416,05	105,723
416,27	94,708
416,48	93,602
416,69	103,198
416,91	90,400
417,12	91,403
417,33	93,679
417,55	98,600
417,76	93,446
417,97	92,135
418,19	96,025
418,40	103,412
418,61	102,744
418,83	96,655
419,04	88,217
419,25	97,129
419,46	110,112
419,68	98,083
419,89	96,311
420,10	104,032
420,32	97,219
420,53	95,585
420,74	100,000
420,96	93,365
421,17	98,860
421,38	96,670
421,60	101,822
421,81	91,491
422,02	95,191
422,23	97,812
422,45	99,713
422,66	93,395
422,87	91,094
423,09	100,858
423,30	96,938
423,51	94,572
423,73	96,131
423,94	97,473
424,15	97,063
424,36	93,746
424,58	97,376
424,79	97,528
425,00	96,340
425,22	96,882
425,43	97,037
425,64	100,786
425,85	95,265
426,07	98,001
426,28	101,068
426,49	99,847
426,71	95,037
426,92	96,197
427,13	96,702
427,34	99,402
427,56	98,772
427,77	95,528
427,98	97,223
428,19	95,967
428,41	101,238
428,62	99,416
428,83	93,803
429,04	96,507
429,26	97,902
429,47	99,806
429,68	100,995
429,89	94,497
430,11	98,177
430,32	98,229
430,53	97,001
430,74	95,377
430,96	96,481
431,17	98,262
431,38	97,479
431,59	96,780
431,81	98,732
432,02	95,556
432,23	97,966
432,44	95,697
432,66	96,882
432,87	95,857
433,08	95,470
433,29	98,107
433,51	95,919
433,72	94,680
433,93	97,186
434,14	96,387
434,35	94,789
434,57	91,969
434,78	92,329
434,99	87,227
435,20	89,302
435,42	85,238
435,63	83,803
435,84	85,341
436,05	82,591
436,26	83,253
436,48	84,862
436,69	86,331
436,90	86,011
437,11	88,802
437,32	88,341
437,54	87,267
437,75	89,068
437,96	85,089
438,17	82,375
438,38	79,814
438,60	76,561
438,81	70,591
439,02	63,686
439,23	54,162
439,44	42,880
439,66	32,876
439,87	21,967
440,08	14,075
440,29	8,576
440,50	5,734
440,72	3,242
440,93	1,720
441,14	1,220
441,35	0,882
441,56	0,967
441,77	0,401
441,99	0,426
442,20	0,686
442,41	0,210
442,62	0,303
442,83	0,509
443,04	0,330
443,26	0,584
443,47	0,541
443,68	0,510
443,89	0,654
444,10	0,336
444,31	0,849
444,53	0,393
444,74	0,508
444,95	0,200
445,16	0,198
445,37	0,320
445,58	0,390
445,80	0,275
446,01	0,686
446,22	0,859
446,43	0,267
446,64	0,232
446,85	0,285
447,06	0,457
447,28	0,345
447,49	0,335
447,70	0,406
447,91	0,497
448,12	0,162
448,33	0,138
448,54	0,360
448,76	0,258
448,97	0,264
449,18	0,558
449,39	0,130
449,60	0,252
449,81	0,671
450,02	0,428
450,23	0,408
450,45	0,321
450,66	0,293
450,87	0,384
451,08	0,328
451,29	0,545
451,50	0,208
451,71	0,352
451,92	0,269
452,13	0,635
452,35	0,194
452,56	0,177
452,77	0,783
452,98	0,882
453,19	0,500
453,40	0,502
453,61	0,363
453,82	0,408
454,03	0,363
454,25	0,391
454,46	0,227
454,67	0,361
454,88	0,500
455,09	0,680
455,30	0,620
455,51	0,620
455,72	0,750
455,93	0,277
456,14	0,514
456,35	0,375
456,56	0,356
456,78	0,402
456,99	0,819
457,20	0,323
457,41	0,267
457,62	0,496
457,83	0,422
458,04	0,475
458,25	0,407
458,46	0,517
458,67	0,446
458,88	0,558
459,09	0,375
459,30	0,156
459,51	0,428
459,73	0,179
459,94	0,450
460,15	0,356
460,36	0,213
460,57	0,328
460,78	0,384
460,99	0,437
461,20	0,446
461,41	0,358
461,62	0,216
461,83	0,470
462,04	0,347
462,25	0,557
462,46	0,319
462,67	0,372
462,88	0,270
463,09	0,307
463,30	0,347
463,51	0,343
463,72	0,381
463,93	0,269
464,15	0,404
464,36	0,245
464,57	0,288
464,78	0,360
464,99	0,442
465,20	0,146
465,41	0,303
465,62	0,338
465,83	0,325
466,04	0,304
466,25	0,457
466,46	0,305
466,67	0,283
466,88	0,407
467,09	0,262
467,30	0,210
467,51	0,252
467,72	0,401
467,93	0,368
468,14	0,305
468,35	0,591
468,56	0,258
468,77	0,258
468,98	0,387
469,19	0,366
469,40	0,324
469,61	0,323
469,82	0,393
470,03	0,282
470,24	0,358
470,45	0,331
470,66	0,408
470,87	0,301
471,08	0,482
471,29	0,389
471,50	0,567
471,71	0,482
471,92	0,232
472,13	0,412
472,34	0,414
472,55	0,490
472,76	0,418
472,97	0,452
473,18	0,358
473,39	0,588
473,60	0,250
473,81	0,526
474,01	0,532
474,22	0,460
474,43	0,402
474,64	0,505
474,85	0,301
475,06	0,339
475,27	0,451
475,48	0,391
475,69	0,443
475,90	0,397
476,11	0,528
476,32	0,454
476,53	0,456
476,74	0,264
476,95	0,559
477,16	0,642
477,37	0,789
477,58	0,388
477,79	0,277
478,00	0,480
478,21	0,874
478,41	0,404
478,62	0,518
478,83	0,608
479,04	0,707
479,25	0,530
479,46	0,463
479,67	0,489
479,88	0,391
480,09	0,545
480,30	0,497
480,51	0,665
480,72	0,341
480,93	0,624
481,14	0,476
481,34	0,699
481,55	0,782
481,76	0,718
481,97	0,463
482,18	0,376
482,39	0,405
482,60	0,619
482,81	0,614
483,02	0,546
483,23	0,766
483,44	0,787
483,65	0,776
483,85	0,559
484,06	0,809
484,27	0,839
484,48	0,763
484,69	0,897
484,90	0,777
485,11	0,913
485,32	0,826
485,53	0,952
485,73	0,946
485,94	0,800
486,15	1,014
486,36	1,006
486,57	1,079
486,78	1,506
486,99	1,330
487,20	1,563
487,41	1,880
487,61	2,438
487,82	3,891
488,03	5,807
488,24	8,736
488,45	12,505
488,66	17,743
488,87	25,083
489,08	32,790
489,28	41,667
489,49	51,707
489,70	61,989
489,91	70,254
490,12	77,855
490,33	82,395
490,54	88,047
490,74	89,382
490,95	90,370
491,16	91,239
491,37	91,334
491,58	91,534
491,79	92,547
492,00	92,047
492,20	93,023
492,41	92,350
492,62	93,006
492,83	93,303
493,04	95,153
493,25	94,805
493,45	94,794
493,66	95,611
493,87	96,706
494,08	94,793
494,29	95,616
494,50	95,317
494,70	94,969
494,91	95,536
495,12	95,666
495,33	94,624
495,54	95,120
495,75	95,268
495,95	95,009
496,16	93,949
496,37	94,429
496,58	96,208
496,79	96,217
496,99	97,144
497,20	97,175
497,41	96,955
497,62	97,018
497,83	97,875
498,04	97,125
498,24	97,789
498,45	98,145
498,66	97,742
498,87	97,925
499,08	97,224
499,28	95,690
499,49	96,833
499,70	96,142
499,91	94,678
500,12	94,520
500,32	95,145
500,53	94,662
500,74	94,160
500,95	95,001
501,15	93,476
501,36	93,428
501,57	93,794
501,78	92,751
501,99	94,202
502,19	95,080
502,40	94,708
502,61	94,940
502,82	95,594
503,02	96,429
503,23	97,031
503,44	96,824
503,65	97,469
503,86	98,583
504,06	97,337
504,27	98,906
504,48	98,069
504,69	99,298
504,89	97,630
505,10	97,192
505,31	97,167
505,52	97,725
505,72	97,916
505,93	97,203
506,14	96,150
506,35	97,805
506,55	96,645
506,76	95,629
506,97	95,086
507,18	94,631
507,38	94,534
507,59	94,084
507,80	92,369
508,01	91,092
508,21	89,854
508,42	89,978
508,63	89,318
508,84	89,730
509,04	88,810
509,25	89,669
509,46	89,392
509,67	90,033
509,87	91,747
510,08	91,474
510,29	90,308
510,49	91,551
510,70	91,629
510,91	90,901
511,12	89,465
511,32	88,990
511,53	88,063
511,74	86,769
511,94	84,916
512,15	82,213
512,36	78,183
512,57	72,904
512,77	65,739
512,98	57,169
513,19	46,547
513,39	36,679
513,60	27,114
513,81	18,812
514,01	12,841
514,22	8,413
514,43	5,592
514,64	3,560
514,84	2,654
515,05	1,979
515,26	1,231
515,46	0,961
515,67	0,789
515,88	0,864
516,08	0,800
516,29	0,517
516,50	0,525
516,70	0,506
516,91	0,701
517,12	0,602
517,32	0,445
517,53	0,549
517,74	0,675
517,95	0,590
518,15	0,815
518,36	0,763
518,57	0,512
518,77	0,452
518,98	0,686
519,19	0,622
519,39	0,552
519,60	0,347
519,80	0,542
520,01	0,282
520,22	0,589
520,42	0,534
520,63	0,501
520,84	0,425
521,04	0,431
521,25	0,424
521,46	0,482
521,66	0,303
521,87	0,334
522,08	0,421
522,28	0,594
522,49	0,548
522,70	0,360
522,90	0,413
523,11	0,372
523,31	0,418
523,52	0,486
523,73	0,367
523,93	0,323
524,14	0,402
524,35	0,458
524,55	0,481
524,76	0,399
524,97	0,394
525,17	0,276
525,38	0,419
525,58	0,353
525,79	0,376
526,00	0,529
526,20	0,460
526,41	0,498
526,61	0,495
526,82	0,326
527,03	0,373
527,23	0,374
527,44	0,392
527,64	0,434
527,85	0,363
528,06	0,511
528,26	0,291
528,47	0,412
528,68	0,547
528,88	0,115
529,09	0,314
529,29	0,502
529,50	0,231
529,70	0,501
529,91	0,368
530,12	0,373
530,32	0,336
530,53	0,513
530,73	0,417
530,94	0,454
531,15	0,388
531,35	0,402
531,56	0,532
531,76	0,260
531,97	0,431
532,17	0,401
532,38	0,465
532,59	0,522
532,79	0,587
533,00	0,170
533,20	0,396
533,41	0,348
533,61	0,292
533,82	0,160
534,03	0,400
534,23	0,476
534,44	0,429
534,64	0,485
534,85	0,309
535,05	0,176
535,26	0,308
535,46	0,422
535,67	0,227
535,88	0,359
536,08	0,383
536,29	0,441
536,49	0,458
536,70	0,463
536,90	0,482
537,11	0,382
537,31	0,416
537,52	0,571
537,72	0,309
537,93	0,503
538,13	0,382
538,34	0,534
538,55	0,390
538,75	0,194
538,96	0,199
539,16	0,310
539,37	0,484
539,57	0,471
539,78	0,467
539,98	0,529
540,19	0,477
540,39	0,397
540,60	0,346
540,80	0,455
541,01	0,680
541,21	0,565
541,42	0,352
541,62	0,317
541,83	0,469
542,03	0,406
542,24	0,359
542,44	0,399
542,65	0,225
542,85	0,620
543,06	0,413
543,26	0,355
543,47	0,464
543,67	0,527
543,88	0,436
544,08	0,318
544,29	0,416
544,49	0,269
544,70	0,379
544,90	0,484
545,11	0,255
545,31	0,399
545,52	0,343
545,72	0,399
545,93	0,356
546,13	0,330
546,34	0,373
546,54	0,423
546,75	0,389
546,95	0,583
547,15	0,457
547,36	0,365
547,56	0,438
547,77	0,333
547,97	0,312
548,18	0,412
548,38	0,302
548,59	0,373
548,79	0,568
549,00	0,532
549,20	0,384
549,41	0,421
549,61	0,415
549,81	0,372
550,02	0,318
550,22	0,466
550,43	0,414
550,63	0,381
550,84	0,469
551,04	0,474
551,25	0,507
551,45	0,687
551,65	0,504
551,86	0,362
552,06	0,548
552,27	0,456
552,47	0,533
552,68	0,630
552,88	0,606
553,08	0,466
553,29	0,592
553,49	0,575
553,70	0,659
553,90	0,790
554,11	0,829
554,31	0,621
554,51	0,742
554,72	0,834
554,92	0,696
555,13	0,929
555,33	0,837
555,53	0,742
555,74	1,051
555,94	0,994
556,15	1,146
556,35	1,173
556,56	1,636
556,76	2,178
556,96	3,102
557,17	4,303
557,37	6,331
557,58	8,336
557,78	12,079
557,98	16,785
558,19	22,976
558,39	30,419
558,59	39,063
558,80	48,038
559,00	57,507
559,21	66,662
559,41	73,658
559,61	80,851
559,82	86,895
560,02	89,694
560,23	92,006
560,43	93,799
560,63	94,818
560,84	96,494
561,04	95,871
561,24	97,117
561,45	95,694
561,65	97,010
561,85	97,438
562,06	98,489
562,26	98,245
562,47	98,472
562,67	98,851
562,87	98,766
563,08	98,342
563,28	99,003
563,48	98,582
563,69	98,095
563,89	98,409
564,09	98,000
564,30	97,383
564,50	96,600
564,70	96,687
564,91	95,827
565,11	95,092
565,31	95,467
565,52	95,184
565,72	94,233
565,92	93,784
566,13	92,700
566,33	92,907
566,53	93,707
566,74	93,108
566,94	93,332
567,14	94,031
567,35	93,451
567,55	94,422
567,75	94,322
567,96	93,608
568,16	96,056
568,36	95,512
568,57	95,872
568,77	96,580
568,97	96,926
569,18	96,814
569,38	96,036
569,58	98,290
569,79	96,942
569,99	96,085
570,19	96,431
570,39	96,793
570,60	94,830
570,80	95,695
571,00	94,861
571,21	95,189
571,41	94,615
571,61	94,711
571,82	93,852
572,02	94,533
572,22	93,654
572,42	94,356
572,63	94,433
572,83	94,246
573,03	94,467
573,24	94,315
573,44	95,444
573,64	93,972
573,84	94,602
574,05	93,622
574,25	93,648
574,45	92,035
574,66	93,491
574,86	92,935
575,06	92,064
575,26	92,874
575,47	91,988
575,67	92,288
575,87	91,153
576,07	91,774
576,28	91,975
576,48	91,810
576,68	92,038
576,88	93,214
577,09	92,039
577,29	92,357
577,49	92,331
577,69	92,325
577,90	93,458
578,10	91,649
578,30	90,527
578,50	89,676
578,71	88,190
578,91	85,844
579,11	82,744
579,31	79,448
579,52	75,185
579,72	69,088
579,92	63,458
580,12	56,998
580,33	51,538
580,53	43,929
580,73	37,609
580,93	30,766
581,13	23,952
581,34	17,444
581,54	12,213
581,74	8,357
581,94	5,947
582,15	4,055
582,35	2,698
582,55	2,239
582,75	1,580
582,95	1,173
583,16	1,029
583,36	0,743
583,56	0,713
583,76	0,490
583,96	0,537
584,17	0,392
584,37	0,459
584,57	0,509
584,77	0,369
584,97	0,316
585,18	0,357
585,38	0,262
585,58	0,467
585,78	0,385
585,98	0,415
586,19	0,533
586,39	0,495
586,59	0,214
586,79	0,381
586,99	0,282
587,20	0,336
587,40	0,509
587,60	0,246
587,80	0,401
588,00	0,396
588,20	0,390
588,41	0,421
588,61	0,322
588,81	0,419
589,01	0,424
589,21	0,304
589,41	0,290
589,62	0,395
589,82	0,322
590,02	0,471
590,22	0,358
590,42	0,427
590,62	0,231
590,83	0,190
591,03	0,160
591,23	0,301
591,43	0,477
591,63	0,252
591,83	0,279
592,03	0,259
592,24	0,311
592,44	0,361
592,64	0,342
592,84	0,487
593,04	0,217
593,24	0,319
593,44	0,334
593,65	0,321
593,85	0,263
594,05	0,353
594,25	0,305
594,45	0,151
594,65	0,263
594,85	0,198
595,06	0,178
595,26	0,458
595,46	0,091
595,66	0,162
595,86	0,373
596,06	0,325
596,26	0,316
596,46	0,378
596,66	0,247
596,87	0,304
597,07	0,199
597,27	0,261
597,47	0,263
597,67	0,217
597,87	0,112
598,07	0,315
598,27	0,191
598,47	0,411
598,67	0,205
598,88	0,271
599,08	0,210
599,28	0,468
599,48	0,226
599,68	0,421
599,88	0,297
600,08	0,292
600,28	0,454
600,48	0,237
600,68	0,280
600,88	0,306
601,09	0,296
601,29	0,516
601,49	0,184
601,69	0,177
601,89	0,233
602,09	0,072
602,29	0,320
602,49	0,246
602,69	0,232
602,89	0,206
603,09	0,299
603,29	0,387
603,49	0,422
603,69	0,213
603,90	0,081
604,10	0,334
604,30	0,209
604,50	0,300
604,70	0,200
604,90	0,274
605,10	0,297
605,30	0,103
605,50	0,050
605,70	0,348
605,90	0,023
606,10	0,104
606,30	0,273
606,50	0,306
606,70	0,293
606,90	0,050
607,10	0,231
607,30	0,306
607,50	0,263
607,70	0,354
607,90	0,353
608,10	0,461
608,30	0,139
608,50	0,412
608,70	0,495
608,90	0,237
609,11	0,218
609,31	0,319
609,51	0,312
609,71	0,156
609,91	0,156
610,11	0,444
610,31	0,281
610,51	0,299
610,71	0,121
610,91	0,282
611,11	0,270
611,31	0,239
611,51	0,192
611,71	0,024
611,91	0,434
612,11	0,279
612,31	0,328
612,51	0,244
612,71	0,259
612,91	0,190
613,11	0,083
613,31	0,202
613,51	0,235
613,71	0,167
613,91	0,262
614,11	0,243
614,31	-0,032
614,50	0,231
614,70	0,154
614,90	0,247
615,10	0,197
615,30	0,219
615,50	0,187
615,70	0,297
615,90	0,260
616,10	0,248
616,30	0,397
616,50	0,039
616,70	0,148
616,90	0,150
617,10	0,326
617,30	0,191
617,50	0,317
617,70	0,104
617,90	0,305
618,10	0,249
618,30	0,028
618,50	0,262
618,70	0,248
618,90	0,139
619,10	-0,008
619,30	0,068
619,49	0,273
619,69	0,233
619,89	0,241
620,09	0,179
620,29	0,352
620,49	0,333
620,69	0,185
620,89	0,234
621,09	0,144
621,29	0,221
621,49	0,247
621,69	0,137
621,89	0,384
622,09	0,230
622,29	0,218
622,48	0,274
622,68	0,109
622,88	0,292
623,08	0,225
623,28	0,085
623,48	0,230
623,68	0,242
623,88	0,093
624,08	0,055
624,28	0,205
624,48	0,231
624,67	-0,008
624,87	0,237
625,07	0,265
625,27	0,050
625,47	0,273
625,67	0,361
625,87	0,191
626,07	0,217
626,27	0,122
626,47	0,272
626,66	0,195
626,86	0,196
627,06	0,232
627,26	0,270
627,46	0,022
627,66	0,200
627,86	0,213
628,06	0,206
628,25	0,196
628,45	0,342
628,65	0,191
628,85	0,123
629,05	0,366
629,25	0,115
629,45	0,266
629,65	0,074
629,84	0,150
630,04	0,367
630,24	0,203
630,44	0,302
630,64	0,322
630,84	0,142
631,04	0,210
631,23	0,346
631,43	0,188
631,63	0,048
631,83	0,298
632,03	0,227
632,23	0,189
632,42	0,204
632,62	0,217
632,82	0,203
633,02	0,235
633,22	0,212
633,42	0,197
633,62	0,052
633,81	0,207
634,01	0,362
634,21	0,304
634,41	0,346
634,61	0,238
634,80	0,423
635,00	0,382
635,20	0,255
635,40	-0,005
635,60	0,294
635,80	0,103
635,99	0,422
636,19	0,347
636,39	-0,030
636,59	0,123
636,79	0,350
636,98	0,386
637,18	0,148
637,38	0,181
637,58	0,118
637,78	0,589
637,97	0,083
638,17	0,421
638,37	0,332
638,57	0,140
638,77	0,238
638,96	0,189
639,16	0,375
639,36	0,149
639,56	0,407
639,76	0,336
639,95	0,254
640,15	0,209
640,35	0,309
640,55	0,248
640,75	0,238
640,94	-0,073
641,14	0,413
641,34	0,358
641,54	0,195
641,73	0,281
641,93	0,468
642,13	0,174
642,33	0,475
642,53	0,648
642,72	0,214
642,92	0,332
643,12	0,306
643,32	0,481
643,51	0,487
643,71	0,161
643,91	0,460
644,11	0,466
644,30	0,185
644,50	0,642
644,70	0,070
644,90	0,696
645,09	0,616
645,29	0,305
645,49	0,185
645,69	0,172
645,88	0,540
646,08	0,297
646,28	0,482
646,48	0,118
646,67	0,204
646,87	0,495
647,07	0,283
647,26	0,790
647,46	0,302
647,66	0,167
647,86	0,567
648,05	0,546
648,25	0,824
648,45	0,132
648,65	0,413
648,84	-0,015
649,04	0,680
649,24	0,825
649,43	0,441
649,63	0,474
649,83	0,345
650,03	0,809
650,22	0,220
650,42	0,310
650,62	0,498
650,81	0,451
651,01	0,280
651,21	0,270
651,40	0,355
651,60	-0,178
651,80	0,702
652,00	0,358
652,19	0,311
652,39	0,496
652,59	0,584
652,78	0,394
652,98	0,339
653,18	0,259
653,37	0,393
653,57	0,625
653,77	0,385
653,96	0,008
654,16	0,521
654,36	0,365
654,55	0,303
654,75	0,526
654,95	0,247
655,14	0,319
655,34	0,726
655,54	0,568
655,73	0,426
655,93	0,192
656,13	0,070
656,32	-0,044
656,52	0,653
656,72	0,547
656,91	0,697
657,11	0,414
657,31	0,444
657,50	0,328
657,70	0,677
657,90	0,825
658,09	0,738
658,29	0,718
658,49	0,663
658,68	0,513
658,88	0,689
659,07	0,610
659,27	0,061
659,47	0,313
659,66	0,653
659,86	0,183
660,06	0,467
660,25	0,106
660,45	0,391
660,64	0,158
660,84	0,619
661,04	0,613
661,23	0,472
661,43	0,290
661,63	0,396
661,82	0,243
662,02	0,452
662,21	0,323
662,41	0,507
662,61	0,718
662,80	0,132
663,00	0,009
663,19	0,629
663,39	0,216
663,59	0,560
663,78	0,756
663,98	0,308
664,17	0,452
664,37	0,069
664,57	0,343
664,76	0,289
664,96	0,119
665,15	0,349
665,35	0,271
665,55	0,239
665,74	0,287
665,94	0,245
666,13	0,357
666,33	0,717
666,53	0,393
666,72	0,430
666,92	0,528
667,11	0,640
667,31	0,041
667,50	0,166
667,70	0,403
667,90	0,172
668,09	0,164
668,29	0,499
668,48	0,219
668,68	0,512
668,87	0,500
669,07	-0,096
669,26	0,513
669,46	0,553
669,66	0,261
669,85	0,292
670,05	0,229
670,24	0,064
670,44	0,181
670,63	0,390
670,83	0,484
671,02	0,399
671,22	0,294
671,42	0,324
671,61	0,102
671,81	0,246
672,00	0,613
672,20	0,000
672,39	0,465
672,59	0,323
672,78	0,023
672,98	0,294
673,17	0,282
673,37	0,150
673,56	0,102
673,76	0,146
673,95	0,336
674,15	0,412
674,34	0,243
674,54	0,292
674,73	0,164
674,93	0,411
675,13	0,411
675,32	0,266
675,52	0,224
675,71	0,329
675,91	0,157
676,10	0,330
676,30	0,137
676,49	0,054
676,69	0,321
676,88	0,263
677,08	0,210
677,27	0,222
677,47	0,338
677,66	0,284
677,86	0,282
678,05	0,198
678,24	0,235
678,44	0,500
678,63	0,187
678,83	0,124
679,02	0,264
679,22	0,315
679,41	0,488
679,61	0,297
679,80	0,089
680,00	0,047
680,19	0,228
680,39	0,238
680,58	0,076
680,78	0,184
680,97	0,342
681,17	0,391
681,36	-0,028
681,56	0,472
681,75	0,050
681,94	0,088
682,14	0,257
682,33	0,374
682,53	0,374
682,72	0,398
682,92	0,464
683,11	0,058
683,31	0,236
683,50	0,016
683,69	0,031
683,89	0,164
684,08	0,122
684,28	0,031
684,47	0,341
684,67	0,188
684,86	0,094
685,06	0,207
685,25	0,404
685,44	0,319
685,64	0,308
685,83	0,152
686,03	-0,042
686,22	0,195
686,42	0,111
686,61	0,173
686,80	0,032
687,00	-0,014
687,19	0,178
687,39	0,182
687,58	0,185
687,77	0,309
687,97	0,239
688,16	0,278
688,36	0,200
688,55	0,147
688,74	0,111
688,94	0,145
689,13	0,055
689,33	0,075
689,52	0,169
689,71	0,075
689,91	0,137
690,10	0,285
690,30	0,068
690,49	0,040
690,68	0,329
690,88	0,194
691,07	0,111
691,27	0,094
691,46	0,099
691,65	0,178
691,85	0,291
692,04	0,119
692,23	0,044
692,43	0,166
692,62	0,248
692,82	0,164
693,01	0,135
693,20	0,153
693,40	0,112
693,59	0,223
693,78	0,209
693,98	0,020
694,17	0,042
694,36	0,498
694,56	0,093
694,75	0,072
694,94	0,205
695,14	0,231
695,33	0,352
695,53	0,289
695,72	0,169
695,91	0,014
696,11	0,108
696,30	0,245
696,49	0,181
696,69	0,228
696,88	0,046
697,07	0,343
697,27	0,175
697,46	0,445
697,65	0,193
697,85	0,199
698,04	0,478
698,23	0,304
698,43	0,443
698,62	-0,322
698,81	0,421
699,01	0,246
699,20	0,435
699,39	0,497
699,58	0,180
699,78	0,214
699,97	0,157
700,16	0,283
700,36	0,593
700,55	0,423
700,74	0,499
700,94	0,081
701,13	0,019
701,32	0,214
701,52	0,139
701,71	0,532
701,90	0,288
702,09	0,423
702,29	0,650
702,48	-0,102
702,67	0,393
702,87	0,961
703,06	0,563
703,25	0,818
703,44	0,430
703,64	0,719
703,83	0,917
704,02	0,908
704,22	0,620
704,41	0,418
704,60	0,935
704,79	0,513
704,99	0,910
705,18	1,728
705,37	1,052
705,56	0,362
705,76	1,463
705,95	1,571
706,14	0,522
706,33	0,750
706,53	0,994
706,72	0,586
706,91	1,429
707,11	0,817
707,30	0,584
707,49	0,867
707,68	0,364
707,88	0,582
708,07	0,561
708,26	1,740
708,45	0,285
708,64	2,233
708,84	-0,350
709,03	1,379
709,22	0,474
709,41	2,376
709,61	1,102
709,80	2,344
709,99	2,885
710,18	2,158
710,38	-0,503
710,57	0,572
710,76	-0,098
710,95	1,082
711,14	1,622
711,34	0,241
711,53	2,765
711,72	2,712
711,91	2,399
712,11	1,986
712,30	-0,385
712,49	0,995
712,68	1,029
712,87	1,020
713,07	2,730
713,26	3,124
713,45	0,375
713,64	1,659
713,83	1,847
714,03	1,611
714,22	1,991
714,41	1,769
714,60	0,902
714,79	-0,432
714,99	1,753
715,18	3,563
715,37	3,153
715,56	2,846
715,75	2,251
715,94	3,248
716,14	4,093
716,33	0,937
716,52	1,730
716,71	4,729
716,90	2,109
717,10	0,223
717,29	1,913
717,48	1,502
717,67	1,974
717,86	2,826
718,05	2,869
718,24	2,913
718,44	3,302
718,63	1,825
718,82	1,811
719,01	3,300
719,20	4,254
719,39	3,791
719,59	-1,367
719,78	1,536
719,97	3,146
720,16	4,906
720,35	2,478
720,54	1,817
720,73	4,915
720,93	1,446
721,12	-1,437
721,31	4,956
721,50	6,836
721,69	1,561
721,88	4,378
722,07	3,001
722,27	3,279
722,46	2,099
722,65	1,827
722,84	2,339
723,03	1,928
723,22	2,015
723,41	2,326
723,60	4,415
723,79	4,703
723,99	3,688
724,18	3,635
724,37	-4,269
724,56	2,044
724,75	3,217
724,94	8,193
725,13	-2,060
725,32	3,600
725,51	2,791
725,71	5,413
725,90	7,183
726,09	2,922
726,28	2,574
726,47	-0,493
726,66	6,408
726,85	3,697
727,04	1,733
727,23	3,820
727,42	7,621
727,61	2,160
727,81	-1,730
728,00	2,703
728,19	8,667
728,38	-2,620
728,57	3,333
728,76	4,077
728,95	6,458
729,14	2,273
729,33	4,516
729,52	4,387
729,71	4,338
729,90	3,736
730,09	1,991
730,28	4,366
730,48	4,402
730,67	5,915
730,86	8,038
731,05	5,484
731,24	0,366
731,43	3,484
731,62	1,260
731,81	0,227
732,00	9,820
732,19	3,245
732,38	8,462
732,57	4,401
732,76	3,557
732,95	2,317
733,14	-0,430
733,33	0,661
733,52	7,444
733,71	1,578
733,90	0,847
734,09	6,622
734,28	3,806
734,47	8,889
734,66	6,283
734,85	1,857
735,04	3,852
735,23	4,902
735,42	9,153
735,61	-2,187
735,81	5,178
736,00	2,279
736,19	7,751
736,38	3,743
736,57	5,761
736,76	4,964
736,95	4,618
737,14	4,147
737,33	8,345
737,52	5,846
737,71	2,295
737,90	10,819
738,09	3,653
738,28	6,577
738,47	8,394
738,66	4,808
738,85	5,405
739,04	6,175
739,22	7,023
739,41	6,985
739,60	3,584
739,79	3,237
739,98	12,366
740,17	7,679
740,36	6,148
740,55	7,643
740,74	14,237
740,93	6,883
741,12	8,750
741,31	7,746
741,50	2,836
741,69	2,478
741,88	-1,976
742,07	10,688
742,26	4,952
742,45	12,500
742,64	2,925
742,83	13,982
743,02	0,000
743,21	9,747
743,40	8,696
743,59	13,971
743,78	12,329
743,97	9,231
744,16	8,071
744,34	3,263
744,53	7,010
744,72	3,132
744,91	0,630
745,10	5,451
745,29	20,968
745,48	11,136
745,67	3,417
745,86	13,245
746,05	9,479
746,24	8,454
746,43	7,923
746,62	16,595
746,81	11,011
747,00	4,814
747,18	14,161
747,37	18,737
747,56	9,412
747,75	4,680
747,94	8,495
748,13	15,213
748,32	13,095
748,51	11,929
748,70	8,370
748,89	11,007
749,08	5,233
749,26	10,352
749,45	10,456
749,64	4,282
749,83	13,933
750,02	15,761
750,21	6,616
750,40	16,194
750,59	7,239
750,78	13,466
750,96	9,392
751,15	12,850
751,34	2,557
751,53	-1,639
751,72	14,366
751,91	5,959
752,10	10,471
752,29	16,000
752,47	-0,573
752,66	9,206
752,85	20,765
753,04	-4,190
753,23	-1,548
753,42	13,747
753,61	5,016
753,80	16,838
753,98	19,697
754,17	4,559
754,36	3,548
754,55	8,434
754,74	0,649
754,93	7,989
755,12	24,036
755,30	12,013
755,49	17,151
755,68	16,871
755,87	17,160
756,06	19,792
756,25	22,796
756,43	-2,013
756,62	15,217
756,81	2,318
757,00	14,145
757,19	1,042
757,38	-1,931
757,56	6,000
757,75	13,993
757,94	-3,422
758,13	12,329
758,32	14,540
758,51	2,020
758,69	6,178
758,88	2,694
759,07	12,575
759,26	20,848
759,45	4,561
759,63	6,061
759,82	12,982
760,01	12,088
760,20	26,415
760,39	23,028
760,57	7,317
760,76	9,756
760,95	39,583
761,14	9,124
761,33	28,387
761,51	18,571
761,70	15,613
761,89	2,222
762,08	17,844
762,27	13,718
762,45	8,333
762,64	-9,548
762,83	38,247
763,02	16,957
763,21	6,500
763,39	9,790
763,58	12,268
763,77	13,924
763,96	10,359
764,14	0,833
764,33	11,429
764,52	30,804
764,71	12,131
764,89	16,518
765,08	13,300
765,27	23,404
765,46	9,865
765,65	25,882
765,83	19,910
766,02	-7,143
766,21	15,301
766,40	7,393
766,58	20,635
766,77	16,972
766,96	2,846
767,15	28,571
767,33	10,628
767,52	10,044
767,71	23,246
767,90	28,643
768,08	25,749
768,27	31,707
768,46	29,825
768,64	19,907
768,83	10,294
769,02	2,463
769,21	17,188
769,39	25,714
769,58	27,706
769,77	26,064
769,96	27,928
770,14	34,426
770,33	11,682
770,52	33,094
770,70	-5,405
770,89	45,946
771,08	-11,446
771,27	19,474
771,45	-8,824
771,64	23,030
771,83	32,843
772,01	28,866
772,20	18,408
772,39	34,810
772,57	30,348
772,76	13,514
772,95	19,540
773,14	20,408
773,32	11,864
773,51	28,571
773,70	15,108
773,88	23,871
774,07	41,117
774,26	3,226
774,44	40,602
774,63	21,557
774,82	35,065
775,00	32,710
775,19	23,214
775,38	21,809
775,56	29,193
775,75	42,857
775,94	33,333
776,12	32,026
776,31	53,383
776,50	30,137
776,68	31,720
776,87	38,756
777,06	27,673
777,24	34,454
777,43	43,850
777,62	28,090
777,80	28,302
777,99	46,667
778,18	36,207
778,36	22,881
778,55	38,983
778,74	7,031
778,92	32,099
779,11	55,455
779,29	14,894
779,48	24,113
779,67	32,432
779,85	-3,509
780,04	54,348
780,23	11,905
780,41	47,458
780,60	41,611
780,79	-9,677
780,97	3,268
781,16	28,723
781,34	45,946
781,53	26,786
781,72	27,928
781,90	12,575
782,09	33,721
782,28	17,007
782,46	46,429
782,65	35,915
782,83	28,302
783,02	48,246
783,21	37,594
783,39	36,975
783,58	35,652
783,76	46,259
783,95	66,901
784,14	-19,737
784,32	-25,882
784,51	51,351
784,69	24,219
784,88	62,617
785,06	35,099
785,25	46,809
785,44	41,935
785,62	12,857
785,81	34,259
785,99	45,113
786,18	48,649
786,37	71,429
786,55	14,583
786,74	47,273
786,92	13,986
787,11	34,722
787,29	43,750
787,48	47,312
787,67	34,906
787,85	56,962
788,04	45,946
788,22	62,376
788,41	48,031
788,59	43,421
788,78	16,484
788,96	38,017
789,15	25,000
789,34	54,808
789,52	72,581
789,71	49,640
789,89	58,442
790,08	53,750
790,26	26,115
790,45	102,778
790,63	28,736
790,82	39,231
791,00	18,584
791,19	38,400
791,38	25,714
791,56	6,364
791,75	30,556
791,93	71,000
792,12	22,609
792,30	10,219
792,49	49,495
792,67	25,735
792,86	18,400
793,04	9,259
793,23	69,474
793,41	49,275
793,60	55,556
793,78	40,952
793,97	27,083
794,15	87,970
794,34	40,000
794,52	-20,430
794,71	28,682
794,89	22,727
795,08	21,600
795,26	44,000
795,45	15,278
795,63	33,065
795,82	31,868
796,00	45,000
796,19	43,089
796,37	8,397
796,56	19,417
796,74	23,158
796,93	27,273
797,11	8,434
797,30	34,444
797,48	37,500
797,67	55,285
797,85	41,538
798,04	19,492
798,22	92,308
798,41	10,577
798,59	38,095
798,77	24,096
798,96	25,926
799,14	36,290
799,33	6,422
799,51	11,111
799,70	73,846
799,88	55,046
800,07	63,359
800,25	27,711
800,44	11,111
800,62	113,889
800,80	34,507
800,99	41,096
801,17	41,379
801,36	62,857
801,54	70,000
801,73	32,632
801,91	46,281
802,10	48,235
802,28	31,200
802,46	21,053
802,65	30,935
802,83	-2,667
803,02	49,194
803,20	62,651
803,39	78,161
803,57	37,795
803,75	46,341
803,94	46,825
804,12	57,931
804,31	0,000
804,49	40,800
804,67	11,765
804,86	43,363
805,04	-7,229
805,23	47,788
805,41	31,667
805,59	58,219
805,78	56,000
805,96	33,735
806,15	45,545
806,33	69,737
806,51	36,000
806,70	40,602
806,88	3,488
807,07	56,757
807,25	56,044
807,43	40,179
807,62	23,894
807,80	46,667
807,99	46,923
808,17	38,583
808,35	92,000
808,54	34,058
808,72	65,766
808,90	13,014
809,09	44,565
809,27	34,667
809,46	49,451
809,64	50,000
809,82	39,735
810,01	50,781
810,19	73,737
810,37	37,500
810,56	83,333
810,74	7,792
810,92	34,000
811,11	0,000
811,29	78,302
811,48	30,000
811,66	23,596
811,84	17,582
812,03	38,525
812,21	18,421
812,39	7,826
812,58	62,105
812,76	23,022
812,94	2,410
813,13	24,468
813,31	9,000
813,49	21,296
813,68	59,091
813,86	11,236
814,04	42,149
814,23	24,699
814,41	28,090
814,59	29,126
814,78	12,500
814,96	28,931
815,14	42,991
815,33	35,659
815,51	55,906
815,69	45,714
815,87	-5,941
816,06	45,217
816,24	24,224
816,42	19,118
816,61	45,283
816,79	14,655
816,97	14,773
817,16	33,728
817,34	56,349
817,52	18,182
817,70	24,752
817,89	36,296
818,07	40,411
818,25	4,082
818,44	60,256
818,62	48,837
818,80	12,030
818,98	48,408
819,17	42,017
819,35	39,894
819,53	35,075
819,72	40,506
819,90	24,031
820,08	37,607
820,26	18,103
820,45	24,161
820,63	96,429
820,81	36,800
820,99	26,950
821,18	45,578
821,36	57,595
821,54	55,172
821,73	34,444
821,91	39,474
822,09	24,194
822,27	19,355
822,46	27,941
822,64	39,200
822,82	16,575
823,00	11,050
823,19	24,725
823,37	42,424
823,55	27,273
823,73	44,828
823,91	27,536
824,10	38,710
824,28	47,739
824,46	6,796
824,64	36,184
824,83	34,161
825,01	25,333
825,19	20,968
825,37	8,696
825,56	38,208
825,74	16,327
825,92	1,911
826,10	44,318
826,28	28,571
826,47	33,158
826,65	39,007
826,83	2,586
827,01	53,757
827,19	26,786
827,38	35,802
827,56	13,636
827,74	21,229
827,92	22,093
828,10	7,051
828,29	48,521
828,47	30,488
828,65	29,231
828,83	-3,030
829,01	26,630
829,20	17,033
829,38	27,273
829,56	42,935
829,74	29,560
829,92	27,381
830,10	28,161
830,29	2,513
830,47	30,151
830,65	-11,585
830,83	11,161
831,01	38,095
831,20	33,010
831,38	9,569
831,56	22,791
831,74	46,445
831,92	55,921
832,10	28,571
832,29	4,054
832,47	19,101
832,65	44,118
832,83	17,371
833,01	1,500
833,19	8,597
833,37	31,222
833,56	10,549
833,74	36,765
833,92	11,111
834,10	11,618
834,28	23,629
834,46	22,624
834,64	10,648
834,83	31,364
835,01	29,046
835,19	17,200
835,37	2,066
835,55	11,458
835,73	27,094
835,91	23,247
836,09	17,871
836,28	30,258
836,46	13,200
836,64	17,293
836,82	9,050
837,00	15,580
837,18	13,011
837,36	14,343
837,54	16,364
837,72	10,345
837,91	25,000
838,09	14,343
838,27	-1,667
838,45	3,191
838,63	5,882
838,81	8,439
838,99	15,323
839,17	5,743
839,35	17,376
839,53	20,351
839,72	4,887
839,90	9,278
840,08	37,231
840,26	5,952
840,44	19,940
840,62	18,966
840,80	21,088
840,98	20,392
841,16	2,662
841,34	10,368
841,52	24,159
841,70	4,615
841,89	16,935
842,07	5,956
842,25	29,023
842,43	7,759
842,61	21,404
842,79	12,712
842,97	4,886
843,15	19,472
843,33	17,981
843,51	9,639
843,69	27,066
843,87	-2,985
844,05	13,070
844,23	28,829
844,41	4,389
844,59	12,104
844,77	5,322
844,95	17,052
845,13	15,692
845,31	2,326
845,50	15,445
845,68	-0,643
845,86	16,092
846,04	18,436
846,22	12,534
846,40	22,043
846,58	10,541
846,76	10,484
846,94	12,469
847,12	12,176
847,30	7,990
847,48	3,715
847,66	13,300
847,84	11,749
848,02	12,802
848,20	8,786
848,38	11,111
848,56	13,352
848,74	13,842
848,92	13,217
849,10	4,750
849,28	12,551
849,46	13,067
849,64	6,236
849,82	0,000
850,00	14,720
850,18	6,383
850,36	4,857
850,54	7,769
850,72	14,139
850,90	16,087
851,08	10,722
851,26	8,534
851,44	4,867
851,62	4,186
851,80	10,132
851,98	11,209
852,16	18,203
852,34	8,660
852,52	2,902
852,70	4,100
852,87	9,361
853,05	1,754
853,23	3,505
853,41	6,803
853,59	4,772
853,77	8,333
853,95	8,861
854,13	10,841
854,31	11,088
854,49	8,782
854,67	7,127
854,85	5,797
855,03	18,437
855,21	18,526
855,39	8,853
855,57	4,301
855,75	8,759
855,93	4,706
856,11	17,021
856,28	9,963
856,46	6,762
856,64	16,952
856,82	5,842
857,00	10,953
857,18	11,372
857,36	8,769
857,54	7,093
857,72	11,579
857,90	2,952
858,08	3,725
858,26	5,383
858,44	6,823
858,61	7,317
858,79	6,401
858,97	7,257
859,15	7,121
859,33	6,250
859,51	4,355
859,69	7,513
859,87	6,590
860,05	-2,664
860,23	9,253
860,40	1,423
860,58	7,377
860,76	0,476
860,94	3,577
861,12	-2,462
861,30	0,628
861,48	9,143
861,66	6,667
861,84	4,634
862,01	10,309
862,19	3,729
862,37	3,782
862,55	8,646
862,73	1,238
862,91	-2,496
863,09	11,756
863,27	8,621
863,44	2,398
863,62	7,337
863,80	2,110
863,98	2,967
864,16	5,347
864,34	8,628
864,52	7,239
864,69	2,924
864,87	-0,868
865,05	5,034
865,23	4,967
865,41	6,855
865,59	2,961
865,76	-0,129
865,94	4,393
866,12	8,645
866,30	0,701
866,48	5,998
866,66	5,914
866,83	5,471
867,01	0,000
867,19	4,291
867,37	5,175
867,55	4,182
867,73	5,649
867,90	7,066
868,08	8,343
868,26	5,637
868,44	5,041
868,62	5,405
868,79	4,582
868,97	0,126
869,15	-0,116
869,33	2,686
869,51	1,742
869,69	4,146
869,86	4,678
870,04	9,310
870,22	7,482
870,40	6,901
870,57	1,730
870,75	7,072
870,93	1,474
871,11	4,654
871,29	3,539
871,46	3,753
871,64	4,603
871,82	4,521
872,00	11,728
872,18	1,160
872,35	7,908
872,53	-0,768
872,71	8,265
872,89	9,130
873,06	4,984
873,24	7,468
873,42	2,282
873,60	2,950
873,77	1,636
873,95	2,999
874,13	3,383
874,31	7,018
874,49	-0,290
874,66	4,511
874,84	4,714
875,02	2,750
875,20	4,236
875,37	3,925
875,55	5,057
875,73	1,661
875,91	0,465
876,08	0,457
876,26	2,032
876,44	6,429
876,61	3,546
876,79	5,337
876,97	-0,456
877,15	1,410
877,32	2,643
877,50	3,808
877,68	4,542
877,86	2,974
878,03	2,978
878,21	2,613
878,39	4,010
878,56	1,322
878,74	6,193
878,92	0,969
879,10	2,613
879,27	4,549
879,45	5,178
879,63	1,863
879,80	3,668
879,98	1,806
880,16	1,965
880,34	6,632
880,51	0,237
880,69	-0,223
880,87	1,983
881,04	2,605
881,22	5,404
881,40	4,689
881,57	2,669
881,75	3,255
881,93	2,826
882,10	1,054
882,28	6,207
882,46	1,027
882,63	2,850
882,81	6,606
882,99	-1,173
883,16	4,402
883,34	-0,334
883,52	1,476
883,69	4,032
883,87	-1,823
884,05	1,462
884,22	0,652
884,40	4,875
884,58	-0,387
884,75	2,704
884,93	3,589
885,11	5,579
885,28	2,495
885,46	-2,030
885,64	4,031
885,81	-0,236
885,99	0,867
886,17	1,979
886,34	2,954
886,52	1,515
886,70	4,646
886,87	3,915
887,05	3,311
887,22	0,609
887,40	2,582
887,58	2,886
887,75	2,189
887,93	2,970
888,11	2,694
888,28	2,389
888,46	1,055
888,63	0,563
888,81	2,710
888,99	3,687
889,16	4,410
889,34	0,795
889,51	2,401
889,69	0,907
889,87	1,938
890,04	2,611
890,22	2,682
890,39	1,241
890,57	2,398
890,75	1,403
890,92	2,674
891,10	2,158
891,27	1,135
891,45	3,587
891,63	1,846
891,80	0,965
891,98	1,287
892,15	1,878
892,33	0,277
892,51	2,161
892,68	3,850
892,86	1,140
893,03	1,831
893,21	5,528
893,38	1,361
893,56	3,287
893,74	2,025
893,91	3,216
894,09	2,637
894,26	2,468
894,44	2,422
894,61	0,936
894,79	-0,085
894,96	1,024
895,14	2,839
895,32	3,827
895,49	0,682
895,67	1,774
895,84	-0,085
896,02	0,558
896,19	0,127
896,37	2,328
896,54	0,866
896,72	1,907
896,89	0,768
897,07	4,462
897,25	0,530
897,42	2,863
897,60	2,443
897,77	2,695
897,95	1,513
898,12	2,927
898,30	0,710
898,47	0,621
898,65	0,392
898,82	2,176
899,00	-0,669
899,17	2,364
899,35	-0,709
899,52	2,791
899,70	1,602
899,87	0,382
900,05	0,951
900,22	1,257
900,40	0,605
900,57	1,076
900,75	0,374
900,92	2,633
901,10	0,558
901,27	0,518
901,45	3,427
901,62	2,248
901,80	2,052
901,97	1,583
902,15	2,533
902,32	2,264
902,50	0,897
902,67	3,335
902,85	1,854
903,02	1,586
903,20	1,070
903,37	1,281
903,54	1,976
903,72	3,452
903,89	2,353
904,07	0,891
904,24	2,519
904,42	1,444
904,59	0,393
904,77	1,981
904,94	0,068
905,12	0,496
905,29	0,281
905,47	2,022
905,64	2,442
905,81	1,253
905,99	-0,280
906,16	-1,145
906,34	1,267
906,51	0,311
906,69	2,001
906,86	1,374
907,03	1,547
907,21	1,560
907,38	1,804
907,56	1,183
907,73	1,973
907,91	0,709
908,08	1,137
908,25	2,356
908,43	-0,235
908,60	0,129
908,78	0,262
908,95	1,453
909,13	3,060
909,30	2,177
909,47	0,881
909,65	1,500
909,82	0,127
910,00	1,765
910,17	0,831
910,34	2,864
910,52	1,651
910,69	1,073
910,87	2,538
911,04	1,211
911,21	2,211
911,39	-0,395
911,56	0,996
911,73	-0,150
911,91	1,931
912,08	1,638
912,26	-0,121
912,43	3,433
912,60	0,060
912,78	0,958
912,95	1,710
913,13	0,866
913,30	2,610
913,47	1,187
913,65	1,706
913,82	1,383
913,99	0,087
914,17	2,209
914,34	0,459
914,51	1,886
914,69	1,090
914,86	2,225
915,03	0,720
915,21	0,344
915,38	0,405
915,56	1,361
915,73	0,739
915,90	2,173
916,08	1,584
916,25	0,753
916,42	0,958
916,60	1,723
916,77	1,434
916,94	1,585
917,12	0,816
917,29	1,268
917,46	0,769
917,64	-0,028
917,81	0,411
917,98	0,546
918,16	1,766
918,33	0,688
918,50	1,937
918,67	-0,324
918,85	0,163
919,02	0,907
919,19	-0,026
919,37	0,157
919,54	1,632
919,71	1,289
919,89	-0,651
920,06	1,614
920,23	0,767
920,41	1,272
920,58	1,014
920,75	1,313
920,92	1,091
921,10	1,155
921,27	0,700
921,44	2,067
921,62	0,907
921,79	1,067
921,96	0,392
922,13	1,026
922,31	-0,365
922,48	0,221
922,65	0,851
922,82	-0,296
923,00	0,676
923,17	0,538
923,34	0,095
923,52	0,281
923,69	0,867
923,86	1,347
924,03	1,038
924,21	0,661
924,38	1,091
924,55	1,543
924,72	0,756
924,90	0,233
925,07	0,709
925,24	0,755
925,41	1,129
925,59	0,183
925,76	-0,231
925,93	0,954
926,10	1,588
926,28	0,590
926,45	-0,204
926,62	0,609
926,79	0,820
926,96	2,407
927,14	1,277
927,31	0,772
927,48	1,863
927,65	1,103
927,83	0,750
928,00	0,905
928,17	0,956
928,34	1,128
928,51	0,504
928,69	0,107
928,86	0,634
929,03	0,878
929,20	0,581
929,37	0,255
929,55	0,646
929,72	1,058
929,89	0,419
930,06	0,459
930,23	0,786
930,41	0,042
930,58	0,884
930,75	0,166
930,92	0,874
931,09	1,454
931,27	1,032
931,44	0,532
931,61	1,069
931,78	0,588
931,95	0,449
932,12	1,623
932,30	0,630
932,47	0,206
932,64	1,015
932,81	0,527
932,98	1,385
933,16	0,725
933,33	1,499
933,50	1,466
933,67	1,697
933,84	1,904
934,01	1,188
934,18	0,884
934,36	0,790
934,53	1,348
934,70	0,181
934,87	0,891
935,04	1,715
935,21	0,079
935,38	0,942
935,56	1,337
935,73	0,479
935,90	1,111
936,07	1,355
936,24	1,391
936,41	1,893
936,58	0,534
936,76	1,336
936,93	0,177
937,10	1,409
937,27	2,226
937,44	1,075
937,61	1,568
937,78	0,959
937,95	1,763
938,13	0,622
938,30	1,386
938,47	1,384
938,64	1,360
938,81	0,835
938,98	0,140
939,15	1,227
939,32	1,299
939,49	0,398
939,66	0,716
939,84	0,283
940,01	0,000
940,18	1,255
940,35	0,493
940,52	1,027
940,69	0,344
940,86	2,538
941,03	0,866
941,20	1,215
941,37	0,712
941,54	2,095
941,71	2,406
941,89	0,998
942,06	0,692
942,23	2,302
942,40	1,515
942,57	1,746
942,74	1,361
942,91	2,553
943,08	2,884
943,25	2,574
943,42	2,176
943,59	2,565
943,76	2,792
943,93	1,525
944,10	1,620
944,27	1,169
944,44	1,475
944,61	1,196
944,79	3,221
944,96	3,021
945,13	2,038
945,30	1,988
945,47	2,872
945,64	0,971
945,81	1,365
945,98	1,986
946,15	1,669
946,32	2,940
946,49	1,793
946,66	2,473
946,83	0,858
947,00	1,676
947,17	0,815
947,34	0,243
947,51	2,025
947,68	1,948
947,85	1,350
948,02	2,138
948,19	0,928
948,36	2,938
948,53	-0,116
948,70	-0,178
948,87	1,698
949,04	0,992
949,21	0,580
949,38	3,117
949,55	3,480
949,72	2,278
949,89	2,524
950,06	1,496
950,23	1,076
950,40	1,628
950,57	0,920
950,74	0,652
950,91	1,614
951,08	2,098
951,25	0,149
951,42	0,452
951,59	0,912
951,76	1,592
951,93	0,782
952,10	1,572
952,27	1,394
952,44	2,808
952,61	2,239
952,77	1,790
952,94	2,208
953,11	2,006
953,28	3,736
953,45	1,398
953,62	1,826
953,79	2,370
953,96	1,306
954,13	3,523
954,30	4,507
954,47	4,997
954,64	-0,572
954,81	3,359
954,98	1,348
955,15	-1,149
955,32	1,451
955,49	1,091
955,65	2,556
955,82	0,000
955,99	3,635
956,16	5,739
956,33	-0,763
956,50	2,212
956,67	2,179
956,84	4,382
957,01	-1,045
957,18	5,399
957,35	4,373
957,52	1,824
957,68	2,558
957,85	6,729
958,02	3,073
958,19	-2,905
958,36	5,633
958,53	2,927
958,70	3,907
958,87	-2,495
959,04	4,397
959,21	6,494
959,37	6,307
959,54	0,628
959,71	10,296
959,88	-2,326
960,05	6,636
960,22	4,780
960,39	7,035
960,56	4,348
960,72	10,111
960,89	1,745
961,06	5,263
961,23	0,612
961,40	6,314
961,57	5,911
961,74	4,608
961,90	5,370
962,07	4,783
962,24	10,594
962,41	8,621
962,58	3,010
962,75	10,769
962,92	6,667
963,08	2,500
963,25	-1,195
963,42	4,016
963,59	3,696
963,76	10,736
963,93	5,499
964,10	-0,226
964,26	9,048
964,43	-0,465
964,60	0,696
964,77	11,186
964,94	8,642
965,10	2,507
965,27	3,631
965,44	3,492
965,61	8,904
965,78	8,696
965,95	14,179
966,11	6,061
966,28	1,955
966,45	-3,595
966,62	-2,439
966,79	-2,048
966,95	14,235
967,12	10,159
967,29	6,790
967,46	24,199
967,63	13,333
967,79	23,490
967,96	10,550
968,13	20,476
968,30	18,930
968,47	21,923
968,63	13,235
968,80	29,885
968,97	31,214
969,14	19,774
969,31	17,347
969,47	21,196
969,64	1,099
969,81	12,258
969,98	12,105
970,14	9,677
970,31	13,836
970,48	33,557
970,65	27,273
970,81	6,993
970,98	20,833
971,15	30,303
971,32	10,606
971,48	35,714
971,65	7,285
971,82	39,091
971,99	39,241
972,15	-33,721
972,32	50,694
972,49	36,885
972,66	23,140
972,82	31,507
972,99	-25,000
973,16	43,709
973,33	25,926
973,49	17,073
973,66	44,762
973,83	65,432
974,00	46,835
974,16	76,364
974,33	26,667
974,50	53,535
974,67	27,381
974,83	53,061
975,00	105,455
975,17	83,871
975,33	60,920
975,50	39,344
975,67	59,615
975,84	36,585
976,00	34,211
976,17	23,913
976,34	56,471
976,50	-7,692
976,67	101,190
976,84	141,667
977,00	43,590
977,17	77,778
977,34	192,308
977,50	53,571
977,67	67,059
977,84	61,017
978,01	-2,703
978,17	51,724
978,34	40,741
978,51	208,000
978,67	-8,163
978,84	3,636
979,01	-68,421
979,17	18,571
979,34	93,478
979,51	95,455
979,67	175,000
979,84	133,898
980,01	32,692
980,17	85,294
980,34	72,603
980,51	200,000
980,67	8,889
980,84	75,714
981,01	70,588
981,17	66,176
981,34	25,714
981,50	75,789
981,67	154,762
981,84	21,429
982,00	1500,000
982,17	75,000
982,34	200,000
982,50	0,000
982,67	-42,857
982,84	370,000
983,00	79,630
983,17	228,571
983,33	455,556
983,50	104,878
983,67	18,841
983,83	209,524
984,00	182,609
984,17	622,222
984,33	-178,571
984,50	108,108
984,66	125,000
984,83	525,000
985,00	92,308
985,16	177,419
985,33	2750,000
985,49	96,512
985,66	35,000
985,83	-1333,333
985,99	22,222
986,16	294,737
986,32	61,644
986,49	-420,000
986,66	260,000
986,82	133,333
986,99	180,000
987,15	169,697
987,32	264,706
987,49	85,714
987,65	-39,130
987,82	-250,000
987,98	75,758
988,15	142,857
988,31	140,000
988,48	129,412
988,65	180,000
988,81	94,545
988,98	208,108
989,14	360,000
989,31	40,678
989,47	-96,429
989,64	183,333
989,80	77,660
989,97	109,091
990,14	264,286
990,30	-250,000
990,47	62,500
990,63	150,000
990,80	466,667
990,96	525,000
991,13	106,667
991,29	62,745
991,46	56,250
991,62	0,000
991,79	-190,000
991,95	270,588
992,12	800,000
992,29	-114,286
992,45	92,857
992,62	-110,714
992,78	-1083,333
992,95	222,581
993,11	487,500
993,28	-1500,000
993,44	-168,966
993,61	75,439
993,77	0,000
993,94	161,538
994,10	171,429
994,27	18,421
994,43	103,125
994,60	700,000
994,76	193,939
994,93	-350,000
995,09	-225,000
995,26	187,500
995,42	362,500
995,59	40,000
995,75	-275,000
995,92	-400,000
996,08	-180,000
996,25	187,879
996,41	980,000
996,58	272,000
996,74	-290,000
996,91	61,290
997,07	112,000
997,23	182,353
997,40	1050,000
997,56	-1033,333
997,73	260,870
997,89	480,000
998,06	64,912
998,22	104,255
998,39	169,388
998,55	347,368
998,72	-4700,000
998,88	18,000
999,05	620,000
999,21	400,000
999,37	125,581
999,54	232,258
999,70	190,476
999,87	633,333
1000,03	210,000
1000,20	-50,000
1000,36	-412,500
1000,52	-400,000
1000,69	256,000
1000,85	-516,667
1001,02	152,381
1001,18	-560,000
1001,35	0,000
1001,51	442,857
1001,67	10,000
1001,84	53,659
1002,00	-345,455
1002,17	-100,000
1002,33	-62,500
1002,50	291,667
1002,66	525,000
1002,82	236,585
1002,99	-77,273
1003,15	-4100,000
1003,32	-71,429
1003,48	-966,667
1003,64	178,261
1003,81	-178,947
1003,97	140,580
1004,14	-110,909
1004,30	427,273
1004,46	-3900,000
1004,63	-38,462
1004,79	140,541
1004,95	400,000
1005,12	107,692
1005,28	213,889
1005,45	-550,000
1005,61	-92,308
1005,77	-471,429
1005,94	158,696
1006,10	-150,000
1006,26	70,370
1006,43	148,485
1006,59	167,742
1006,76	56,000
1006,92	191,304
1007,08	36,364
1007,25	155,556
1007,41	45,455
1007,57	-235,294
1007,74	156,522
1007,90	164,286
1008,06	-60,000
1008,23	-300,000
1008,39	222,222
1008,55	69,412
1008,72	-200,000
1008,88	8,571
1009,04	-500,000
1009,21	146,875
1009,37	132,258
1009,53	-195,000
1009,70	-21,212
1009,86	347,368
1010,02	118,182
1010,19	420,000
1010,35	4900,000
1010,51	157,143
1010,68	245,455
1010,84	90,000
1011,00	200,000
1011,17	3200,000
1011,33	134,615
1011,49	387,500
1011,66	156,250
1011,82	-508,333
1011,98	386,667
1012,14	176,923
1012,31	175,000
1012,47	214,286
1012,63	5400,000
1012,80	200,000
1012,96	94,444
1013,12	-0,000
1013,29	270,833
1013,45	55,882
1013,61	240,000
1013,77	-0,000
1013,94	208,333
1014,10	2700,000
1014,26	-76,471
1014,43	273,684
1014,59	0,000
1014,75	300,000
1014,91	134,286
1015,08	80,769
1015,24	260,000
1015,40	280,000
1015,56	100,000
1015,73	83,673
1015,89	344,444
1016,05	129,730
1016,21	222,222
1016,38	81,579
1016,54	32,000
1016,70	184,211
1016,86	-130,769
1017,03	0,000
1017,19	350,000
1017,35	186,667
1017,51	666,667
1017,68	500,000
1017,84	336,842
1018,00	123,810
1018,16	-275,000
1018,33	127,273
1018,49	192,857
1018,65	-222,727
1018,81	-7,317
1018,97	307,692
1019,14	-485,714
1019,30	366,667
1019,46	194,872
1019,62	400,000
1019,79	-600,000
1019,95	-1300,000
1020,11	-320,000
1020,27	37,500
1020,43	-537,500
1020,60	0,000
1020,76	85,294
1020,92	5200,000
1021,08	-73,333
1021,24	-600,000
1021,41	224,242
1021,57	-175,000
1021,73	0,000
1021,89	-100,000
1022,05	148,571
1022,21	-176,923
1022,38	300,000
1022,54	540,000
1022,70	196,296
1022,86	-850,000
1023,02	822,222
1023,19	-55,000
1023,35	135,849
1023,51	148,387
1023,67	107,895
1023,83	263,636
1023,99	177,143
1024,16	-26,154
1024,32	412,500
1024,48	161,224
1024,64	-640,000
1024,80	358,333
1024,96	307,692
1025,12	1666,667
1025,29	-1175,000
1025,45	187,500
1025,61	2000,000
1025,77	319,048
1025,93	-123,077
1026,09	2350,000
1026,26	-1114,286
1026,42	-375,000
1026,58	144,231
1026,74	214,286
1026,90	226,316
1027,06	180,000
1027,22	-341,667
1027,38	677,778
1027,55	-332,000
1027,71	650,000
1027,87	110,000
1028,03	78,788
1028,19	-54,545
1028,35	93,243
1028,51	51,613
1028,67	-780,000
1028,83	130,952
1029,00	342,857
1029,16	-173,333
1029,32	147,059
1029,48	1650,000
1029,64	642,857
1029,80	1050,000
1029,96	111,765
1030,12	-50,000
1030,28	925,000
1030,44	-1350,000
1030,61	193,750
1030,77	-82,609
1030,93	188,372
1031,09	-207,143
1031,25	-288,889
1031,41	-2100,000
1031,57	31,579
1031,73	490,909
1031,89	-66,667
1032,05	671,429
1032,21	430,000
1032,37	-61,765
1032,53	5,000
1032,69	-1900,000
1032,86	1500,000
1033,02	12,500
1033,18	-461,538
1033,34	-84,615
1033,50	35,484
1033,66	166,667
1033,82	250,000
1033,98	-300,000
1034,14	533,333
1034,30	-136,364
1034,46	183,333
1034,62	266,667
1034,78	125,397
1034,94	-35,484
1035,10	-263,636
1035,26	-588,889
1035,42	68,571
1035,58	1000,000
1035,74	93,333
1035,90	-166,667
1036,06	156,604
1036,22	-228,000
1036,38	486,667
1036,54	590,000
1036,70	-2750,000
1036,86	-128,571
1037,02	-1250,000
1037,18	32,143
1037,34	286,957
1037,50	-373,333
1037,66	-1466,667
1037,82	-100,000
1037,98	380,952
1038,14	-117,241
1038,30	15,385
1038,46	52,083
1038,62	77,419
1038,78	157,143
1038,94	-136,842
1039,10	-141,667
1039,26	-42,105
1039,42	-757,143
1039,58	100,000
1039,74	0,000
1039,90	-94,872
1040,06	252,941
>>>>>End Processed Spectral Data<<<<<
