SpectraSuite Data File
++++++++++++++++++++++++++++++++++++
Date: Thu Feb 02 17:19:37 EET 2017
User: optolab
Dark Spectrum Present: Yes
Reference Spectrum Present: Yes
Number of Sampled Component Spectra: 1
Spectrometers: USB4C02475
Integration Time (usec): 100000 (USB4C02475)
Spectra Averaged: 1 (USB4C02475)
Boxcar Smoothing: 0 (USB4C02475)
Correct for Electrical Dark: No (USB4C02475)
Strobe/Lamp Enabled: No (USB4C02475)
Correct for Detector Non-linearity: No (USB4C02475)
Correct for Stray Light: No (USB4C02475)
Number of Pixels in Processed Spectrum: 3648
>>>>>Begin Processed Spectral Data<<<<<
344,91	-175,000
345,13	-175,000
345,35	-175,000
345,57	-35,294
345,79	67,391
346,00	-70,588
346,22	-871,429
346,44	-66,667
346,66	234,043
346,87	273,913
347,09	246,154
347,31	2000,000
347,53	-675,000
347,74	-125,581
347,96	-685,714
348,18	264,706
348,40	235,294
348,61	-143,590
348,83	2500,000
349,05	158,974
349,27	382,353
349,48	-1950,000
349,70	492,857
349,92	38,095
350,14	140,541
350,35	-292,308
350,57	-194,444
350,79	-20,513
351,01	-186,667
351,22	270,000
351,44	283,333
351,66	261,111
351,87	550,000
352,09	114,474
352,31	160,714
352,53	185,714
352,74	-585,714
352,96	47,368
353,18	96,875
353,40	-75,000
353,61	246,667
353,83	220,833
354,05	253,125
354,26	157,143
354,48	-600,000
354,70	238,095
354,92	250,000
355,13	-9,302
355,35	85,185
355,57	125,000
355,78	57,143
356,00	106,383
356,22	63,636
356,44	200,000
356,65	250,000
356,87	163,889
357,09	160,000
357,30	90,909
357,52	-633,333
357,74	83,871
357,95	51,429
358,17	66,667
358,39	148,000
358,60	36,111
358,82	68,182
359,04	133,333
359,26	145,455
359,47	-184,615
359,69	264,286
359,91	412,000
360,12	70,000
360,34	27,778
360,56	400,000
360,77	700,000
360,99	350,000
361,21	78,261
361,42	-1350,000
361,64	-85,185
361,86	62,687
362,07	526,667
362,29	195,000
362,51	129,730
362,72	-400,000
362,94	370,370
363,16	111,429
363,37	618,182
363,59	-2700,000
363,81	650,000
364,02	134,667
364,24	127,273
364,46	276,190
364,67	119,048
364,89	294,118
365,11	151,351
365,32	333,333
365,54	225,000
365,76	38,636
365,97	102,439
366,19	84,211
366,41	530,000
366,62	114,000
366,84	325,000
367,05	101,961
367,27	960,000
367,49	282,051
367,70	277,778
367,92	77,083
368,14	69,231
368,35	125,000
368,57	33,333
368,79	230,769
369,00	80,769
369,22	377,778
369,43	321,053
369,65	-65,517
369,87	-158,824
370,08	160,000
370,30	185,714
370,51	200,000
370,73	75,000
370,95	235,000
371,16	105,263
371,38	128,302
371,60	170,000
371,81	107,609
372,03	-825,000
372,24	-112,500
372,46	1400,000
372,68	97,059
372,89	50,459
373,11	65,116
373,32	62,185
373,54	281,818
373,76	94,444
373,97	269,697
374,19	-178,947
374,40	54,286
374,62	147,059
374,84	125,000
375,05	186,538
375,27	151,351
375,48	72,840
375,70	364,706
375,92	108,929
376,13	300,000
376,35	333,333
376,56	360,000
376,78	136,735
376,99	109,091
377,21	212,500
377,43	45,455
377,64	42,000
377,86	62,500
378,07	136,364
378,29	127,778
378,51	88,095
378,72	-236,364
378,94	102,174
379,15	93,182
379,37	225,000
379,58	130,000
379,80	63,636
380,01	126,000
380,23	117,391
380,45	133,333
380,66	61,111
380,88	27,027
381,09	400,000
381,31	194,872
381,52	134,783
381,74	139,286
381,95	303,571
382,17	204,000
382,39	61,290
382,60	358,824
382,82	227,586
383,03	900,000
383,25	46,914
383,46	541,667
383,68	97,872
383,89	372,727
384,11	110,959
384,32	107,895
384,54	-485,714
384,76	88,235
384,97	55,000
385,19	131,579
385,40	290,625
385,62	74,194
385,83	200,000
386,05	628,571
386,26	200,000
386,48	407,692
386,69	88,889
386,91	340,000
387,12	148,718
387,34	64,407
387,55	191,429
387,77	128,000
387,98	163,265
388,20	147,887
388,41	41,270
388,63	141,429
388,84	175,000
389,06	37,209
389,27	112,500
389,49	89,157
389,70	96,610
389,92	106,818
390,13	125,641
390,35	55,208
390,56	176,562
390,78	68,182
390,99	97,778
391,21	105,682
391,42	52,174
391,64	-200,000
391,85	131,034
392,07	92,857
392,28	111,538
392,50	620,000
392,71	2000,000
392,93	111,290
393,14	171,739
393,36	73,077
393,57	295,833
393,79	55,556
394,00	78,082
394,22	132,000
394,43	264,286
394,65	114,286
394,86	162,500
395,08	-537,500
395,29	51,064
395,50	-2300,000
395,72	300,000
395,93	240,000
396,15	-114,286
396,36	-46,667
396,58	-252,381
396,79	37,209
397,01	230,952
397,22	76,812
397,44	134,043
397,65	83,784
397,87	110,000
398,08	192,308
398,29	-241,667
398,51	178,049
398,72	110,870
398,94	146,512
399,15	50,000
399,37	63,043
399,58	101,587
399,80	226,667
400,01	261,765
400,22	235,714
400,44	180,952
400,65	105,479
400,87	4500,000
401,08	41,573
401,30	116,000
401,51	89,091
401,72	100,000
401,94	87,805
402,15	122,449
402,37	127,273
402,58	109,302
402,80	56,250
403,01	-83,333
403,22	126,506
403,44	130,556
403,65	100,000
403,87	137,333
404,08	98,077
404,30	156,250
404,51	67,143
404,72	836,364
404,94	92,771
405,15	88,060
405,37	139,560
405,58	261,290
405,79	392,857
406,01	67,407
406,22	70,238
406,44	105,263
406,65	86,905
406,86	123,000
407,08	96,296
407,29	88,000
407,51	71,154
407,72	91,089
407,93	110,127
408,15	106,818
408,36	385,714
408,58	117,500
408,79	97,674
409,00	92,199
409,22	100,980
409,43	90,991
409,64	81,410
409,86	130,682
410,07	50,435
410,29	64,000
410,50	85,714
410,71	71,774
410,93	127,723
411,14	139,252
411,35	97,222
411,57	117,361
411,78	98,529
412,00	100,000
412,21	84,513
412,42	96,585
412,64	108,889
412,85	102,591
413,06	99,554
413,28	88,627
413,49	115,814
413,70	87,983
413,92	100,000
414,13	91,304
414,34	88,104
414,56	120,851
414,77	100,738
414,98	114,488
415,20	106,810
415,41	103,247
415,63	89,174
415,84	100,831
416,05	109,036
416,27	94,708
416,48	95,735
416,69	105,814
416,91	97,867
417,12	88,688
417,33	93,454
417,55	107,800
417,76	105,708
417,97	87,453
418,19	100,628
418,40	109,808
418,61	95,883
418,83	99,472
419,04	92,558
419,25	104,466
419,46	107,384
419,68	99,558
419,89	95,389
420,10	99,059
420,32	104,901
420,53	98,687
420,74	90,442
420,96	92,299
421,17	97,948
421,38	97,225
421,60	101,072
421,81	90,991
422,02	95,486
422,23	97,146
422,45	104,306
422,66	93,144
422,87	90,161
423,09	97,682
423,30	97,099
423,51	91,747
423,73	95,372
423,94	100,144
424,15	97,203
424,36	98,980
424,58	95,020
424,79	99,154
425,00	94,789
425,22	95,294
425,43	100,174
425,64	101,694
425,85	97,294
426,07	100,000
426,28	101,121
426,49	98,830
426,71	95,686
426,92	99,150
427,13	98,440
427,34	100,171
427,56	103,472
427,77	99,959
427,98	98,929
428,19	95,269
428,41	100,967
428,62	97,228
428,83	97,295
429,04	97,979
429,26	96,869
429,47	97,544
429,68	96,423
429,89	94,161
430,11	98,148
430,32	97,136
430,53	96,362
430,74	99,031
430,96	98,439
431,17	99,545
431,38	98,791
431,59	98,683
431,81	93,399
432,02	93,990
432,23	96,021
432,44	97,043
432,66	94,775
432,87	97,041
433,08	94,097
433,29	94,065
433,51	91,230
433,72	89,089
433,93	90,017
434,14	86,988
434,35	83,616
434,57	84,022
434,78	82,194
434,99	80,977
435,20	82,719
435,42	81,525
435,63	82,030
435,84	84,783
436,05	84,941
436,26	86,699
436,48	85,253
436,69	85,359
436,90	84,110
437,11	81,320
437,32	76,993
437,54	75,026
437,75	68,407
437,96	61,812
438,17	55,080
438,38	46,177
438,60	36,745
438,81	27,657
439,02	20,233
439,23	13,398
439,44	8,206
439,66	5,094
439,87	3,008
440,08	2,283
440,29	1,551
440,50	1,258
440,72	0,916
440,93	0,860
441,14	0,846
441,35	0,346
441,56	0,696
441,77	0,751
441,99	0,668
442,20	0,599
442,41	0,514
442,62	0,198
442,83	0,453
443,04	0,323
443,26	0,489
443,47	0,764
443,68	0,391
443,89	0,477
444,10	0,523
444,31	0,727
444,53	0,550
444,74	0,652
444,95	0,319
445,16	0,421
445,37	0,301
445,58	0,378
445,80	0,219
446,01	0,559
446,22	0,649
446,43	0,571
446,64	0,324
446,85	0,309
447,06	0,451
447,28	0,685
447,49	0,177
447,70	0,388
447,91	0,485
448,12	0,305
448,33	0,204
448,54	0,232
448,76	0,425
448,97	0,393
449,18	0,336
449,39	0,305
449,60	0,208
449,81	0,399
450,02	0,651
450,23	0,147
450,45	0,449
450,66	0,390
450,87	0,224
451,08	0,354
451,29	0,682
451,50	0,429
451,71	0,146
451,92	0,626
452,13	0,454
452,35	0,369
452,56	0,381
452,77	0,483
452,98	0,269
453,19	0,300
453,40	0,651
453,61	0,657
453,82	0,340
454,03	0,279
454,25	0,370
454,46	0,291
454,67	0,453
454,88	0,815
455,09	0,748
455,30	0,310
455,51	0,627
455,72	0,502
455,93	0,359
456,14	0,762
456,35	0,147
456,56	0,356
456,78	0,534
456,99	0,588
457,20	0,420
457,41	0,439
457,62	0,364
457,83	0,555
458,04	0,729
458,25	0,455
458,46	0,571
458,67	0,345
458,88	0,433
459,09	0,404
459,30	0,162
459,51	0,540
459,73	-0,173
459,94	0,686
460,15	0,238
460,36	0,293
460,57	0,520
460,78	0,394
460,99	0,229
461,20	0,416
461,41	0,661
461,62	0,379
461,83	0,321
462,04	0,188
462,25	0,476
462,46	0,494
462,67	0,248
462,88	0,238
463,09	0,235
463,30	0,387
463,51	0,442
463,72	0,558
463,93	0,446
464,15	0,378
464,36	0,275
464,57	0,169
464,78	0,385
464,99	0,566
465,20	0,325
465,41	0,266
465,62	0,346
465,83	0,270
466,04	0,433
466,25	0,278
466,46	0,344
466,67	0,387
466,88	0,371
467,09	0,219
467,30	0,163
467,51	0,288
467,72	0,297
467,93	0,314
468,14	0,329
468,35	0,401
468,56	0,215
468,77	0,242
468,98	0,533
469,19	0,414
469,40	0,316
469,61	0,407
469,82	0,214
470,03	0,262
470,24	0,374
470,45	0,426
470,66	0,531
470,87	0,441
471,08	0,458
471,29	0,344
471,50	0,592
471,71	0,355
471,92	0,365
472,13	0,466
472,34	0,321
472,55	0,448
472,76	0,629
472,97	0,284
473,18	0,483
473,39	0,554
473,60	0,340
473,81	0,410
474,01	0,554
474,22	0,390
474,43	0,485
474,64	0,456
474,85	0,324
475,06	0,344
475,27	0,586
475,48	0,391
475,69	0,662
475,90	0,580
476,11	0,486
476,32	0,473
476,53	0,624
476,74	0,429
476,95	0,413
477,16	0,549
477,37	0,535
477,58	0,360
477,79	0,368
478,00	0,494
478,21	0,776
478,41	0,537
478,62	0,602
478,83	0,579
479,04	0,726
479,25	0,639
479,46	0,368
479,67	0,508
479,88	0,629
480,09	0,578
480,30	0,511
480,51	0,522
480,72	0,374
480,93	0,624
481,14	0,476
481,34	0,545
481,55	0,665
481,76	0,727
481,97	0,580
482,18	0,643
482,39	0,697
482,60	0,679
482,81	0,484
483,02	0,869
483,23	0,917
483,44	0,905
483,65	0,713
483,85	0,848
484,06	0,963
484,27	0,786
484,48	0,804
484,69	0,893
484,90	0,912
485,11	1,033
485,32	1,152
485,53	1,191
485,73	1,415
485,94	1,435
486,15	2,258
486,36	2,785
486,57	4,103
486,78	5,558
486,99	7,745
487,20	11,099
487,41	15,337
487,61	20,612
487,82	26,704
488,03	34,644
488,24	43,033
488,45	50,935
488,66	60,500
488,87	69,283
489,08	75,632
489,28	80,915
489,49	85,357
489,70	88,369
489,91	91,262
490,12	90,886
490,33	91,694
490,54	93,267
490,74	93,139
490,95	93,167
491,16	93,381
491,37	93,485
491,58	93,869
491,79	93,622
492,00	93,702
492,20	94,574
492,41	95,339
492,62	94,468
492,83	95,302
493,04	96,365
493,25	95,893
493,45	96,312
493,66	96,255
493,87	96,164
494,08	95,249
494,29	95,132
494,50	95,710
494,70	95,752
494,91	95,636
495,12	96,626
495,33	94,877
495,54	96,107
495,75	95,337
495,95	95,640
496,16	95,870
496,37	96,452
496,58	98,472
496,79	97,831
496,99	98,101
497,20	98,033
497,41	98,060
497,62	97,232
497,83	97,363
498,04	96,486
498,24	98,420
498,45	97,044
498,66	97,488
498,87	97,020
499,08	96,190
499,28	95,656
499,49	95,463
499,70	95,282
499,91	95,284
500,12	95,027
500,32	95,040
500,53	95,431
500,74	95,395
500,95	96,260
501,15	95,447
501,36	95,698
501,57	96,154
501,78	96,089
501,99	96,599
502,19	98,107
502,40	98,423
502,61	98,472
502,82	98,017
503,02	99,064
503,23	99,213
503,44	98,833
503,65	99,043
503,86	99,166
504,06	98,314
504,27	98,601
504,48	98,023
504,69	98,308
504,89	97,112
505,10	97,516
505,31	96,153
505,52	96,744
505,72	96,590
505,93	95,282
506,14	94,275
506,35	95,252
506,55	93,817
506,76	91,727
506,97	91,046
507,18	91,020
507,38	90,496
507,59	90,318
507,80	90,762
508,01	89,844
508,21	89,803
508,42	90,857
508,63	90,635
508,84	91,599
509,04	90,970
509,25	90,617
509,46	90,275
509,67	89,818
509,87	89,264
510,08	87,370
510,29	86,085
510,49	84,679
510,70	82,524
510,91	80,769
511,12	76,091
511,32	71,462
511,53	65,753
511,74	58,454
511,94	49,990
512,15	40,613
512,36	32,736
512,57	23,937
512,77	17,002
512,98	11,920
513,19	7,871
513,39	5,318
513,60	3,195
513,81	2,529
514,01	1,830
514,22	1,326
514,43	1,159
514,64	0,902
514,84	0,728
515,05	0,832
515,26	0,587
515,46	0,493
515,67	0,545
515,88	0,640
516,08	0,523
516,29	0,566
516,50	0,300
516,70	0,608
516,91	0,640
517,12	0,606
517,32	0,599
517,53	0,362
517,74	0,622
517,95	0,512
518,15	0,518
518,36	0,625
518,57	0,422
518,77	0,592
518,98	0,496
519,19	0,412
519,39	0,585
519,60	0,457
519,80	0,344
520,01	0,348
520,22	0,524
520,42	0,481
520,63	0,546
520,84	0,405
521,04	0,325
521,25	0,437
521,46	0,405
521,66	0,449
521,87	0,468
522,08	0,511
522,28	0,454
522,49	0,458
522,70	0,315
522,90	0,190
523,11	0,298
523,31	0,328
523,52	0,374
523,73	0,181
523,93	0,527
524,14	0,418
524,35	0,486
524,55	0,493
524,76	0,424
524,97	0,350
525,17	0,456
525,38	0,292
525,58	0,312
525,79	0,327
526,00	0,324
526,20	0,513
526,41	0,395
526,61	0,368
526,82	0,223
527,03	0,393
527,23	0,358
527,44	0,289
527,64	0,377
527,85	0,338
528,06	0,401
528,26	0,279
528,47	0,494
528,68	0,493
528,88	0,301
529,09	0,211
529,29	0,406
529,50	0,350
529,70	0,447
529,91	0,268
530,12	0,460
530,32	0,336
530,53	0,497
530,73	0,487
530,94	0,508
531,15	0,235
531,35	0,570
531,56	0,478
531,76	0,413
531,97	0,353
532,17	0,283
532,38	0,441
532,59	0,288
532,79	0,624
533,00	0,344
533,20	0,228
533,41	0,253
533,61	0,305
533,82	0,102
534,03	0,400
534,23	0,287
534,44	0,454
534,64	0,518
534,85	0,268
535,05	0,343
535,26	0,320
535,46	0,368
535,67	0,248
535,88	0,359
536,08	0,387
536,29	0,437
536,49	0,446
536,70	0,574
536,90	0,346
537,11	0,357
537,31	0,412
537,52	0,448
537,72	0,453
537,93	0,417
538,13	0,329
538,34	0,326
538,55	0,370
538,75	0,214
538,96	0,370
539,16	0,298
539,37	0,394
539,57	0,492
539,78	0,435
539,98	0,477
540,19	0,675
540,39	0,526
540,60	0,407
540,80	0,435
541,01	0,575
541,21	0,565
541,42	0,473
541,62	0,544
541,83	0,277
542,03	0,503
542,24	0,526
542,44	0,407
542,65	0,385
542,85	0,552
543,06	0,538
543,26	0,417
543,47	0,612
543,67	0,600
543,88	0,420
544,08	0,343
544,29	0,469
544,49	0,501
544,70	0,335
544,90	0,431
545,11	0,380
545,31	0,435
545,52	0,497
545,72	0,367
545,93	0,453
546,13	0,394
546,34	0,697
546,54	0,399
546,75	0,381
546,95	0,542
547,15	0,437
547,36	0,458
547,56	0,498
547,77	0,412
547,97	0,301
548,18	0,260
548,38	0,484
548,59	0,516
548,79	0,616
549,00	0,464
549,20	0,432
549,41	0,600
549,61	0,514
549,81	0,510
550,02	0,560
550,22	0,474
550,43	0,466
550,63	0,461
550,84	0,556
551,04	0,402
551,25	0,483
551,45	0,782
551,65	0,583
551,86	0,449
552,06	0,434
552,27	0,507
552,47	0,607
552,68	0,637
552,88	0,740
553,08	0,596
553,29	0,812
553,49	0,712
553,70	0,896
553,90	0,888
554,11	1,019
554,31	0,977
554,51	1,184
554,72	1,269
554,92	1,563
555,13	2,033
555,33	2,632
555,53	3,412
555,74	4,906
555,94	6,523
556,15	8,672
556,35	11,898
556,56	15,511
556,76	20,856
556,96	27,003
557,17	33,581
557,37	41,027
557,58	48,915
557,78	57,091
557,98	65,304
558,19	71,784
558,39	78,871
558,59	84,338
558,80	87,664
559,00	90,810
559,21	92,922
559,41	93,200
559,61	94,704
559,82	95,930
560,02	96,966
560,23	96,708
560,43	96,722
560,63	96,226
560,84	98,134
561,04	97,554
561,24	97,018
561,45	97,103
561,65	97,208
561,85	97,606
562,06	98,127
562,26	97,625
562,47	97,538
562,67	97,410
562,87	96,857
563,08	96,546
563,28	96,958
563,48	95,870
563,69	95,050
563,89	95,839
564,09	95,154
564,30	94,180
564,50	93,492
564,70	92,995
564,91	93,376
565,11	92,857
565,31	93,545
565,52	93,963
565,72	93,694
565,92	94,924
566,13	94,209
566,33	94,112
566,53	94,882
566,74	95,787
566,94	96,387
567,14	97,150
567,35	96,483
567,55	97,930
567,75	96,628
567,96	96,515
568,16	97,567
568,36	97,114
568,57	97,595
568,77	97,073
568,97	96,482
569,18	95,820
569,38	95,597
569,58	95,735
569,79	96,034
569,99	94,552
570,19	94,601
570,39	94,938
570,60	94,423
570,80	94,561
571,00	94,434
571,21	95,394
571,41	95,388
571,61	93,781
571,82	93,966
572,02	94,241
572,22	93,762
572,42	94,378
572,63	93,845
572,83	93,470
573,03	93,511
573,24	94,924
573,44	93,325
573,64	92,485
573,84	92,751
574,05	91,454
574,25	92,198
574,45	91,277
574,66	91,268
574,86	92,398
575,06	91,749
575,26	91,723
575,47	91,390
575,67	91,381
575,87	91,168
576,07	90,989
576,28	90,954
576,48	89,685
576,68	88,710
576,88	87,769
577,09	85,462
577,29	83,480
577,49	80,636
577,69	76,112
577,90	72,714
578,10	67,772
578,30	62,872
578,50	58,185
578,71	52,743
578,91	48,469
579,11	43,942
579,31	39,824
579,52	34,640
579,72	28,359
579,92	23,518
580,12	17,646
580,33	13,309
580,53	9,259
580,73	6,438
580,93	4,472
581,13	3,060
581,34	2,157
581,54	1,702
581,74	1,298
581,94	1,048
582,15	0,956
582,35	0,544
582,55	0,616
582,75	0,541
582,95	0,600
583,16	0,482
583,36	0,325
583,56	0,569
583,76	0,361
583,96	0,364
584,17	0,374
584,37	0,430
584,57	0,323
584,77	0,287
584,97	0,286
585,18	0,439
585,38	0,314
585,58	0,412
585,78	0,403
585,98	0,300
586,19	0,475
586,39	0,495
586,59	0,321
586,79	0,399
586,99	0,340
587,20	0,398
587,40	0,341
587,60	0,361
587,80	0,376
588,00	0,458
588,20	0,562
588,41	0,274
588,61	0,355
588,81	0,394
589,01	0,332
589,21	0,479
589,41	0,261
589,62	0,252
589,82	0,373
590,02	0,434
590,22	0,501
590,42	0,318
590,62	0,341
590,83	0,296
591,03	0,185
591,23	0,153
591,43	0,459
591,63	0,332
591,83	0,275
592,03	0,412
592,24	0,496
592,44	0,233
592,64	0,270
592,84	0,418
593,04	0,242
593,24	0,239
593,44	0,297
593,65	0,271
593,85	0,545
594,05	0,320
594,25	0,367
594,45	0,425
594,65	0,335
594,85	0,119
595,06	0,298
595,26	0,538
595,46	0,218
595,66	0,119
595,86	0,172
596,06	0,328
596,26	0,290
596,46	0,273
596,66	0,225
596,87	0,257
597,07	0,239
597,27	0,171
597,47	0,314
597,67	0,242
597,87	0,293
598,07	0,307
598,27	0,216
598,47	0,371
598,67	0,103
598,88	0,176
599,08	0,177
599,28	0,361
599,48	0,278
599,68	0,324
599,88	0,226
600,08	0,204
600,28	0,347
600,48	0,237
600,68	0,354
600,88	0,358
601,09	0,206
601,29	0,374
601,49	0,312
601,69	0,230
601,89	0,316
602,09	0,287
602,29	0,271
602,49	0,110
602,69	0,316
602,89	0,251
603,09	0,235
603,29	0,364
603,49	0,322
603,69	0,305
603,90	0,127
604,10	0,258
604,30	0,340
604,50	0,316
604,70	0,165
604,90	0,221
605,10	0,301
605,30	0,188
605,50	0,192
605,70	0,255
605,90	0,127
606,10	0,219
606,30	0,156
606,50	0,394
606,70	0,313
606,90	0,066
607,10	0,313
607,30	0,341
607,50	0,244
607,70	0,416
607,90	0,338
608,10	0,312
608,30	0,351
608,50	0,200
608,70	0,448
608,90	0,194
609,11	0,160
609,31	0,299
609,51	0,281
609,71	0,180
609,91	0,195
610,11	0,317
610,31	0,261
610,51	0,268
610,71	0,243
610,91	0,263
611,11	0,196
611,31	0,262
611,51	0,235
611,71	0,151
611,91	0,414
612,11	0,224
612,31	0,522
612,51	0,310
612,71	0,008
612,91	0,119
613,11	0,159
613,31	0,178
613,51	0,108
613,71	0,242
613,91	0,365
614,11	0,291
614,31	0,110
614,50	0,311
614,70	0,264
614,90	0,235
615,10	0,134
615,30	0,370
615,50	0,294
615,70	0,464
615,90	0,272
616,10	0,184
616,30	0,183
616,50	0,220
616,70	0,140
616,90	0,130
617,10	0,342
617,30	0,123
617,50	0,265
617,70	0,184
617,90	0,305
618,10	0,186
618,30	0,194
618,50	0,210
618,70	0,268
618,90	0,187
619,10	0,215
619,30	-0,068
619,49	0,277
619,69	0,218
619,89	0,332
620,09	0,246
620,29	0,269
620,49	0,234
620,69	0,166
620,89	0,135
621,09	0,113
621,29	0,276
621,49	0,251
621,69	0,203
621,89	0,150
622,09	0,461
622,29	0,238
622,48	0,340
622,68	0,039
622,88	0,347
623,08	0,321
623,28	0,140
623,48	0,304
623,68	0,246
623,88	0,322
624,08	0,199
624,28	0,317
624,48	0,397
624,67	0,159
624,87	0,061
625,07	0,357
625,27	0,065
625,47	0,212
625,67	0,188
625,87	0,210
626,07	0,217
626,27	0,061
626,47	0,287
626,66	0,195
626,86	0,242
627,06	0,299
627,26	0,221
627,46	0,123
627,66	0,196
627,86	0,116
628,06	0,217
628,25	0,229
628,45	0,204
628,65	0,206
628,85	0,138
629,05	0,314
629,25	0,171
629,45	0,300
629,65	0,179
629,84	0,263
630,04	0,307
630,24	0,358
630,44	0,128
630,64	0,288
630,84	0,180
631,04	0,408
631,23	0,296
631,43	0,038
631,63	0,289
631,83	0,051
632,03	0,231
632,23	0,209
632,42	0,273
632,62	0,295
632,82	0,154
633,02	0,320
633,22	0,283
633,42	0,163
633,62	0,213
633,81	0,149
634,01	0,322
634,21	0,241
634,41	0,396
634,61	0,206
634,80	0,474
635,00	0,354
635,20	0,423
635,40	0,125
635,60	0,152
635,80	0,280
635,99	0,402
636,19	0,216
636,39	0,141
636,59	0,103
636,79	0,273
636,98	0,261
637,18	0,074
637,38	0,398
637,58	0,108
637,78	0,529
637,97	0,231
638,17	0,094
638,37	0,416
638,57	0,410
638,77	0,278
638,96	0,132
639,16	0,485
639,36	0,281
639,56	0,273
639,76	0,118
639,95	0,355
640,15	0,292
640,35	0,182
640,55	0,314
640,75	0,457
640,94	0,036
641,14	0,506
641,34	0,093
641,54	0,309
641,73	0,231
641,93	0,304
642,13	0,187
642,33	0,117
642,53	0,389
642,72	0,494
642,92	0,390
643,12	0,246
643,32	0,389
643,51	0,441
643,71	0,187
643,91	0,440
644,11	0,363
644,30	0,034
644,50	0,767
644,70	0,272
644,90	0,710
645,09	0,376
645,29	0,518
645,49	0,221
645,69	0,445
645,88	0,274
646,08	0,311
646,28	0,153
646,48	0,287
646,67	0,415
646,87	0,148
647,07	0,380
647,26	0,835
647,46	0,385
647,66	0,106
647,86	0,597
648,05	0,577
648,25	0,694
648,45	-0,046
648,65	0,298
648,84	0,376
649,04	0,594
649,24	0,493
649,43	0,276
649,63	0,443
649,83	0,086
650,03	0,487
650,22	0,463
650,42	0,397
650,62	0,483
650,81	0,516
651,01	0,439
651,21	0,421
651,40	0,557
651,60	0,154
651,80	0,237
652,00	0,642
652,19	0,344
652,39	0,333
652,59	0,453
652,78	0,690
652,98	0,232
653,18	0,318
653,37	0,309
653,57	0,517
653,77	0,385
653,96	0,254
654,16	0,639
654,36	0,458
654,55	0,168
654,75	0,380
654,95	0,477
655,14	0,104
655,34	0,889
655,54	0,947
655,73	0,330
655,93	0,279
656,13	0,252
656,32	-0,150
656,52	0,300
656,72	0,565
656,91	0,618
657,11	0,578
657,31	0,392
657,50	0,664
657,70	0,529
657,90	0,747
658,09	0,607
658,29	0,346
658,49	0,489
658,68	0,330
658,88	0,671
659,07	0,776
659,27	0,140
659,47	0,331
659,66	0,362
659,86	0,245
660,06	0,398
660,25	0,424
660,45	0,504
660,64	0,404
660,84	0,392
661,04	0,324
661,23	0,077
661,43	0,553
661,63	0,198
661,82	0,165
662,02	0,608
662,21	0,384
662,41	0,560
662,61	0,675
662,80	0,202
663,00	0,104
663,19	0,830
663,39	0,130
663,59	0,827
663,78	0,808
663,98	0,932
664,17	0,673
664,37	0,594
664,57	0,351
664,76	0,552
664,96	0,273
665,15	0,349
665,35	0,068
665,55	0,359
665,74	0,455
665,94	0,464
666,13	0,316
666,33	0,464
666,53	0,451
666,72	0,556
666,92	0,239
667,11	0,499
667,31	0,173
667,50	0,166
667,70	0,781
667,90	0,196
668,09	0,254
668,29	0,221
668,48	0,455
668,68	0,317
668,87	0,234
669,07	0,192
669,26	0,729
669,46	0,288
669,66	0,364
669,85	0,276
670,05	0,292
670,24	0,304
670,44	0,370
670,63	0,242
670,83	0,413
671,02	0,290
671,22	0,170
671,42	0,394
671,61	0,597
671,81	0,462
672,00	0,689
672,20	0,030
672,39	0,300
672,59	0,135
672,78	0,400
672,98	0,294
673,17	0,267
673,37	0,255
673,56	0,239
673,76	0,015
673,95	0,605
674,15	0,563
674,34	0,100
674,54	0,506
674,73	0,384
674,93	0,433
675,13	0,355
675,32	0,736
675,52	0,371
675,71	0,597
675,91	0,245
676,10	0,268
676,30	0,151
676,49	-0,088
676,69	0,395
676,88	0,231
677,08	0,367
677,27	0,378
677,47	0,221
677,66	0,556
677,86	0,647
678,05	0,294
678,24	0,083
678,44	0,654
678,63	0,249
678,83	0,167
679,02	0,277
679,22	0,395
679,41	0,357
679,61	0,358
679,80	0,148
680,00	0,267
680,19	0,497
680,39	0,244
680,58	0,238
680,78	0,063
680,97	0,359
681,17	0,266
681,36	0,045
681,56	0,376
681,75	0,028
681,94	0,154
682,14	0,422
682,33	0,369
682,53	0,103
682,72	0,355
682,92	0,331
683,11	0,100
683,31	0,435
683,50	-0,078
683,69	0,273
683,89	0,329
684,08	0,213
684,28	0,209
684,47	0,261
684,67	-0,040
684,86	0,123
685,06	0,212
685,25	0,270
685,44	0,140
685,64	0,280
685,83	0,337
686,03	0,042
686,22	0,413
686,42	0,148
686,61	0,295
686,80	0,114
687,00	0,194
687,19	0,147
687,39	0,204
687,58	0,318
687,77	0,369
687,97	0,313
688,16	0,200
688,36	0,057
688,55	0,173
688,74	0,226
688,94	-0,068
689,13	0,025
689,33	0,108
689,52	0,190
689,71	0,240
689,91	0,158
690,10	0,106
690,30	-0,032
690,49	-0,060
690,68	0,306
690,88	0,115
691,07	0,182
691,27	0,008
691,46	0,142
691,65	0,008
691,85	0,169
692,04	0,139
692,23	0,099
692,43	0,218
692,62	0,192
692,82	0,256
693,01	0,100
693,20	0,125
693,40	0,096
693,59	-0,028
693,78	0,259
693,98	-0,082
694,17	0,341
694,36	0,369
694,56	0,282
694,75	0,124
694,94	0,205
695,14	0,284
695,33	0,237
695,53	0,325
695,72	0,288
695,91	-0,149
696,11	0,311
696,30	0,139
696,49	0,298
696,69	0,152
696,88	0,254
697,07	0,218
697,27	0,159
697,46	0,423
697,65	0,267
697,85	0,035
698,04	0,396
698,23	0,255
698,43	0,306
698,62	0,090
698,81	0,401
699,01	0,335
699,20	0,274
699,39	0,296
699,58	0,248
699,78	0,069
699,97	0,141
700,16	0,170
700,36	0,334
700,55	0,423
700,74	0,508
700,94	0,314
701,13	0,228
701,32	0,282
701,52	0,329
701,71	0,440
701,90	0,512
702,09	0,791
702,29	0,695
702,48	0,433
702,67	0,916
702,87	0,924
703,06	0,801
703,25	1,065
703,44	0,336
703,64	0,276
703,83	1,032
704,02	0,865
704,22	0,295
704,41	-0,186
704,60	1,168
704,79	0,833
704,99	1,092
705,18	1,135
705,37	0,448
705,56	0,887
705,76	1,608
705,95	1,534
706,14	0,406
706,33	1,381
706,53	0,770
706,72	0,460
706,91	1,219
707,11	1,010
707,30	0,876
707,49	1,072
707,68	0,932
707,88	0,825
708,07	1,316
708,26	0,870
708,45	0,415
708,64	1,091
708,84	0,701
709,03	1,838
709,22	0,780
709,41	2,516
709,61	1,421
709,80	1,572
709,99	1,292
710,18	1,542
710,38	-0,063
710,57	0,636
710,76	0,787
710,95	2,299
711,14	0,794
711,34	1,893
711,53	2,835
711,72	2,463
711,91	1,550
712,11	2,455
712,30	0,462
712,49	-0,191
712,68	0,475
712,87	0,531
713,07	3,252
713,26	1,666
713,45	-0,916
713,64	0,611
713,83	2,287
714,03	1,880
714,22	1,176
714,41	2,793
714,60	2,658
714,79	0,768
714,99	0,379
715,18	4,783
715,37	3,392
715,56	2,297
715,75	0,850
715,94	2,510
716,14	4,396
716,33	2,706
716,52	3,983
716,71	5,632
716,90	2,719
717,10	-0,278
717,29	2,420
717,48	0,612
717,67	2,256
717,86	1,615
718,05	2,927
718,24	2,081
718,44	2,368
718,63	0,304
718,82	1,374
719,01	2,989
719,20	4,508
719,39	3,007
719,59	0,781
719,78	3,941
719,97	4,217
720,16	6,116
720,35	1,101
720,54	-0,349
720,73	4,096
720,93	-0,072
721,12	-1,006
721,31	2,551
721,50	8,655
721,69	0,223
721,88	4,608
722,07	3,226
722,27	4,059
722,46	1,499
722,65	1,747
722,84	3,387
723,03	5,474
723,22	0,483
723,41	1,910
723,60	2,371
723,79	7,508
723,99	3,185
724,18	5,917
724,37	0,000
724,56	2,385
724,75	3,043
724,94	6,588
725,13	-0,343
725,32	4,500
725,51	-0,186
725,71	1,686
725,90	4,442
726,09	6,667
726,28	4,004
726,47	2,663
726,66	7,671
726,85	5,782
727,04	1,427
727,23	8,500
727,42	4,737
727,61	3,807
727,81	-2,162
728,00	4,470
728,19	7,151
728,38	-0,328
728,57	7,917
728,76	2,253
728,95	9,896
729,14	2,706
729,33	6,344
729,52	4,274
729,71	4,989
729,90	3,846
730,09	3,630
730,28	7,987
730,48	2,935
730,67	6,808
730,86	9,574
731,05	-0,117
731,24	-1,707
731,43	7,666
731,62	6,300
731,81	4,427
732,00	6,826
732,19	3,245
732,38	7,692
732,57	6,112
732,76	2,462
732,95	5,019
733,14	1,435
733,33	-0,265
733,52	5,618
733,71	4,735
733,90	2,966
734,09	7,162
734,28	3,412
734,47	1,389
734,66	5,882
734,85	4,857
735,04	4,850
735,23	11,204
735,42	7,240
735,61	6,851
735,81	7,988
736,00	-1,567
736,19	2,736
736,38	8,084
736,57	9,739
736,76	8,613
736,95	9,236
737,14	7,656
737,33	5,092
737,52	3,385
737,71	3,279
737,90	11,747
738,09	8,828
738,28	7,324
738,47	0,365
738,66	3,846
738,85	8,559
739,04	0,686
739,22	4,682
739,41	9,743
739,60	1,195
739,79	0,000
739,98	0,717
740,17	11,433
740,36	8,318
740,55	10,032
740,74	15,094
740,93	3,250
741,12	4,107
741,31	3,873
741,50	4,915
741,69	4,248
741,88	5,731
742,07	7,609
742,26	5,333
742,45	10,861
742,64	9,689
742,83	4,602
743,02	-0,842
743,21	20,217
743,40	-4,348
743,59	10,110
743,78	5,088
743,97	5,000
744,16	10,236
744,34	1,865
744,53	16,495
744,72	6,263
744,91	1,050
745,10	15,514
745,29	5,242
745,48	8,182
745,67	3,645
745,86	5,298
746,05	1,896
746,24	4,742
746,43	11,777
746,62	13,793
746,81	12,584
747,00	6,565
747,18	6,754
747,37	8,842
747,56	7,294
747,75	-10,345
747,94	16,019
748,13	14,765
748,32	13,095
748,51	17,005
748,70	10,793
748,89	9,602
749,08	2,035
749,26	4,185
749,45	6,702
749,64	5,290
749,83	18,427
750,02	16,304
750,21	8,142
750,40	17,814
750,59	0,000
750,78	13,217
750,96	4,696
751,15	7,944
751,34	5,398
751,53	3,552
751,72	21,972
751,91	10,104
752,10	3,141
752,29	8,267
752,47	3,725
752,66	13,968
752,85	16,667
753,04	3,631
753,23	7,740
753,42	12,129
753,61	10,972
753,80	-7,904
753,98	20,960
754,17	10,030
754,36	7,742
754,55	-2,410
754,74	16,883
754,93	22,865
755,12	10,682
755,30	9,416
755,49	8,721
755,68	13,190
755,87	13,018
756,06	12,500
756,25	11,246
756,43	-4,698
756,62	16,460
756,81	9,934
757,00	12,500
757,19	3,819
757,38	2,317
757,56	10,800
757,75	11,604
757,94	-3,042
758,13	-2,740
758,32	24,036
758,51	9,764
758,69	0,386
758,88	-2,020
759,07	14,072
759,26	5,300
759,45	8,421
759,63	5,195
759,82	28,421
760,01	17,949
760,20	35,535
760,39	15,142
760,57	12,544
760,76	19,164
760,95	23,264
761,14	19,343
761,33	6,774
761,51	10,714
761,70	19,331
761,89	9,333
762,08	19,703
762,27	11,552
762,45	7,246
762,64	3,518
762,83	17,530
763,02	27,391
763,21	-6,500
763,39	15,035
763,58	1,859
763,77	20,675
763,96	3,586
764,14	12,917
764,33	16,190
764,52	4,018
764,71	16,066
764,89	13,839
765,08	17,734
765,27	11,489
765,46	24,664
765,65	23,529
765,83	47,964
766,02	4,286
766,21	24,590
766,40	25,681
766,58	21,164
766,77	22,477
766,96	10,976
767,15	27,311
767,33	5,797
767,52	22,707
767,71	6,140
767,90	3,518
768,08	21,557
768,27	32,927
768,46	40,789
768,64	33,796
768,83	27,941
769,02	11,823
769,21	10,937
769,39	15,000
769,58	7,359
769,77	22,340
769,96	22,973
770,14	25,137
770,33	23,832
770,52	35,971
770,70	5,946
770,89	35,676
771,08	4,217
771,27	18,421
771,45	0,000
771,64	36,364
771,83	21,078
772,01	53,608
772,20	19,403
772,39	28,481
772,57	14,925
772,76	22,297
772,95	5,747
773,14	49,660
773,32	7,345
773,51	25,000
773,70	43,165
773,88	34,839
774,07	30,964
774,26	2,419
774,44	54,135
774,63	35,928
774,82	17,532
775,00	31,776
775,19	11,905
775,38	18,617
775,56	33,540
775,75	17,582
775,94	5,833
776,12	13,725
776,31	10,526
776,50	19,863
776,68	8,602
776,87	33,971
777,06	17,610
777,24	-3,361
777,43	44,920
777,62	34,270
777,80	10,692
777,99	42,500
778,18	27,586
778,36	50,847
778,55	20,339
778,74	20,312
778,92	26,543
779,11	20,909
779,29	8,511
779,48	9,220
779,67	50,450
779,85	8,772
780,04	22,464
780,23	30,357
780,41	67,797
780,60	19,463
780,79	39,516
780,97	26,144
781,16	25,000
781,34	31,081
781,53	25,000
781,72	9,910
781,90	25,749
782,09	20,930
782,28	42,857
782,46	25,714
782,65	22,535
782,83	13,208
783,02	70,175
783,21	28,571
783,39	69,748
783,58	51,304
783,76	42,857
783,95	80,282
784,14	51,316
784,32	-45,882
784,51	30,405
784,69	19,531
784,88	18,692
785,06	38,411
785,25	24,113
785,44	8,065
785,62	22,857
785,81	40,741
785,99	31,579
786,18	20,721
786,37	42,857
786,55	36,806
786,74	30,909
786,92	13,986
787,11	38,194
787,29	8,929
787,48	47,312
787,67	24,528
787,85	40,506
788,04	30,631
788,22	24,752
788,41	69,291
788,59	44,737
788,78	28,571
788,96	19,008
789,15	45,833
789,34	51,923
789,52	-45,161
789,71	46,043
789,89	15,584
790,08	96,250
790,26	49,045
790,45	-5,556
790,63	11,494
790,82	36,154
791,00	31,858
791,19	17,600
791,38	28,571
791,56	33,636
791,75	18,056
791,93	72,000
792,12	66,957
792,30	42,336
792,49	27,273
792,67	5,882
792,86	28,800
793,04	39,815
793,23	62,105
793,41	57,246
793,60	20,139
793,78	39,048
793,97	63,889
794,15	87,970
794,34	54,667
794,52	20,430
794,71	37,984
794,89	34,091
795,08	62,400
795,26	72,000
795,45	84,722
795,63	75,000
795,82	53,846
796,00	23,000
796,19	23,577
796,37	45,038
796,56	-16,505
796,74	25,263
796,93	43,939
797,11	15,663
797,30	45,556
797,48	30,469
797,67	26,829
797,85	9,231
798,04	47,458
798,22	87,179
798,41	30,769
798,59	24,762
798,77	18,072
798,96	61,111
799,14	65,323
799,33	61,468
799,51	83,333
799,70	26,154
799,88	47,706
800,07	56,489
800,25	43,373
800,44	50,000
800,62	66,667
800,80	45,775
800,99	119,178
801,17	63,793
801,36	60,000
801,54	40,000
801,73	18,947
801,91	41,322
802,10	44,706
802,28	32,000
802,46	36,842
802,65	41,007
802,83	88,000
803,02	79,032
803,20	90,361
803,39	85,057
803,57	19,685
803,75	68,293
803,94	42,857
804,12	65,517
804,31	-10,145
804,49	40,800
804,67	47,794
804,86	41,593
805,04	-7,229
805,23	81,416
805,41	52,500
805,59	55,479
805,78	68,800
805,96	36,145
806,15	38,614
806,33	55,263
806,51	44,000
806,70	30,075
806,88	38,372
807,07	42,342
807,25	43,956
807,43	63,393
807,62	37,168
807,80	39,048
807,99	13,846
808,17	37,008
808,35	24,000
808,54	21,014
808,72	48,649
808,90	47,945
809,09	32,609
809,27	101,333
809,46	65,934
809,64	96,341
809,82	47,020
810,01	35,156
810,19	60,606
810,37	40,625
810,56	77,778
810,74	68,831
810,92	6,667
811,11	40,351
811,29	54,717
811,48	22,308
811,66	43,820
811,84	-13,187
812,03	47,541
812,21	23,684
812,39	27,826
812,58	50,526
812,76	43,885
812,94	-2,410
813,13	29,787
813,31	43,000
813,49	29,630
813,68	40,000
813,86	41,573
814,04	38,843
814,23	26,506
814,41	-6,742
814,59	62,136
814,78	35,294
814,96	32,704
815,14	30,841
815,33	37,209
815,51	37,795
815,69	26,667
815,87	33,663
816,06	32,174
816,24	41,615
816,42	47,059
816,61	47,170
816,79	17,241
816,97	18,182
817,16	11,834
817,34	72,222
817,52	36,364
817,70	38,614
817,89	44,444
818,07	27,397
818,25	1,020
818,44	74,359
818,62	21,705
818,80	25,564
818,98	43,949
819,17	27,731
819,35	57,447
819,53	24,627
819,72	59,494
819,90	21,705
820,08	6,838
820,26	37,069
820,45	33,557
820,63	55,357
820,81	40,800
820,99	5,674
821,18	44,898
821,36	12,025
821,54	59,310
821,73	31,667
821,91	21,053
822,09	-3,226
822,27	53,548
822,46	16,176
822,64	24,800
822,82	17,127
823,00	-16,022
823,19	36,264
823,37	30,909
823,55	26,705
823,73	37,241
823,91	47,101
824,10	27,957
824,28	41,206
824,46	-2,913
824,64	32,237
824,83	51,553
825,01	24,000
825,19	45,161
825,37	22,609
825,56	26,887
825,74	20,918
825,92	38,217
826,10	58,523
826,28	27,381
826,47	17,895
826,65	27,660
826,83	22,414
827,01	28,324
827,19	39,286
827,38	29,012
827,56	43,182
827,74	22,346
827,92	11,628
828,10	23,718
828,29	37,278
828,47	32,520
828,65	17,692
828,83	-1,818
829,01	11,957
829,20	32,418
829,38	10,795
829,56	25,543
829,74	15,723
829,92	31,349
830,10	28,161
830,29	16,583
830,47	21,106
830,65	3,049
830,83	21,875
831,01	56,548
831,20	23,301
831,38	24,402
831,56	32,093
831,74	33,175
831,92	51,974
832,10	31,905
832,29	6,081
832,47	-16,292
832,65	31,863
832,83	26,291
833,01	43,000
833,19	8,597
833,37	17,195
833,56	18,143
833,74	25,000
833,92	8,796
834,10	12,448
834,28	25,316
834,46	19,457
834,64	24,537
834,83	9,545
835,01	25,726
835,19	27,200
835,37	31,818
835,55	18,750
835,73	37,438
835,91	35,793
836,09	17,871
836,28	28,782
836,46	12,000
836,64	33,083
836,82	-0,905
837,00	18,841
837,18	15,985
837,36	25,100
837,54	18,636
837,72	-1,724
837,91	15,299
838,09	-4,781
838,27	19,000
838,45	7,447
838,63	26,838
838,81	-5,485
838,99	11,290
839,17	9,797
839,35	7,092
839,53	18,947
839,72	5,639
839,90	26,460
840,08	29,846
840,26	18,651
840,44	19,940
840,62	2,414
840,80	24,830
840,98	16,863
841,16	6,844
841,34	18,395
841,52	30,887
841,70	6,154
841,89	21,371
842,07	2,821
842,25	14,943
842,43	3,448
842,61	26,316
842,79	13,842
842,97	6,189
843,15	17,822
843,33	8,517
843,51	20,181
843,69	24,501
843,87	7,836
844,05	0,000
844,23	17,718
844,41	10,972
844,59	12,968
844,77	3,922
844,95	13,873
845,13	18,462
845,31	5,814
845,50	18,848
845,68	13,826
845,86	6,609
846,04	24,302
846,22	8,447
846,40	20,430
846,58	16,239
846,76	15,054
846,94	19,202
847,12	13,731
847,30	2,835
847,48	13,003
847,66	15,025
847,84	3,825
848,02	18,357
848,20	19,638
848,38	0,855
848,56	17,898
848,74	26,492
848,92	7,232
849,10	-2,500
849,28	9,717
849,46	22,667
849,64	17,321
849,82	0,926
850,00	22,897
850,18	12,553
850,36	8,609
850,54	0,501
850,72	16,710
850,90	13,043
851,08	15,098
851,26	14,004
851,44	9,513
851,62	14,651
851,80	9,471
851,98	14,505
852,16	20,567
852,34	2,887
852,52	10,045
852,70	-0,228
852,87	5,708
853,05	7,407
853,23	7,835
853,41	13,152
853,59	10,788
853,77	17,460
853,95	13,080
854,13	2,212
854,31	7,598
854,49	-1,198
854,67	0,000
854,85	9,110
855,03	11,423
855,21	13,684
855,39	6,439
855,57	12,366
855,75	8,759
855,93	10,000
856,11	22,824
856,28	10,148
856,46	13,879
856,64	13,524
856,82	4,639
857,00	0,406
857,18	8,303
857,36	9,106
857,54	7,439
857,72	1,228
857,90	2,768
858,08	4,706
858,26	-1,035
858,44	3,119
858,61	2,787
858,79	12,976
858,97	9,381
859,15	9,443
859,33	13,750
859,51	11,055
859,69	-0,894
859,87	13,015
860,05	3,197
860,23	3,896
860,40	6,940
860,58	5,902
860,76	3,810
860,94	6,667
861,12	6,154
861,30	2,669
861,48	6,429
861,66	10,159
861,84	3,737
862,01	12,960
862,19	-4,237
862,37	6,354
862,55	15,706
862,73	5,573
862,91	1,322
863,09	7,292
863,27	3,017
863,44	6,347
863,62	3,668
863,80	3,797
863,98	8,457
864,16	-0,434
864,34	5,375
864,52	8,445
864,69	2,339
864,87	7,381
865,05	2,857
865,23	2,614
865,41	10,484
865,59	5,922
865,76	5,045
865,94	7,364
866,12	9,548
866,30	1,262
866,48	11,628
866,66	0,672
866,83	10,305
867,01	3,069
867,19	8,062
867,37	-2,070
867,55	6,930
867,73	3,726
867,90	5,150
868,08	3,869
868,26	5,270
868,44	-0,117
868,62	2,826
868,79	4,467
868,97	4,156
869,15	-0,580
869,33	3,297
869,51	4,065
869,69	3,049
869,86	2,807
870,04	7,126
870,22	6,533
870,40	4,094
870,57	4,729
870,75	5,967
870,93	7,474
871,11	4,545
871,29	8,219
871,46	3,201
871,64	5,753
871,82	1,292
872,00	10,905
872,18	1,055
872,35	4,995
872,53	-0,329
872,71	6,633
872,89	12,208
873,06	8,515
873,24	5,432
873,42	5,952
873,60	3,583
873,77	1,022
873,95	2,896
874,13	2,326
874,31	3,818
874,49	6,389
874,66	3,289
874,84	3,410
875,02	4,400
875,20	3,350
875,37	4,371
875,55	4,771
875,73	0,962
875,91	4,554
876,08	2,468
876,26	-1,855
876,44	1,477
876,61	4,190
876,79	7,962
876,97	3,741
877,15	3,612
877,32	0,341
877,50	1,407
877,68	0,600
877,86	1,020
878,03	5,542
878,21	2,454
878,39	4,571
878,56	0,331
878,74	3,440
878,92	-0,323
879,10	5,304
879,27	4,395
879,45	6,105
879,63	3,882
879,80	2,620
879,98	2,634
880,16	6,259
880,34	2,874
880,51	1,577
880,69	1,116
880,87	2,620
881,04	0,796
881,22	5,404
881,40	3,429
881,57	1,826
881,75	2,701
881,93	4,576
882,10	1,335
882,28	4,897
882,46	4,521
882,63	1,856
882,81	5,755
882,99	5,150
883,16	3,548
883,34	1,872
883,52	3,219
883,69	3,437
883,87	-0,716
884,05	2,680
884,22	4,566
884,40	3,473
884,58	1,225
884,75	0,601
884,93	4,258
885,11	6,004
885,28	2,246
885,46	-0,062
885,64	2,608
885,81	3,946
885,99	0,558
886,17	0,990
886,34	1,839
886,52	1,690
886,70	3,659
886,87	0,326
887,05	1,122
887,22	0,885
887,40	2,527
887,58	1,497
887,75	4,209
887,93	3,245
888,11	1,796
888,28	1,805
888,46	3,692
888,63	0,102
888,81	2,449
888,99	3,030
889,16	2,889
889,34	0,895
889,51	2,301
889,69	0,302
889,87	5,964
890,04	2,217
890,22	2,584
890,39	2,035
890,57	2,986
890,75	2,431
890,92	3,152
891,10	-0,469
891,27	2,222
891,45	1,463
891,63	2,492
891,80	4,042
891,98	1,425
892,15	2,611
892,33	2,400
892,51	2,161
892,68	2,627
892,86	0,547
893,03	2,014
893,21	1,994
893,38	1,361
893,56	1,514
893,74	2,340
893,91	2,444
894,09	3,070
894,26	2,380
894,44	2,725
894,61	2,382
894,79	1,316
894,96	0,469
895,14	1,864
895,32	1,331
895,49	1,449
895,67	3,674
895,84	1,185
896,02	2,320
896,19	0,507
896,37	0,956
896,54	0,660
896,72	1,380
896,89	1,779
897,07	2,702
897,25	1,589
897,42	1,789
897,60	4,606
897,77	0,724
897,95	1,881
898,12	2,537
898,30	0,197
898,47	1,786
898,65	0,587
898,82	1,593
899,00	0,865
899,17	1,655
899,35	-0,788
899,52	2,975
899,70	1,831
899,87	0,038
900,05	1,903
900,22	1,486
900,40	-0,303
900,57	1,002
900,75	0,149
900,92	1,149
901,10	1,526
901,27	0,148
901,45	3,427
901,62	1,461
901,80	-0,149
901,97	1,439
902,15	1,829
902,32	2,551
902,50	0,574
902,67	2,259
902,85	1,711
903,02	1,550
903,20	1,356
903,37	1,174
903,54	1,580
903,72	2,106
903,89	1,299
904,07	0,143
904,24	3,244
904,42	0,986
904,59	0,214
904,77	0,460
904,94	0,753
905,12	-0,532
905,29	2,002
905,47	0,523
905,64	1,639
905,81	1,566
905,99	0,420
906,16	0,416
906,34	1,164
906,51	1,623
906,69	2,036
906,86	0,871
907,03	0,774
907,21	0,631
907,38	2,076
907,56	1,183
907,73	1,471
907,91	1,514
908,08	1,571
908,25	1,937
908,43	-0,604
908,60	-0,097
908,78	1,311
908,95	0,581
909,13	3,027
909,30	2,145
909,47	0,685
909,65	1,563
909,82	1,555
910,00	1,363
910,17	1,534
910,34	1,324
910,52	0,872
910,69	1,388
910,87	0,815
911,04	0,273
911,21	3,119
911,39	-0,274
911,56	0,623
911,73	0,901
911,91	0,935
912,08	2,353
912,26	0,332
912,43	2,486
912,60	1,075
912,78	2,234
912,95	-0,810
913,13	1,443
913,30	1,839
913,47	2,317
913,65	2,255
913,82	1,354
913,99	0,145
914,17	2,013
914,34	0,057
914,51	1,686
914,69	1,406
914,86	2,254
915,03	1,498
915,21	0,718
915,38	1,185
915,56	1,223
915,73	-0,028
915,90	0,947
916,08	1,443
916,25	0,558
916,42	1,832
916,60	1,473
916,77	1,048
916,94	1,168
917,12	1,182
917,29	-0,331
917,46	1,812
917,64	0,556
917,81	0,301
917,98	1,474
918,16	1,231
918,33	1,324
918,50	1,399
918,67	1,296
918,85	0,435
919,02	0,544
919,19	1,095
919,37	0,367
919,54	1,711
919,71	2,755
919,89	1,875
920,06	1,972
920,23	0,640
920,41	1,347
920,58	0,494
920,75	2,071
920,92	1,141
921,10	-0,308
921,27	0,925
921,44	1,575
921,62	0,907
921,79	0,372
921,96	0,834
922,13	1,301
922,31	0,292
922,48	-0,025
922,65	0,681
922,82	-0,247
923,00	1,593
923,17	0,709
923,34	0,999
923,52	0,094
923,69	1,149
923,86	1,515
924,03	0,425
924,21	0,165
924,38	1,897
924,55	1,075
924,72	0,378
924,90	0,955
925,07	0,874
925,24	1,863
925,41	1,341
925,59	0,480
925,76	-0,023
925,93	0,613
926,10	1,202
926,28	0,113
926,45	-0,091
926,62	0,902
926,79	1,594
926,96	1,479
927,14	2,026
927,31	0,044
927,48	0,152
927,65	1,103
927,83	1,633
928,00	0,474
928,17	1,629
928,34	0,716
928,51	1,578
928,69	-0,043
928,86	0,481
929,03	1,120
929,20	1,119
929,37	0,787
929,55	0,980
929,72	0,656
929,89	0,901
930,06	0,897
930,23	1,449
930,41	1,020
930,58	0,905
930,75	0,851
930,92	1,443
931,09	1,167
931,27	0,598
931,44	0,020
931,61	1,735
931,78	0,528
931,95	0,755
932,12	1,623
932,30	0,671
932,47	-0,330
932,64	1,665
932,81	0,751
932,98	0,848
933,16	0,584
933,33	0,993
933,50	0,753
933,67	1,475
933,84	1,944
934,01	0,483
934,18	1,606
934,36	1,094
934,53	1,650
934,70	0,664
934,87	0,810
935,04	1,176
935,21	0,789
935,38	0,761
935,56	1,027
935,73	1,357
935,90	1,349
936,07	0,550
936,24	1,509
936,41	1,006
936,58	0,455
936,76	1,415
936,93	1,063
937,10	1,800
937,27	1,816
937,44	1,872
937,61	2,351
937,78	1,527
937,95	1,545
938,13	0,777
938,30	1,684
938,47	1,204
938,64	1,020
938,81	0,755
938,98	0,798
939,15	1,227
939,32	1,634
939,49	0,776
939,66	1,630
939,84	1,191
940,01	1,621
940,18	1,579
940,35	0,657
940,52	1,130
940,69	0,830
940,86	1,644
941,03	1,216
941,20	1,256
941,37	0,607
941,54	2,074
941,71	2,615
941,89	1,635
942,06	0,608
942,23	2,409
942,40	2,000
942,57	1,388
942,74	1,849
942,91	2,832
943,08	2,435
943,25	2,264
943,42	1,466
943,59	2,475
943,76	2,364
943,93	0,785
944,10	0,810
944,27	1,146
944,44	0,899
944,61	1,978
944,79	1,761
944,96	1,770
945,13	2,342
945,30	0,936
945,47	2,268
945,64	0,607
945,81	1,511
945,98	1,812
946,15	0,648
946,32	1,829
946,49	1,281
946,66	1,453
946,83	1,430
947,00	2,011
947,17	0,870
947,34	0,864
947,51	0,972
947,68	1,756
947,85	1,240
948,02	1,809
948,19	0,174
948,36	1,843
948,53	-0,670
948,70	1,272
948,87	1,142
949,04	1,865
949,21	0,611
949,38	2,110
949,55	1,756
949,72	2,245
949,89	1,424
950,06	1,163
950,23	1,749
950,40	0,509
950,57	1,635
950,74	1,231
950,91	1,394
951,08	2,024
951,25	1,527
951,42	2,298
951,59	0,798
951,76	-0,995
951,93	0,938
952,10	1,008
952,27	1,183
952,44	0,545
952,61	1,932
952,77	0,917
952,94	0,920
953,11	2,006
953,28	3,235
953,45	2,470
953,62	1,264
953,79	3,259
953,96	2,963
954,13	2,667
954,30	5,031
954,47	2,794
954,64	0,743
954,81	3,807
954,98	0,730
955,15	0,907
955,32	2,205
955,49	1,733
955,65	1,789
955,82	3,218
955,99	5,882
956,16	6,144
956,33	-0,693
956,50	1,327
956,67	1,888
956,84	5,936
957,01	2,985
957,18	2,281
957,35	3,053
957,52	2,902
957,68	3,878
957,85	3,833
958,02	2,195
958,19	4,780
958,36	6,932
958,53	2,927
958,70	1,488
958,87	-2,196
959,04	5,317
959,21	8,092
959,37	7,833
959,54	5,131
959,71	4,819
959,88	3,605
960,05	6,403
960,22	0,755
960,39	3,266
960,56	3,581
960,72	3,463
960,89	8,725
961,06	1,662
961,23	2,905
961,40	6,608
961,57	5,591
961,74	8,449
961,90	7,837
962,07	3,139
962,24	3,371
962,41	6,897
962,58	8,194
962,75	10,598
962,92	4,386
963,08	-1,250
963,25	-5,578
963,42	11,647
963,59	1,643
963,76	4,573
963,93	10,591
964,10	4,751
964,26	10,476
964,43	0,233
964,60	6,497
964,77	12,528
964,94	-1,975
965,10	-0,557
965,27	1,676
965,44	5,397
965,61	3,767
965,78	-3,416
965,95	16,418
966,11	5,758
966,28	10,056
966,45	8,824
966,62	0,348
966,79	2,389
966,95	8,185
967,12	20,952
967,29	22,222
967,46	16,726
967,63	3,529
967,79	23,154
967,96	0,917
968,13	13,810
968,30	11,934
968,47	6,538
968,63	24,020
968,80	20,690
968,97	19,653
969,14	17,514
969,31	22,449
969,47	20,109
969,64	0,549
969,81	13,548
969,98	11,053
970,14	10,215
970,31	37,736
970,48	13,423
970,65	9,917
970,81	6,993
970,98	17,708
971,15	52,121
971,32	8,333
971,48	40,476
971,65	0,662
971,82	45,455
971,99	29,114
972,15	-54,651
972,32	42,361
972,49	31,148
972,66	38,017
972,82	31,507
972,99	-10,000
973,16	64,901
973,33	40,741
973,49	17,073
973,66	56,190
973,83	28,395
974,00	41,772
974,16	3,636
974,33	93,333
974,50	63,636
974,67	84,524
974,83	60,204
975,00	85,455
975,17	40,323
975,33	45,977
975,50	72,131
975,67	88,462
975,84	29,268
976,00	114,474
976,17	43,478
976,34	76,471
976,50	8,791
976,67	83,333
976,84	27,083
977,00	57,692
977,17	111,111
977,34	142,308
977,50	72,619
977,67	95,294
977,84	71,186
978,01	71,622
978,17	58,621
978,34	-25,926
978,51	-4,000
978,67	85,714
978,84	52,727
979,01	-28,947
979,17	84,286
979,34	54,348
979,51	63,636
979,67	283,333
979,84	86,441
980,01	30,769
980,17	111,765
980,34	2,740
980,51	644,444
980,67	-40,000
980,84	104,286
981,01	226,471
981,17	55,882
981,34	85,714
981,50	95,789
981,67	107,143
981,84	7,143
982,00	3900,000
982,17	96,875
982,34	141,463
982,50	0,000
982,67	100,000
982,84	105,000
983,00	90,741
983,17	-257,143
983,33	288,889
983,50	131,707
983,67	104,348
983,83	376,190
984,00	182,609
984,17	544,444
984,33	-328,571
984,50	108,108
984,66	212,500
984,83	362,500
985,00	-100,000
985,16	135,484
985,33	1900,000
985,49	93,023
985,66	-2,500
985,83	-1133,333
985,99	155,556
986,16	126,316
986,32	90,411
986,49	-300,000
986,66	-300,000
986,82	133,333
986,99	-560,000
987,15	154,545
987,32	270,588
987,49	171,429
987,65	-17,391
987,82	-15,000
987,98	43,939
988,15	157,143
988,31	231,429
988,48	215,686
988,65	210,000
988,81	43,636
988,98	243,243
989,14	350,000
989,31	106,780
989,47	35,714
989,64	338,889
989,80	131,915
989,97	118,182
990,14	314,286
990,30	-187,500
990,47	58,333
990,63	186,842
990,80	833,333
990,96	450,000
991,13	226,667
991,29	125,490
991,46	141,667
991,62	0,000
991,79	-240,000
991,95	123,529
992,12	1266,667
992,29	-76,190
992,45	80,952
992,62	32,143
992,78	-483,333
992,95	138,710
993,11	512,500
993,28	-2600,000
993,44	-79,310
993,61	78,947
993,77	0,000
993,94	135,897
994,10	857,143
994,27	5,263
994,43	209,375
994,60	357,143
994,76	163,636
994,93	-180,000
995,09	-268,750
995,26	137,500
995,42	437,500
995,59	156,667
995,75	-533,333
995,92	-1300,000
996,08	-960,000
996,25	178,788
996,41	320,000
996,58	156,000
996,74	-300,000
996,91	101,613
997,07	196,000
997,23	74,510
997,40	650,000
997,56	-66,667
997,73	178,261
997,89	480,000
998,06	89,474
998,22	127,660
998,39	218,367
998,55	452,632
998,72	-4900,000
998,88	98,000
999,05	360,000
999,21	188,235
999,37	137,209
999,54	248,387
999,70	57,143
999,87	1116,667
1000,03	220,000
1000,20	328,571
1000,36	-650,000
1000,52	1000,000
1000,69	244,000
1000,85	-325,000
1001,02	242,857
1001,18	480,000
1001,35	0,000
1001,51	271,429
1001,67	15,000
1001,84	102,439
1002,00	-63,636
1002,17	475,000
1002,33	-125,000
1002,50	308,333
1002,66	712,500
1002,82	251,220
1002,99	-109,091
1003,15	-500,000
1003,32	42,857
1003,48	-1200,000
1003,64	334,783
1003,81	10,526
1003,97	81,159
1004,14	-70,909
1004,30	72,727
1004,46	-2000,000
1004,63	-53,846
1004,79	164,865
1004,95	-440,000
1005,12	246,154
1005,28	177,778
1005,45	-1083,333
1005,61	453,846
1005,77	-400,000
1005,94	89,130
1006,10	-180,000
1006,26	-29,630
1006,43	169,697
1006,59	283,871
1006,76	-200,000
1006,92	95,652
1007,08	84,848
1007,25	175,000
1007,41	204,545
1007,57	-229,412
1007,74	143,478
1007,90	-14,286
1008,06	-313,333
1008,23	-10,526
1008,39	36,111
1008,55	97,647
1008,72	-775,000
1008,88	25,714
1009,04	-555,556
1009,21	175,000
1009,37	322,581
1009,53	-360,000
1009,70	13,636
1009,86	278,947
1010,02	111,364
1010,19	700,000
1010,35	4600,000
1010,51	168,571
1010,68	227,273
1010,84	185,000
1011,00	128,571
1011,17	1600,000
1011,33	257,692
1011,49	293,750
1011,66	437,500
1011,82	-475,000
1011,98	313,333
1012,14	353,846
1012,31	186,364
1012,47	-442,857
1012,63	2800,000
1012,80	44,444
1012,96	55,556
1013,12	-29,630
1013,29	233,333
1013,45	-82,353
1013,61	-740,000
1013,77	-311,111
1013,94	237,500
1014,10	2800,000
1014,26	-8,824
1014,43	239,474
1014,59	0,000
1014,75	70,000
1014,91	185,714
1015,08	196,154
1015,24	553,333
1015,40	213,333
1015,56	235,294
1015,73	63,265
1015,89	733,333
1016,05	181,081
1016,21	162,963
1016,38	118,421
1016,54	-120,000
1016,70	373,684
1016,86	-376,923
1017,03	0,000
1017,19	462,500
1017,35	200,000
1017,51	66,667
1017,68	614,286
1017,84	157,895
1018,00	228,571
1018,16	-250,000
1018,33	227,273
1018,49	214,286
1018,65	-386,364
1018,81	60,976
1018,97	276,923
1019,14	-414,286
1019,30	276,190
1019,46	69,231
1019,62	900,000
1019,79	-485,714
1019,95	-925,000
1020,11	100,000
1020,27	122,500
1020,43	-387,500
1020,60	0,000
1020,76	114,706
1020,92	6300,000
1021,08	-6,667
1021,24	-150,000
1021,41	254,545
1021,57	-200,000
1021,73	0,000
1021,89	-172,727
1022,05	168,571
1022,21	-69,231
1022,38	163,158
1022,54	660,000
1022,70	185,185
1022,86	750,000
1023,02	100,000
1023,19	-85,000
1023,35	49,057
1023,51	235,484
1023,67	131,579
1023,83	45,455
1023,99	248,571
1024,16	18,462
1024,32	487,500
1024,48	187,755
1024,64	-860,000
1024,80	333,333
1024,96	376,923
1025,12	1800,000
1025,29	-350,000
1025,45	266,667
1025,61	1133,333
1025,77	228,571
1025,93	-246,154
1026,09	2600,000
1026,26	-614,286
1026,42	-675,000
1026,58	75,000
1026,74	628,571
1026,90	136,842
1027,06	-510,000
1027,22	-500,000
1027,38	866,667
1027,55	-216,000
1027,71	187,500
1027,87	160,000
1028,03	74,242
1028,19	-57,576
1028,35	122,973
1028,51	9,677
1028,67	-40,000
1028,83	130,952
1029,00	435,714
1029,16	-346,667
1029,32	194,118
1029,48	1650,000
1029,64	957,143
1029,80	716,667
1029,96	188,235
1030,12	225,000
1030,28	1075,000
1030,44	-2200,000
1030,61	225,000
1030,77	-139,130
1030,93	118,605
1031,09	-164,286
1031,25	-411,111
1031,41	350,000
1031,57	63,158
1031,73	500,000
1031,89	-81,818
1032,05	1300,000
1032,21	670,000
1032,37	38,235
1032,53	-85,000
1032,69	1300,000
1032,86	1666,667
1033,02	143,750
1033,18	-338,462
1033,34	-253,846
1033,50	145,161
1033,66	-44,444
1033,82	285,714
1033,98	-223,529
1034,14	800,000
1034,30	-131,818
1034,46	170,833
1034,62	372,222
1034,78	84,127
1034,94	-22,581
1035,10	-159,091
1035,26	-633,333
1035,42	60,000
1035,58	1020,000
1035,74	-90,000
1035,90	25,000
1036,06	147,170
1036,22	-252,000
1036,38	413,333
1036,54	360,000
1036,70	-3100,000
1036,86	-142,857
1037,02	-600,000
1037,18	53,571
1037,34	365,217
1037,50	-453,333
1037,66	-2866,667
1037,82	64,706
1037,98	438,095
1038,14	-168,966
1038,30	73,077
1038,46	137,500
1038,62	112,903
1038,78	164,286
1038,94	-136,842
1039,10	-204,167
1039,26	-131,579
1039,42	-657,143
1039,58	116,981
1039,74	15,625
1039,90	20,513
1040,06	164,706
>>>>>End Processed Spectral Data<<<<<
