SpectraSuite Data File
++++++++++++++++++++++++++++++++++++
Date: Thu Feb 02 17:20:12 EET 2017
User: optolab
Dark Spectrum Present: Yes
Reference Spectrum Present: Yes
Number of Sampled Component Spectra: 1
Spectrometers: USB4C02475
Integration Time (usec): 100000 (USB4C02475)
Spectra Averaged: 1 (USB4C02475)
Boxcar Smoothing: 0 (USB4C02475)
Correct for Electrical Dark: No (USB4C02475)
Strobe/Lamp Enabled: No (USB4C02475)
Correct for Detector Non-linearity: No (USB4C02475)
Correct for Stray Light: No (USB4C02475)
Number of Pixels in Processed Spectrum: 3648
>>>>>Begin Processed Spectral Data<<<<<
344,91	-450,000
345,13	-450,000
345,35	-450,000
345,57	-200,000
345,79	50,000
346,00	-14,706
346,22	-1028,571
346,44	-157,576
346,66	187,234
346,87	252,174
347,09	430,769
347,31	3400,000
347,53	-475,000
347,74	-188,372
347,96	-714,286
348,18	197,059
348,40	394,118
348,61	-107,692
348,83	3100,000
349,05	143,590
349,27	429,412
349,48	-4300,000
349,70	235,714
349,92	166,667
350,14	97,297
350,35	-215,385
350,57	-355,556
350,79	33,333
351,01	-213,333
351,22	-40,000
351,44	550,000
351,66	216,667
351,87	966,667
352,09	86,842
352,31	164,286
352,53	242,857
352,74	-171,429
352,96	78,947
353,18	87,500
353,40	-337,500
353,61	520,000
353,83	127,083
354,05	162,500
354,26	221,429
354,48	-1120,000
354,70	200,000
354,92	188,889
355,13	-58,140
355,35	62,963
355,57	150,000
355,78	135,714
356,00	131,915
356,22	118,182
356,44	234,884
356,65	392,857
356,87	77,778
357,09	308,571
357,30	88,636
357,52	-1133,333
357,74	196,774
357,95	151,429
358,17	63,768
358,39	196,000
358,60	94,444
358,82	150,000
359,04	156,410
359,26	177,273
359,47	-269,231
359,69	303,571
359,91	248,000
360,12	255,000
360,34	116,667
360,56	-1500,000
360,77	644,444
360,99	325,000
361,21	213,043
361,42	-1850,000
361,64	-81,481
361,86	80,597
362,07	540,000
362,29	162,500
362,51	172,973
362,72	-1100,000
362,94	196,296
363,16	87,143
363,37	745,455
363,59	-0,000
363,81	700,000
364,02	46,667
364,24	156,818
364,46	290,476
364,67	50,000
364,89	194,118
365,11	167,568
365,32	207,407
365,54	212,500
365,76	120,455
365,97	182,927
366,19	84,211
366,41	480,000
366,62	107,000
366,84	416,667
367,05	82,353
367,27	620,000
367,49	282,051
367,70	588,889
367,92	104,167
368,14	76,923
368,35	113,235
368,57	60,606
368,79	257,692
369,00	94,872
369,22	300,000
369,43	452,632
369,65	31,034
369,87	-270,588
370,08	360,000
370,30	357,143
370,51	190,909
370,73	136,111
370,95	250,000
371,16	100,000
371,38	256,604
371,60	123,333
371,81	114,130
372,03	-1150,000
372,24	-100,000
372,46	2333,333
372,68	123,529
372,89	111,927
373,11	120,930
373,32	96,639
373,54	209,091
373,76	361,111
373,97	139,394
374,19	-247,368
374,40	82,857
374,62	494,118
374,84	212,500
375,05	125,000
375,27	186,486
375,48	53,086
375,70	88,235
375,92	139,286
376,13	515,789
376,35	225,000
376,56	270,000
376,78	95,918
376,99	236,364
377,21	134,375
377,43	136,364
377,64	142,000
377,86	306,250
378,07	9,091
378,29	91,667
378,51	83,333
378,72	-240,909
378,94	128,261
379,15	138,636
379,37	337,500
379,58	-10,000
379,80	40,909
380,01	98,000
380,23	191,304
380,45	85,417
380,66	19,444
380,88	132,432
381,09	473,913
381,31	215,385
381,52	386,957
381,74	132,143
381,95	157,143
382,17	300,000
382,39	62,903
382,60	535,294
382,82	234,483
383,03	200,000
383,25	60,494
383,46	450,000
383,68	191,489
383,89	163,636
384,11	102,740
384,32	192,105
384,54	-728,571
384,76	64,706
384,97	10,000
385,19	100,000
385,40	203,125
385,62	103,226
385,83	151,064
386,05	200,000
386,26	157,692
386,48	176,923
386,69	219,444
386,91	610,000
387,12	146,154
387,34	118,644
387,55	217,143
387,77	192,000
387,98	140,816
388,20	107,042
388,41	39,683
388,63	110,000
388,84	137,500
389,06	146,512
389,27	84,375
389,49	63,855
389,70	179,661
389,92	106,818
390,13	179,487
390,35	93,750
390,56	164,062
390,78	40,909
390,99	102,222
391,21	64,773
391,42	67,391
391,64	-90,000
391,85	143,103
392,07	-64,286
392,28	57,692
392,50	680,000
392,71	2900,000
392,93	109,677
393,14	130,435
393,36	114,103
393,57	175,000
393,79	55,556
394,00	73,973
394,22	150,000
394,43	250,000
394,65	71,429
394,86	131,250
395,08	-662,500
395,29	76,596
395,50	-6000,000
395,72	857,143
395,93	140,000
396,15	-192,857
396,36	93,333
396,58	-228,571
396,79	158,140
397,01	190,476
397,22	105,797
397,44	142,553
397,65	82,432
397,87	84,286
398,08	150,000
398,29	33,333
398,51	134,146
398,72	143,478
398,94	148,837
399,15	98,333
399,37	91,304
399,58	134,921
399,80	373,333
400,01	338,235
400,22	314,286
400,44	214,286
400,65	94,521
400,87	4200,000
401,08	56,180
401,30	116,000
401,51	83,636
401,72	85,484
401,94	48,780
402,15	32,653
402,37	122,727
402,58	76,744
402,80	425,000
403,01	80,556
403,22	75,904
403,44	141,667
403,65	79,592
403,87	138,667
404,08	59,615
404,30	150,000
404,51	82,857
404,72	581,818
404,94	132,530
405,15	114,925
405,37	107,692
405,58	35,484
405,79	457,143
406,01	75,556
406,22	90,476
406,44	78,947
406,65	121,429
406,86	128,000
407,08	67,901
407,29	40,000
407,51	107,692
407,72	93,069
407,93	79,747
408,15	96,591
408,36	251,429
408,58	95,833
408,79	106,977
409,00	104,965
409,22	92,157
409,43	80,180
409,64	100,000
409,86	122,727
410,07	85,217
410,29	76,667
410,50	111,111
410,71	111,290
410,93	138,614
411,14	133,645
411,35	111,111
411,57	104,167
411,78	104,412
412,00	96,000
412,21	91,150
412,42	84,878
412,64	102,222
412,85	106,736
413,06	101,339
413,28	96,078
413,49	107,442
413,70	98,283
413,92	109,048
414,13	96,838
414,34	92,565
414,56	124,255
414,77	94,465
414,98	89,399
415,20	117,921
415,41	102,922
415,63	90,883
415,84	96,953
416,05	96,988
416,27	97,493
416,48	98,341
416,69	101,163
416,91	99,200
417,12	81,900
417,33	93,228
417,55	104,400
417,76	102,537
417,97	89,139
418,19	107,531
418,40	107,889
418,61	95,026
418,83	104,401
419,04	94,109
419,25	93,780
419,46	104,655
419,68	90,413
419,89	93,281
420,10	96,640
420,32	98,940
420,53	99,045
420,74	95,938
420,96	92,062
421,17	95,325
421,38	93,008
421,60	100,857
421,81	85,886
422,02	95,878
422,23	96,384
422,45	96,268
422,66	90,635
422,87	93,299
423,09	99,313
423,30	96,132
423,51	94,647
423,73	98,027
423,94	97,473
424,15	95,664
424,36	98,912
424,58	97,847
424,79	95,901
425,00	99,566
425,22	102,765
425,43	103,312
425,64	105,566
425,85	100,958
426,07	97,422
426,28	104,645
426,49	99,746
426,71	95,640
426,92	95,794
427,13	97,861
427,34	97,354
427,56	104,445
427,77	98,923
427,98	99,762
428,19	97,169
428,41	100,813
428,62	96,681
428,83	93,290
429,04	97,123
429,26	97,644
429,47	97,060
429,68	91,104
429,89	87,894
430,11	94,792
430,32	91,674
430,53	88,031
430,74	87,154
430,96	83,911
431,17	87,564
431,38	79,264
431,59	77,556
431,81	77,900
432,02	74,234
432,23	74,318
432,44	74,823
432,66	72,187
432,87	71,042
433,08	73,191
433,29	73,107
433,51	71,258
433,72	70,929
433,93	69,481
434,14	67,355
434,35	63,263
434,57	60,537
434,78	57,434
434,99	52,330
435,20	49,122
435,42	43,004
435,63	37,669
435,84	34,812
436,05	28,084
436,26	21,993
436,48	17,468
436,69	12,683
436,90	8,033
437,11	5,795
437,32	3,902
437,54	2,405
437,75	1,260
437,96	1,460
438,17	1,054
438,38	0,996
438,60	1,267
438,81	0,587
439,02	0,999
439,23	1,032
439,44	0,446
439,66	0,812
439,87	0,510
440,08	0,544
440,29	0,617
440,50	0,868
440,72	0,445
440,93	0,762
441,14	0,610
441,35	0,346
441,56	0,395
441,77	0,430
441,99	-0,051
442,20	0,462
442,41	0,246
442,62	0,106
442,83	0,446
443,04	0,076
443,26	0,489
443,47	0,662
443,68	0,245
443,89	0,333
444,10	0,613
444,31	0,618
444,53	0,353
444,74	0,614
444,95	0,087
445,16	0,149
445,37	0,132
445,58	0,132
445,80	0,344
446,01	0,553
446,22	0,739
446,43	0,340
446,64	0,061
446,85	0,237
447,06	0,313
447,28	0,218
447,49	0,439
447,70	0,357
447,91	0,676
448,12	0,125
448,33	0,407
448,54	0,250
448,76	0,302
448,97	0,233
449,18	0,222
449,39	0,422
449,60	0,227
449,81	0,431
450,02	0,581
450,23	0,223
450,45	0,449
450,66	0,319
450,87	0,595
451,08	0,354
451,29	0,899
451,50	0,450
451,71	0,100
451,92	0,336
452,13	0,461
452,35	0,174
452,56	0,408
452,77	0,320
452,98	0,682
453,19	0,179
453,40	0,251
453,61	0,322
453,82	0,306
454,03	0,391
454,25	0,335
454,46	0,320
454,67	0,411
454,88	0,397
455,09	0,572
455,30	0,697
455,51	0,376
455,72	0,619
455,93	0,332
456,14	0,681
456,35	0,214
456,56	0,356
456,78	0,554
456,99	0,660
457,20	0,724
457,41	0,394
457,62	0,352
457,83	0,372
458,04	0,615
458,25	0,176
458,46	0,577
458,67	0,464
458,88	0,428
459,09	0,329
459,30	0,346
459,51	0,512
459,73	0,212
459,94	0,434
460,15	0,308
460,36	0,320
460,57	0,495
460,78	0,636
460,99	0,452
461,20	0,411
461,41	0,398
461,62	0,148
461,83	0,470
462,04	0,268
462,25	0,604
462,46	0,379
462,67	0,315
462,88	0,283
463,09	0,361
463,30	0,382
463,51	0,249
463,72	0,450
463,93	0,329
464,15	0,478
464,36	0,462
464,57	0,309
464,78	0,211
464,99	0,513
465,20	0,309
465,41	0,359
465,62	0,410
465,83	0,385
466,04	0,295
466,25	0,465
466,46	0,380
466,67	0,295
466,88	0,411
467,09	0,203
467,30	0,396
467,51	0,417
467,72	0,324
467,93	0,425
468,14	0,313
468,35	0,467
468,56	0,485
468,77	0,293
468,98	0,391
469,19	0,430
469,40	0,296
469,61	0,351
469,82	0,294
470,03	0,406
470,24	0,281
470,45	0,494
470,66	0,506
470,87	0,305
471,08	0,462
471,29	0,356
471,50	0,538
471,71	0,350
471,92	0,261
472,13	0,559
472,34	0,389
472,55	0,663
472,76	0,586
472,97	0,543
473,18	0,436
473,39	0,502
473,60	0,470
473,81	0,282
474,01	0,727
474,22	0,487
474,43	0,388
474,64	0,562
474,85	0,292
475,06	0,540
475,27	0,595
475,48	0,405
475,69	0,617
475,90	0,361
476,11	0,565
476,32	0,510
476,53	0,652
476,74	0,433
476,95	0,446
477,16	0,614
477,37	0,573
477,58	0,402
477,79	0,687
478,00	0,485
478,21	0,616
478,41	0,637
478,62	0,790
478,83	0,537
479,04	0,744
479,25	0,506
479,46	0,611
479,67	0,652
479,88	0,625
480,09	0,984
480,30	0,903
480,51	1,073
480,72	0,899
480,93	0,919
481,14	1,083
481,34	1,188
481,55	1,240
481,76	1,266
481,97	1,329
482,18	1,584
482,39	1,906
482,60	2,479
482,81	3,062
483,02	4,339
483,23	5,863
483,44	7,521
483,65	10,062
483,85	12,664
484,06	16,690
484,27	20,958
484,48	25,926
484,69	31,371
484,90	37,316
485,11	43,139
485,32	49,306
485,53	56,943
485,73	63,254
485,94	68,816
486,15	75,807
486,36	79,814
486,57	83,492
486,78	85,403
486,99	89,000
487,20	89,987
487,41	90,918
487,61	91,428
487,82	93,934
488,03	91,991
488,24	92,814
488,45	92,916
488,66	93,238
488,87	93,513
489,08	94,742
489,28	93,441
489,49	93,996
489,70	94,313
489,91	95,442
490,12	94,898
490,33	94,388
490,54	96,329
490,74	94,568
490,95	95,914
491,16	94,910
491,37	94,895
491,58	94,733
491,79	96,012
492,00	95,222
492,20	96,205
492,41	95,423
492,62	96,350
492,83	95,892
493,04	97,391
493,25	96,863
493,45	97,397
493,66	97,581
493,87	97,700
494,08	97,087
494,29	96,895
494,50	98,230
494,70	97,515
494,91	97,378
495,12	97,508
495,33	96,287
495,54	95,958
495,75	96,100
495,95	96,631
496,16	95,319
496,37	95,743
496,58	97,334
496,79	96,327
496,99	96,153
497,20	97,228
497,41	96,601
497,62	97,469
497,83	97,103
498,04	97,660
498,24	99,174
498,45	98,673
498,66	99,681
498,87	99,642
499,08	100,508
499,28	99,462
499,49	100,053
499,70	99,381
499,91	98,885
500,12	98,767
500,32	98,165
500,53	98,682
500,74	99,015
500,95	99,021
501,15	96,977
501,36	97,878
501,57	96,992
501,78	96,606
501,99	96,017
502,19	97,201
502,40	95,865
502,61	94,947
502,82	94,078
503,02	94,507
503,23	93,279
503,44	91,652
503,65	91,156
503,86	90,959
504,06	89,483
504,27	89,896
504,48	89,199
504,69	89,655
504,89	88,843
505,10	88,902
505,31	88,490
505,52	88,117
505,72	89,032
505,93	88,018
506,14	86,447
506,35	85,559
506,55	83,881
506,76	81,366
506,97	78,411
507,18	74,527
507,38	72,159
507,59	68,837
507,80	62,914
508,01	58,484
508,21	52,430
508,42	47,104
508,63	40,862
508,84	34,828
509,04	28,824
509,25	23,276
509,46	18,001
509,67	13,517
509,87	10,114
510,08	6,926
510,29	4,955
510,49	3,496
510,70	2,327
510,91	1,746
511,12	1,415
511,32	1,097
511,53	0,948
511,74	0,620
511,94	0,750
512,15	0,759
512,36	0,699
512,57	0,582
512,77	0,630
512,98	0,551
513,19	0,597
513,39	0,501
513,60	0,385
513,81	0,697
514,01	0,533
514,22	0,573
514,43	0,673
514,64	0,552
514,84	0,558
515,05	0,590
515,26	0,562
515,46	0,526
515,67	0,401
515,88	0,612
516,08	0,629
516,29	0,281
516,50	0,476
516,70	0,506
516,91	0,596
517,12	0,725
517,32	0,296
517,53	0,407
517,74	0,443
517,95	0,793
518,15	0,542
518,36	0,629
518,57	0,430
518,77	0,620
518,98	0,443
519,19	0,420
519,39	0,511
519,60	0,257
519,80	0,376
520,01	0,397
520,22	0,520
520,42	0,372
520,63	0,371
520,84	0,486
521,04	0,305
521,25	0,526
521,46	0,312
521,66	0,239
521,87	0,423
522,08	0,527
522,28	0,426
522,49	0,438
522,70	0,299
522,90	0,356
523,11	0,094
523,31	0,464
523,52	0,474
523,73	0,478
523,93	0,384
524,14	0,431
524,35	0,401
524,55	0,456
524,76	0,292
524,97	0,333
525,17	0,387
525,38	0,370
525,58	0,263
525,79	0,430
526,00	0,427
526,20	0,242
526,41	0,420
526,61	0,380
526,82	0,243
527,03	0,287
527,23	0,415
527,44	0,359
527,64	0,332
527,85	0,292
528,06	0,356
528,26	0,185
528,47	0,511
528,68	0,476
528,88	0,206
529,09	0,334
529,29	0,632
529,50	0,235
529,70	0,452
529,91	0,186
530,12	0,385
530,32	0,316
530,53	0,600
530,73	0,479
530,94	0,508
531,15	0,520
531,35	0,472
531,56	0,396
531,76	0,368
531,97	0,378
532,17	0,336
532,38	0,302
532,59	0,391
532,79	0,644
533,00	0,112
533,20	0,437
533,41	0,390
533,61	0,424
533,82	0,254
534,03	0,318
534,23	0,398
534,44	0,384
534,64	0,510
534,85	0,375
535,05	0,289
535,26	0,562
535,46	0,446
535,67	0,153
535,88	0,322
536,08	0,489
536,29	0,490
536,49	0,458
536,70	0,513
536,90	0,503
537,11	0,374
537,31	0,478
537,52	0,497
537,72	0,581
537,93	0,446
538,13	0,503
538,34	0,334
538,55	0,267
538,75	0,190
538,96	0,276
539,16	0,326
539,37	0,581
539,57	0,435
539,78	0,491
539,98	0,404
540,19	0,392
540,39	0,425
540,60	0,444
540,80	0,472
541,01	0,522
541,21	0,492
541,42	0,425
541,62	0,483
541,83	0,408
542,03	0,365
542,24	0,485
542,44	0,371
542,65	0,417
542,85	0,616
543,06	0,493
543,26	0,527
543,47	0,636
543,67	0,539
543,88	0,424
544,08	0,367
544,29	0,412
544,49	0,417
544,70	0,335
544,90	0,585
545,11	0,506
545,31	0,476
545,52	0,476
545,72	0,350
545,93	0,575
546,13	0,362
546,34	0,613
546,54	0,403
546,75	0,520
546,95	0,808
547,15	0,453
547,36	0,530
547,56	0,683
547,77	0,523
547,97	0,467
548,18	0,456
548,38	0,607
548,59	0,671
548,79	0,806
549,00	0,786
549,20	0,666
549,41	0,918
549,61	0,874
549,81	1,055
550,02	1,004
550,22	1,383
550,43	1,556
550,63	2,039
550,84	2,631
551,04	3,128
551,25	4,019
551,45	5,128
551,65	6,553
551,86	8,289
552,06	10,555
552,27	13,135
552,47	16,218
552,68	19,815
552,88	23,612
553,08	27,183
553,29	32,159
553,49	36,346
553,70	41,928
553,90	46,940
554,11	53,081
554,31	57,717
554,51	63,036
554,72	69,191
554,92	73,768
555,13	78,566
555,33	82,744
555,53	85,473
555,74	88,760
555,94	90,115
556,15	91,363
556,35	91,453
556,56	92,964
556,76	92,405
556,96	93,896
557,17	94,099
557,37	93,781
557,58	94,508
557,78	93,842
557,98	94,086
558,19	95,003
558,39	94,593
558,59	94,406
558,80	94,213
559,00	93,196
559,21	93,796
559,41	91,963
559,61	91,352
559,82	92,229
560,02	90,754
560,23	91,963
560,43	90,933
560,63	90,065
560,84	90,672
561,04	90,899
561,24	90,390
561,45	89,885
561,65	91,453
561,85	93,444
562,06	92,357
562,26	93,575
562,47	94,915
562,67	94,499
562,87	96,123
563,08	97,032
563,28	97,336
563,48	97,620
563,69	97,235
563,89	98,226
564,09	98,389
564,30	97,428
564,50	97,778
564,70	97,776
564,91	98,003
565,11	96,440
565,31	96,217
565,52	97,656
565,72	96,335
565,92	96,147
566,13	95,277
566,33	94,902
566,53	95,667
566,74	94,871
566,94	95,339
567,14	95,483
567,35	94,920
567,55	94,523
567,75	93,689
567,96	92,796
568,16	94,085
568,36	92,823
568,57	92,649
568,77	92,985
568,97	91,997
569,18	91,622
569,38	91,046
569,58	91,376
569,79	91,273
569,99	90,178
570,19	90,935
570,39	90,387
570,60	88,097
570,80	88,052
571,00	87,972
571,21	87,055
571,41	86,302
571,61	83,633
571,82	81,682
572,02	80,311
572,22	77,793
572,42	76,247
572,63	72,177
572,83	70,035
573,03	66,759
573,24	63,490
573,44	60,605
573,64	57,354
573,84	54,727
574,05	52,000
574,25	49,355
574,45	45,997
574,66	44,023
574,86	42,307
575,06	39,218
575,26	37,468
575,47	35,551
575,67	32,673
575,87	29,778
576,07	26,944
576,28	23,436
576,48	20,096
576,68	16,328
576,88	12,777
577,09	9,352
577,29	7,227
577,49	4,930
577,69	3,456
577,90	2,623
578,10	1,844
578,30	1,530
578,50	1,034
578,71	0,922
578,91	0,735
579,11	0,706
579,31	0,649
579,52	0,546
579,72	0,376
579,92	0,539
580,12	0,386
580,33	0,429
580,53	0,456
580,73	0,423
580,93	0,295
581,13	0,338
581,34	0,216
581,54	0,565
581,74	0,370
581,94	0,386
582,15	0,631
582,35	0,300
582,55	0,397
582,75	0,347
582,95	0,434
583,16	0,382
583,36	0,299
583,56	0,362
583,76	0,214
583,96	0,382
584,17	0,252
584,37	0,268
584,57	0,297
584,77	0,247
584,97	0,349
585,18	0,280
585,38	0,155
585,58	0,404
585,78	0,392
585,98	0,296
586,19	0,402
586,39	0,349
586,59	0,173
586,79	0,436
586,99	0,252
587,20	0,212
587,40	0,429
587,60	0,287
587,80	0,321
588,00	0,304
588,20	0,284
588,41	0,355
588,61	0,337
588,81	0,266
589,01	0,299
589,21	0,212
589,41	0,229
589,62	0,300
589,82	0,358
590,02	0,204
590,22	0,146
590,42	0,336
590,62	0,333
590,83	0,252
591,03	0,065
591,23	0,283
591,43	0,495
591,63	0,318
591,83	0,268
592,03	0,321
592,24	0,467
592,44	0,233
592,64	0,321
592,84	0,280
593,04	0,282
593,24	0,254
593,44	0,272
593,65	0,148
593,85	0,361
594,05	0,259
594,25	0,364
594,45	0,285
594,65	0,180
594,85	0,169
595,06	0,160
595,26	0,393
595,46	0,065
595,66	0,292
595,86	0,158
596,06	0,310
596,26	0,290
596,46	0,309
596,66	0,312
596,87	0,333
597,07	0,195
597,27	0,189
597,47	0,394
597,67	0,228
597,87	0,130
598,07	0,216
598,27	0,246
598,47	0,374
598,67	0,257
598,88	0,216
599,08	0,214
599,28	0,424
599,48	0,119
599,68	0,235
599,88	0,301
600,08	0,174
600,28	0,288
600,48	0,263
600,68	0,153
600,88	0,239
601,09	0,356
601,29	0,310
601,49	0,120
601,69	0,237
601,89	0,339
602,09	0,291
602,29	0,151
602,49	0,197
602,69	0,164
602,89	0,091
603,09	0,250
603,29	0,243
603,49	0,284
603,69	0,274
603,90	0,192
604,10	0,144
604,30	0,298
604,50	0,220
604,70	0,073
604,90	0,209
605,10	0,278
605,30	0,226
605,50	0,222
605,70	0,383
605,90	0,107
606,10	0,245
606,30	0,199
606,50	0,429
606,70	0,220
606,90	0,190
607,10	0,174
607,30	0,334
607,50	0,220
607,70	0,365
607,90	0,334
608,10	0,371
608,30	0,301
608,50	0,093
608,70	0,394
608,90	0,171
609,11	0,055
609,31	0,260
609,51	0,312
609,71	0,254
609,91	0,358
610,11	0,425
610,31	0,304
610,51	0,342
610,71	0,317
610,91	0,204
611,11	0,137
611,31	0,207
611,51	0,211
611,71	0,162
611,91	0,426
612,11	0,247
612,31	0,320
612,51	0,236
612,71	0,052
612,91	0,210
613,11	0,127
613,31	0,237
613,51	0,179
613,71	0,223
613,91	0,309
614,11	0,311
614,31	0,142
614,50	0,307
614,70	0,165
614,90	0,188
615,10	0,260
615,30	0,270
615,50	0,131
615,70	0,424
615,90	0,112
616,10	0,291
616,30	0,151
616,50	0,047
616,70	0,104
616,90	0,241
617,10	0,215
617,30	0,191
617,50	0,329
617,70	0,168
617,90	0,262
618,10	0,174
618,30	0,159
618,50	0,349
618,70	0,189
618,90	0,215
619,10	0,133
619,30	0,076
619,49	0,249
619,69	0,226
619,89	0,372
620,09	0,048
620,29	0,229
620,49	0,182
620,69	0,177
620,89	0,195
621,09	0,140
621,29	0,232
621,49	0,254
621,69	0,269
621,89	0,372
622,09	0,320
622,29	0,187
622,48	0,137
622,68	0,109
622,88	0,452
623,08	0,128
623,28	0,147
623,48	0,082
623,68	0,066
623,88	0,298
624,08	0,129
624,28	0,390
624,48	0,320
624,67	0,139
624,87	0,333
625,07	0,303
625,27	0,054
625,47	0,077
625,67	0,215
625,87	0,019
626,07	0,153
626,27	0,126
626,47	0,261
626,66	0,199
626,86	0,181
627,06	0,168
627,26	0,229
627,46	-0,034
627,66	0,064
627,86	0,150
628,06	0,139
628,25	0,255
628,45	0,200
628,65	0,262
628,85	0,186
629,05	0,374
629,25	0,201
629,45	0,255
629,65	0,138
629,84	0,109
630,04	0,217
630,24	0,177
630,44	0,072
630,64	0,352
630,84	0,065
631,04	0,309
631,23	0,180
631,43	0,077
631,63	0,083
631,83	0,168
632,03	0,143
632,23	0,233
632,42	0,322
632,62	0,462
632,82	0,224
633,02	0,273
633,22	0,102
633,42	0,184
633,62	0,091
633,81	0,035
634,01	0,304
634,21	0,349
634,41	0,464
634,61	0,233
634,80	0,470
635,00	0,298
635,20	0,351
635,40	0,024
635,60	0,289
635,80	0,271
635,99	0,422
636,19	0,196
636,39	0,116
636,59	0,185
636,79	0,273
636,98	0,308
637,18	0,333
637,38	0,218
637,58	0,032
637,78	0,465
637,97	0,242
638,17	0,437
638,37	0,249
638,57	0,062
638,77	0,346
638,96	0,177
639,16	0,283
639,36	0,281
639,56	0,471
639,76	0,242
639,95	0,355
640,15	0,173
640,35	0,285
640,55	0,212
640,75	0,414
640,94	0,291
641,14	0,259
641,34	0,315
641,54	0,057
641,73	0,025
641,93	0,222
642,13	0,329
642,33	0,150
642,53	0,175
642,72	0,364
642,92	0,469
643,12	0,233
643,32	0,449
643,51	0,574
643,71	-0,047
643,91	0,528
644,11	0,479
644,30	0,185
644,50	0,314
644,70	0,035
644,90	0,464
645,09	0,475
645,29	0,376
645,49	0,428
645,69	0,022
645,88	0,475
646,08	0,384
646,28	0,526
646,48	0,376
646,67	0,291
646,87	0,531
647,07	0,321
647,26	0,544
647,46	0,393
647,66	0,159
647,86	0,771
648,05	0,486
648,25	0,877
648,45	0,371
648,65	0,275
648,84	0,146
649,04	0,555
649,24	0,593
649,43	0,402
649,63	0,396
649,83	0,470
650,03	0,738
650,22	0,533
650,42	0,222
650,62	0,475
650,81	0,403
651,01	0,711
651,21	0,270
651,40	0,460
651,60	0,381
651,80	0,278
652,00	0,618
652,19	0,213
652,39	0,618
652,59	0,757
652,78	0,394
652,98	-0,157
653,18	0,318
653,37	0,468
653,57	0,525
653,77	0,410
653,96	0,254
654,16	0,530
654,36	0,644
654,55	0,320
654,75	0,621
654,95	0,375
655,14	0,216
655,34	0,769
655,54	0,353
655,73	0,009
655,93	0,227
656,13	0,374
656,32	0,044
656,52	0,415
656,72	0,652
656,91	0,618
657,11	0,328
657,31	0,392
657,50	0,638
657,70	0,581
657,90	0,582
658,09	0,625
658,29	0,208
658,49	0,497
658,68	0,556
658,88	0,567
659,07	0,462
659,27	0,515
659,47	0,331
659,66	0,309
659,86	0,341
660,06	0,242
660,25	0,433
660,45	0,712
660,64	0,334
660,84	0,453
661,04	0,394
661,23	0,593
661,43	0,667
661,63	0,439
661,82	0,312
662,02	0,556
662,21	0,706
662,41	0,673
662,61	0,769
662,80	0,369
663,00	0,156
663,19	0,498
663,39	0,181
663,59	0,542
663,78	0,593
663,98	0,325
664,17	0,452
664,37	0,422
664,57	0,291
664,76	0,603
664,96	0,332
665,15	0,111
665,35	0,576
665,55	0,478
665,74	0,498
665,94	0,549
666,13	0,141
666,33	0,371
666,53	0,476
666,72	0,312
666,92	0,709
667,11	0,441
667,31	-0,033
667,50	0,066
667,70	0,781
667,90	0,106
668,09	0,172
668,29	0,360
668,48	0,593
668,68	0,374
668,87	0,564
669,07	0,384
669,26	0,321
669,46	0,545
669,66	0,206
669,85	0,521
670,05	0,308
670,24	0,184
670,44	0,039
670,63	0,585
670,83	0,445
671,02	0,313
671,22	0,426
671,42	0,162
671,61	0,361
671,81	0,492
672,00	0,628
672,20	0,266
672,39	0,465
672,59	0,158
672,78	0,309
672,98	0,369
673,17	-0,007
673,37	0,120
673,56	0,443
673,76	0,138
673,95	0,058
674,15	0,267
674,34	0,286
674,54	0,542
674,73	0,455
674,93	0,220
675,13	0,676
675,32	0,378
675,52	0,301
675,71	0,508
675,91	0,279
676,10	0,412
676,30	0,247
676,49	0,041
676,69	0,321
676,88	0,165
677,08	0,203
677,27	0,319
677,47	0,293
677,66	0,356
677,86	0,679
678,05	0,288
678,24	0,267
678,44	0,778
678,63	0,367
678,83	0,068
679,02	0,400
679,22	0,025
679,41	0,375
679,61	0,200
679,80	0,361
680,00	0,255
680,19	0,304
680,39	0,070
680,58	0,198
680,78	0,304
680,97	0,222
681,17	0,311
681,36	0,164
681,56	0,421
681,75	0,112
681,94	0,138
682,14	0,509
682,33	0,450
682,53	0,135
682,72	0,339
682,92	0,480
683,11	0,184
683,31	0,325
683,50	0,073
683,69	0,062
683,89	0,195
684,08	0,106
684,28	0,250
684,47	0,170
684,67	0,059
684,86	0,217
685,06	0,143
685,25	0,164
685,44	0,232
685,64	0,142
685,83	0,247
686,03	-0,150
686,22	0,167
686,42	0,273
686,61	0,277
686,80	-0,109
687,00	0,126
687,19	0,324
687,39	0,102
687,58	0,194
687,77	0,435
687,97	0,239
688,16	0,357
688,36	0,083
688,55	0,065
688,74	-0,021
688,94	0,218
689,13	0,143
689,33	0,058
689,52	0,268
689,71	0,273
689,91	0,141
690,10	0,179
690,30	0,016
690,49	0,111
690,68	0,365
690,88	0,071
691,07	0,139
691,27	0,118
691,46	0,087
691,65	0,075
691,85	0,153
692,04	0,051
692,23	-0,044
692,43	0,368
692,62	0,271
692,82	0,321
693,01	0,203
693,20	0,169
693,40	0,064
693,59	0,142
693,78	0,185
693,98	-0,049
694,17	0,058
694,36	0,290
694,56	0,198
694,75	0,179
694,94	0,243
695,14	0,275
695,33	0,180
695,53	0,262
695,72	0,325
695,91	-0,065
696,11	0,169
696,30	0,192
696,49	0,215
696,69	0,254
696,88	-0,005
697,07	0,192
697,27	0,101
697,46	0,418
697,65	0,216
697,85	0,170
698,04	0,342
698,23	0,006
698,43	0,437
698,62	-0,200
698,81	0,191
699,01	0,342
699,20	0,238
699,39	0,137
699,58	0,195
699,78	0,061
699,97	0,377
700,16	-0,016
700,36	0,225
700,55	0,475
700,74	0,709
700,94	-0,153
701,13	0,303
701,32	0,282
701,52	0,558
701,71	0,973
701,90	0,406
702,09	0,585
702,29	0,695
702,48	0,137
702,67	0,523
702,87	0,517
703,06	0,238
703,25	0,688
703,44	0,766
703,64	0,774
703,83	0,659
704,02	1,052
704,22	0,487
704,41	0,464
704,60	0,748
704,79	0,689
704,99	1,125
705,18	1,084
705,37	0,397
705,56	1,140
705,76	1,409
705,95	1,384
706,14	0,909
706,33	0,473
706,53	0,669
706,72	-0,042
706,91	1,387
707,11	0,688
707,30	0,966
707,49	0,912
707,68	1,455
707,88	1,043
708,07	0,317
708,26	0,423
708,45	0,779
708,64	1,714
708,84	0,566
709,03	2,730
709,22	1,115
709,41	2,237
709,61	0,986
709,80	1,780
709,99	1,803
710,18	1,758
710,38	1,258
710,57	0,064
710,76	0,098
710,95	1,420
711,14	0,894
711,34	0,206
711,53	2,800
711,72	1,820
711,91	2,066
712,11	3,321
712,30	1,077
712,49	0,957
712,68	0,079
712,87	0,898
713,07	3,533
713,26	2,166
713,45	-0,416
713,64	1,266
713,83	1,407
714,03	0,537
714,22	1,674
714,41	1,862
714,60	2,848
714,79	0,048
714,99	0,805
715,18	1,415
715,37	3,631
715,56	2,596
715,75	1,951
715,94	5,512
716,14	4,699
716,33	3,070
716,52	4,822
716,71	2,604
716,90	0,610
717,10	0,947
717,29	2,814
717,48	0,945
717,67	3,497
717,86	3,864
718,05	3,513
718,24	3,567
718,44	2,928
718,63	2,068
718,82	2,873
719,01	1,557
719,20	0,825
719,39	4,052
719,59	1,693
719,78	2,338
719,97	1,138
720,16	4,637
720,35	0,413
720,54	-0,489
720,73	7,031
720,93	2,892
721,12	0,647
721,31	0,948
721,50	4,000
721,69	2,528
721,88	6,298
722,07	2,776
722,27	4,684
722,46	2,324
722,65	1,271
722,84	2,661
723,03	5,320
723,22	0,886
723,41	1,910
723,60	0,736
723,79	7,508
723,99	3,437
724,18	5,579
724,37	-2,452
724,56	5,963
724,75	3,826
724,94	10,811
725,13	4,206
725,32	4,140
725,51	2,605
725,71	5,679
725,90	5,104
726,09	3,196
726,28	0,763
726,47	0,493
726,66	6,949
726,85	5,213
727,04	1,427
727,23	5,444
727,42	8,857
727,61	0,412
727,81	1,297
728,00	3,534
728,19	8,234
728,38	0,000
728,57	5,208
728,76	3,112
728,95	8,750
729,14	3,139
729,33	4,839
729,52	3,825
729,71	6,074
729,90	6,484
730,09	2,693
730,28	7,242
730,48	9,368
730,67	6,473
730,86	9,456
731,05	2,334
731,24	-1,585
731,43	5,575
731,62	6,987
731,81	2,157
732,00	10,180
732,19	2,644
732,38	5,897
732,57	3,912
732,76	3,967
732,95	7,722
733,14	-0,430
733,33	0,132
733,52	4,354
733,71	6,169
733,90	0,706
734,09	7,297
734,28	4,068
734,47	4,861
734,66	0,267
734,85	-0,286
735,04	5,278
735,23	7,283
735,42	11,066
735,61	5,539
735,81	6,361
736,00	0,997
736,19	4,255
736,38	4,790
736,57	9,465
736,76	4,380
736,95	-0,637
737,14	6,220
737,33	12,306
737,52	3,231
737,71	3,607
737,90	8,346
738,09	1,826
738,28	4,634
738,47	4,197
738,66	10,577
738,85	12,613
739,04	3,259
739,22	8,194
739,41	6,250
739,60	4,437
739,79	7,554
739,98	7,527
740,17	8,362
740,36	7,052
740,55	12,580
740,74	9,949
740,93	4,207
741,12	4,464
741,31	10,035
741,50	0,378
741,69	15,221
741,88	2,964
742,07	7,971
742,26	12,571
742,45	4,508
742,64	6,033
742,83	6,903
743,02	-1,053
743,21	12,094
743,40	0,207
743,59	8,824
743,78	7,241
743,97	4,423
744,16	14,173
744,34	-3,497
744,53	6,598
744,72	13,361
744,91	2,311
745,10	9,015
745,29	12,500
745,48	7,500
745,67	12,984
745,86	8,830
746,05	6,635
746,24	7,216
746,43	8,351
746,62	8,621
746,81	16,629
747,00	16,411
747,18	7,625
747,37	16,211
747,56	12,706
747,75	-6,897
747,94	10,922
748,13	19,463
748,32	15,238
748,51	16,497
748,70	9,031
748,89	9,836
749,08	-3,198
749,26	6,167
749,45	13,137
749,64	4,786
749,83	11,011
750,02	20,652
750,21	5,344
750,40	12,955
750,59	3,485
750,78	16,209
750,96	11,602
751,15	17,757
751,34	5,114
751,53	8,743
751,72	14,366
751,91	6,477
752,10	12,304
752,29	5,333
752,47	1,433
752,66	15,556
752,85	17,486
753,04	16,480
753,23	7,430
753,42	15,633
753,61	19,436
753,80	13,746
753,98	14,899
754,17	14,286
754,36	11,613
754,55	10,241
754,74	12,662
754,93	15,978
755,12	2,967
755,30	2,273
755,49	12,500
755,68	20,245
755,87	5,325
756,06	11,111
756,25	19,453
756,43	11,409
756,62	20,186
756,81	19,868
757,00	13,487
757,19	9,375
757,38	5,792
757,56	12,800
757,75	11,945
757,94	-11,787
758,13	4,795
758,32	10,979
758,51	8,081
758,69	19,691
758,88	7,407
759,07	14,970
759,26	10,601
759,45	8,421
759,63	6,926
759,82	22,105
760,01	15,385
760,20	39,308
760,39	16,404
760,57	12,195
760,76	27,178
760,95	16,667
761,14	20,438
761,33	18,710
761,51	21,429
761,70	18,959
761,89	21,333
762,08	37,918
762,27	22,022
762,45	11,232
762,64	19,598
762,83	25,896
763,02	20,435
763,21	6,500
763,39	18,531
763,58	9,665
763,77	33,755
763,96	22,709
764,14	7,917
764,33	2,381
764,52	31,250
764,71	26,885
764,89	39,286
765,08	-2,956
765,27	27,234
765,46	7,623
765,65	29,020
765,83	41,629
766,02	-7,619
766,21	6,011
766,40	17,899
766,58	6,878
766,77	9,633
766,96	13,008
767,15	21,008
767,33	12,560
767,52	12,664
767,71	30,702
767,90	23,116
768,08	22,754
768,27	33,333
768,46	13,158
768,64	25,463
768,83	14,216
769,02	5,419
769,21	23,437
769,39	37,143
769,58	29,437
769,77	14,894
769,96	29,279
770,14	23,497
770,33	21,028
770,52	27,338
770,70	7,568
770,89	39,459
771,08	1,807
771,27	6,842
771,45	17,059
771,64	21,212
771,83	3,431
772,01	32,474
772,20	34,826
772,39	22,152
772,57	23,383
772,76	27,703
772,95	30,460
773,14	6,122
773,32	15,819
773,51	22,619
773,70	35,971
773,88	12,258
774,07	24,365
774,26	-16,129
774,44	24,060
774,63	17,964
774,82	34,416
775,00	28,972
775,19	1,786
775,38	14,362
775,56	29,814
775,75	40,659
775,94	27,500
776,12	37,255
776,31	-4,511
776,50	25,342
776,68	34,409
776,87	41,148
777,06	36,478
777,24	14,286
777,43	29,412
777,62	50,000
777,80	48,428
777,99	10,833
778,18	42,529
778,36	27,966
778,55	14,407
778,74	7,812
778,92	41,358
779,11	45,455
779,29	-14,894
779,48	19,149
779,67	35,135
779,85	-30,702
780,04	41,304
780,23	26,786
780,41	55,085
780,60	20,134
780,79	-14,516
780,97	33,333
781,16	19,681
781,34	14,189
781,53	32,143
781,72	7,207
781,90	27,545
782,09	-12,791
782,28	44,218
782,46	62,857
782,65	35,915
782,83	18,239
783,02	64,912
783,21	47,368
783,39	52,101
783,58	39,130
783,76	30,612
783,95	61,268
784,14	17,105
784,32	-44,706
784,51	45,946
784,69	0,000
784,88	55,140
785,06	31,126
785,25	19,149
785,44	3,226
785,62	27,143
785,81	9,259
785,99	43,609
786,18	43,243
786,37	13,187
786,55	32,639
786,74	30,000
786,92	13,986
787,11	18,056
787,29	11,607
787,48	56,989
787,67	29,245
787,85	37,975
788,04	36,036
788,22	6,931
788,41	59,843
788,59	41,447
788,78	48,352
788,96	-5,785
789,15	49,167
789,34	44,231
789,52	8,065
789,71	20,144
789,89	-2,597
790,08	57,500
790,26	33,758
790,45	61,111
790,63	17,241
790,82	26,923
791,00	47,788
791,19	34,400
791,38	-0,952
791,56	29,091
791,75	11,111
791,93	57,000
792,12	41,739
792,30	37,226
792,49	19,192
792,67	19,853
792,86	52,000
793,04	46,296
793,23	17,895
793,41	52,899
793,60	41,667
793,78	37,143
793,97	45,833
794,15	63,910
794,34	28,000
794,52	-16,129
794,71	55,814
794,89	26,515
795,08	27,200
795,26	25,333
795,45	13,889
795,63	64,516
795,82	47,253
796,00	67,000
796,19	31,707
796,37	26,718
796,56	-11,650
796,74	-11,579
796,93	-1,515
797,11	72,289
797,30	60,000
797,48	35,937
797,67	28,455
797,85	43,846
798,04	54,237
798,22	52,564
798,41	33,654
798,59	67,619
798,77	24,096
798,96	52,469
799,14	41,935
799,33	34,862
799,51	56,944
799,70	40,769
799,88	57,798
800,07	54,962
800,25	21,687
800,44	25,926
800,62	34,722
800,80	19,718
800,99	72,603
801,17	37,069
801,36	53,571
801,54	47,000
801,73	33,684
801,91	53,719
802,10	27,059
802,28	29,600
802,46	0,000
802,65	20,144
802,83	66,667
803,02	45,968
803,20	67,470
803,39	48,276
803,57	18,110
803,75	26,016
803,94	17,460
804,12	49,655
804,31	1,449
804,49	-9,600
804,67	-3,676
804,86	14,159
805,04	31,325
805,23	76,991
805,41	19,167
805,59	52,740
805,78	72,800
805,96	57,831
806,15	40,594
806,33	73,684
806,51	45,333
806,70	48,872
806,88	22,093
807,07	60,360
807,25	79,121
807,43	42,857
807,62	35,398
807,80	48,571
807,99	42,308
808,17	11,811
808,35	23,000
808,54	58,696
808,72	51,351
808,90	29,452
809,09	44,565
809,27	53,333
809,46	58,242
809,64	82,927
809,82	25,828
810,01	42,969
810,19	35,354
810,37	49,219
810,56	92,222
810,74	77,922
810,92	16,667
811,11	9,649
811,29	46,226
811,48	41,538
811,66	42,697
811,84	12,088
812,03	44,262
812,21	24,561
812,39	20,870
812,58	29,474
812,76	46,043
812,94	19,277
813,13	27,660
813,31	17,000
813,49	50,000
813,68	15,455
813,86	25,843
814,04	28,099
814,23	27,108
814,41	40,449
814,59	41,748
814,78	45,588
814,96	45,912
815,14	45,794
815,33	21,705
815,51	44,882
815,69	40,000
815,87	21,782
816,06	41,739
816,24	36,646
816,42	58,088
816,61	39,623
816,79	14,655
816,97	20,455
817,16	39,645
817,34	22,222
817,52	58,678
817,70	44,554
817,89	50,370
818,07	47,260
818,25	16,327
818,44	69,231
818,62	11,628
818,80	13,534
818,98	29,299
819,17	42,857
819,35	38,830
819,53	58,209
819,72	55,696
819,90	19,380
820,08	13,675
820,26	39,655
820,45	17,450
820,63	98,214
820,81	39,200
820,99	23,404
821,18	21,769
821,36	42,405
821,54	45,517
821,73	31,111
821,91	8,772
822,09	44,355
822,27	52,903
822,46	49,265
822,64	25,600
822,82	48,066
823,00	12,707
823,19	24,725
823,37	16,970
823,55	21,591
823,73	43,448
823,91	38,406
824,10	29,032
824,28	37,186
824,46	29,126
824,64	52,632
824,83	41,615
825,01	23,333
825,19	16,935
825,37	4,348
825,56	25,943
825,74	30,612
825,92	1,911
826,10	38,636
826,28	16,667
826,47	35,263
826,65	48,936
826,83	17,241
827,01	27,168
827,19	11,905
827,38	19,136
827,56	23,864
827,74	16,201
827,92	24,419
828,10	19,231
828,29	42,012
828,47	19,512
828,65	31,538
828,83	-1,212
829,01	15,217
829,20	37,363
829,38	21,591
829,56	25,000
829,74	38,994
829,92	20,635
830,10	33,908
830,29	18,593
830,47	21,608
830,65	15,854
830,83	11,607
831,01	10,119
831,20	29,126
831,38	22,967
831,56	46,047
831,74	23,223
831,92	34,211
832,10	27,619
832,29	12,838
832,47	10,112
832,65	24,020
832,83	6,103
833,01	30,000
833,19	21,719
833,37	33,032
833,56	17,300
833,74	23,039
833,92	13,889
834,10	20,332
834,28	18,143
834,46	27,602
834,64	3,704
834,83	15,455
835,01	29,046
835,19	32,000
835,37	23,140
835,55	5,729
835,73	28,079
835,91	37,638
836,09	20,532
836,28	16,605
836,46	0,400
836,64	28,571
836,82	4,072
837,00	20,652
837,18	26,766
837,36	25,498
837,54	22,273
837,72	5,603
837,91	10,821
838,09	9,960
838,27	22,333
838,45	13,830
838,63	25,000
838,81	-1,266
838,99	28,629
839,17	23,311
839,35	17,021
839,53	17,544
839,72	11,654
839,90	13,402
840,08	32,615
840,26	9,921
840,44	24,773
840,62	8,966
840,80	18,707
840,98	11,765
841,16	11,407
841,34	16,054
841,52	17,125
841,70	18,154
841,89	4,435
842,07	10,972
842,25	27,011
842,43	5,603
842,61	9,474
842,79	15,537
842,97	17,915
843,15	15,842
843,33	16,719
843,51	16,867
843,69	31,339
843,87	-1,866
844,05	11,550
844,23	29,129
844,41	5,016
844,59	17,291
844,77	18,207
844,95	23,410
845,13	15,692
845,31	4,651
845,50	18,325
845,68	6,752
845,86	5,460
846,04	18,994
846,22	17,439
846,40	12,097
846,58	26,211
846,76	19,624
846,94	19,950
847,12	10,104
847,30	10,825
847,48	14,861
847,66	22,167
847,84	5,191
848,02	14,251
848,20	9,819
848,38	9,972
848,56	11,932
848,74	7,637
848,92	-1,995
849,10	6,500
849,28	7,692
849,46	14,933
849,64	14,781
849,82	4,938
850,00	22,664
850,18	20,213
850,36	7,506
850,54	8,271
850,72	12,082
850,90	18,043
851,08	11,816
851,26	16,630
851,44	7,080
851,62	8,140
851,80	21,145
851,98	10,769
852,16	10,638
852,34	-0,206
852,52	12,277
852,70	-3,417
852,87	3,881
853,05	4,678
853,23	9,278
853,41	3,401
853,59	14,523
853,77	0,397
853,95	13,291
854,13	4,867
854,31	11,704
854,49	5,988
854,67	10,151
854,85	8,489
855,03	19,439
855,21	13,684
855,39	6,439
855,57	3,763
855,75	15,511
855,93	3,333
856,11	16,054
856,28	10,148
856,46	12,456
856,64	13,333
856,82	9,794
857,00	9,533
857,18	11,552
857,36	11,467
857,54	7,093
857,72	5,614
857,90	4,244
858,08	6,275
858,26	4,348
858,44	-1,949
858,61	4,704
858,79	13,668
858,97	8,142
859,15	13,003
859,33	7,500
859,51	9,045
859,69	-0,358
859,87	5,437
860,05	3,552
860,23	9,578
860,40	6,762
860,58	8,689
860,76	5,079
860,94	6,179
861,12	10,769
861,30	0,628
861,48	11,714
861,66	8,571
861,84	7,025
862,01	12,224
862,19	1,695
862,37	3,933
862,55	6,196
862,73	4,954
862,91	4,552
863,09	8,780
863,27	7,184
863,44	3,808
863,62	2,310
863,80	5,345
863,98	11,424
864,16	-2,457
864,34	10,467
864,52	7,507
864,69	7,602
864,87	2,605
865,05	5,170
865,23	6,405
865,41	9,946
865,59	7,402
865,76	11,255
865,94	6,589
866,12	10,839
866,30	2,945
866,48	11,506
866,66	6,989
866,83	9,669
867,01	5,499
867,19	9,233
867,37	2,846
867,55	5,018
867,73	1,923
867,90	1,317
868,08	7,497
868,26	6,005
868,44	5,627
868,62	3,563
868,79	5,040
868,97	-1,259
869,15	1,856
869,33	6,471
869,51	3,136
869,69	2,927
869,86	7,368
870,04	8,046
870,22	9,168
870,40	6,901
870,57	4,844
870,75	7,072
870,93	8,526
871,11	3,463
871,29	5,251
871,46	5,740
871,64	7,218
871,82	7,320
872,00	9,979
872,18	0,844
872,35	7,180
872,53	0,768
872,71	4,694
872,89	4,140
873,06	7,373
873,24	6,499
873,42	3,770
873,60	1,791
873,77	5,726
873,95	3,826
874,13	0,211
874,31	0,000
874,49	-0,484
874,66	0,376
874,84	4,112
875,02	5,225
875,20	5,911
875,37	6,155
875,55	2,290
875,73	3,059
875,91	1,301
876,08	1,554
876,26	0,707
876,44	5,560
876,61	6,527
876,79	5,512
876,97	1,004
877,15	3,612
877,32	4,604
877,50	3,394
877,68	2,828
877,86	-1,105
878,03	7,279
878,21	2,771
878,39	3,609
878,56	1,653
878,74	7,339
878,92	-0,888
879,10	4,151
879,27	2,853
879,45	4,482
879,63	1,009
879,80	4,416
879,98	1,956
880,16	4,367
880,34	3,021
880,51	2,918
880,69	-0,595
880,87	1,912
881,04	4,052
881,22	3,967
881,40	5,318
881,57	1,545
881,75	4,778
881,93	4,711
882,10	2,389
882,28	4,759
882,46	4,521
882,63	4,374
882,81	4,709
882,99	3,716
883,16	4,074
883,34	0,936
883,52	4,695
883,69	6,213
883,87	0,781
884,05	2,984
884,22	2,544
884,40	4,144
884,58	1,161
884,75	4,567
884,93	2,372
885,11	4,184
885,28	0,561
885,46	-2,583
885,64	2,667
885,81	2,120
885,99	1,239
886,17	3,143
886,34	4,849
886,52	1,049
886,70	5,226
886,87	2,121
887,05	1,740
887,22	0,498
887,40	2,198
887,58	2,672
887,75	4,097
887,93	1,870
888,11	3,962
888,28	2,760
888,46	3,903
888,63	1,331
888,81	3,179
888,99	2,879
889,16	2,636
889,34	-0,845
889,51	1,251
889,69	1,008
889,87	4,473
890,04	1,379
890,22	2,097
890,39	1,241
890,57	1,713
890,75	3,179
890,92	0,812
891,10	1,923
891,27	0,331
891,45	2,643
891,63	2,630
891,80	2,389
891,98	1,747
892,15	1,970
892,33	0,877
892,51	3,006
892,68	2,989
892,86	1,642
893,03	2,929
893,21	1,858
893,38	1,860
893,56	1,990
893,74	2,340
893,91	2,573
894,09	3,978
894,26	2,027
894,44	2,206
894,61	3,488
894,79	0,510
894,96	0,725
895,14	3,305
895,32	2,745
895,49	1,108
895,67	1,520
895,84	-0,254
896,02	1,589
896,19	-0,507
896,37	2,412
896,54	1,320
896,72	0,812
896,89	3,195
897,07	4,216
897,25	1,956
897,42	2,107
897,60	5,767
897,77	2,977
897,95	2,862
898,12	3,005
898,30	2,681
898,47	1,087
898,65	0,979
898,82	1,360
899,00	0,039
899,17	1,852
899,35	-0,039
899,52	3,158
899,70	0,687
899,87	1,145
900,05	1,256
900,22	0,876
900,40	0,908
900,57	2,004
900,75	0,822
900,92	1,780
901,10	1,749
901,27	2,517
901,45	2,606
901,62	2,548
901,80	1,157
901,97	1,403
902,15	2,955
902,32	2,084
902,50	-0,287
902,67	4,052
902,85	0,463
903,02	3,030
903,20	1,819
903,37	1,459
903,54	1,509
903,72	3,003
903,89	1,369
904,07	1,319
904,24	2,553
904,42	1,585
904,59	0,429
904,77	1,097
904,94	0,685
905,12	0,744
905,29	1,089
905,47	-0,139
905,64	0,837
905,81	0,800
905,99	0,700
906,16	1,353
906,34	1,267
906,51	0,138
906,69	3,692
906,86	0,905
907,03	1,413
907,21	0,896
907,38	1,736
907,56	1,807
907,73	1,505
907,91	1,063
908,08	1,772
908,25	1,485
908,43	0,302
908,60	0,906
908,78	0,623
908,95	1,098
909,13	3,188
909,30	1,793
909,47	0,881
909,65	2,425
909,82	0,698
910,00	0,186
910,17	1,246
910,34	1,509
910,52	1,339
910,69	0,410
910,87	2,224
911,04	0,303
911,21	2,453
911,39	0,243
911,56	0,311
911,73	1,172
911,91	1,147
912,08	1,697
912,26	1,571
912,43	2,604
912,60	1,075
912,78	1,161
912,95	1,650
913,13	1,761
913,30	1,690
913,47	1,709
913,65	3,325
913,82	1,671
913,99	0,116
914,17	1,062
914,34	0,488
914,51	1,658
914,69	1,263
914,86	1,113
915,03	0,806
915,21	0,230
915,38	0,578
915,56	2,223
915,73	0,995
915,90	2,145
916,08	2,574
916,25	0,976
916,42	1,747
916,60	1,946
916,77	2,206
916,94	1,390
917,12	0,394
917,29	1,489
917,46	1,593
917,64	0,751
917,81	1,780
917,98	-0,328
918,16	0,401
918,33	1,880
918,50	1,507
918,67	0,216
918,85	-0,054
919,02	0,958
919,19	0,391
919,37	1,467
919,54	1,211
919,71	1,794
919,89	1,250
920,06	1,563
920,23	1,791
920,41	0,249
920,58	0,702
920,75	1,717
920,92	0,913
921,10	0,616
921,27	1,025
921,44	1,871
921,62	2,107
921,79	0,248
921,96	1,030
922,13	0,501
922,31	1,143
922,48	-0,245
922,65	0,049
922,82	0,715
923,00	1,569
923,17	0,929
923,34	1,713
923,52	-0,398
923,69	0,750
923,86	1,828
924,03	1,887
924,21	0,874
924,38	1,423
924,55	0,912
924,72	0,638
924,90	1,211
925,07	1,347
925,24	1,203
925,41	1,765
925,59	0,594
925,76	0,139
925,93	1,431
926,10	1,837
926,28	0,998
926,45	0,182
926,62	0,721
926,79	0,865
926,96	1,082
927,14	1,321
927,31	0,927
927,48	1,668
927,65	1,643
927,83	1,147
928,00	1,206
928,17	1,412
928,34	1,627
928,51	1,030
928,69	1,026
928,86	0,765
929,03	0,637
929,20	1,399
929,37	0,872
929,55	0,980
929,72	0,846
929,89	1,529
930,06	1,669
930,23	1,159
930,41	0,624
930,58	1,199
930,75	0,643
930,92	1,362
931,09	1,864
931,27	1,238
931,44	1,555
931,61	2,300
931,78	1,502
931,95	0,837
932,12	2,004
932,30	1,810
932,47	0,908
932,64	2,091
932,81	1,562
932,98	1,282
933,16	2,257
933,33	1,803
933,50	0,998
933,67	1,475
933,84	3,206
934,01	1,691
934,18	2,189
934,36	2,046
934,53	2,817
934,70	1,368
934,87	1,599
935,04	2,413
935,21	0,947
935,38	1,322
935,56	2,150
935,73	1,337
935,90	2,281
936,07	1,590
936,24	2,116
936,41	0,907
936,58	1,680
936,76	1,670
936,93	0,689
937,10	1,683
937,27	1,308
937,44	1,474
937,61	1,929
937,78	1,683
937,95	1,981
938,13	0,777
938,30	1,466
938,47	1,765
938,64	1,480
938,81	0,954
938,98	0,339
939,15	1,367
939,32	1,437
939,49	0,796
939,66	0,775
939,84	0,687
940,01	0,385
940,18	0,526
940,35	-0,164
940,52	0,945
940,69	-0,890
940,86	1,543
941,03	0,227
941,20	1,519
941,37	-0,042
941,54	1,597
941,71	1,444
941,89	0,955
942,06	0,608
942,23	0,946
942,40	0,400
942,57	1,367
942,74	0,361
942,91	2,145
943,08	1,453
943,25	1,753
943,42	0,955
943,59	1,851
943,76	-0,203
943,93	0,830
944,10	-0,383
944,27	0,206
944,44	0,668
944,61	0,713
944,79	1,182
944,96	0,920
945,13	1,218
945,30	1,848
945,47	0,845
945,64	1,456
945,81	1,974
945,98	1,167
946,15	1,445
946,32	2,422
946,49	0,897
946,66	1,810
946,83	0,416
947,00	2,037
947,17	0,707
947,34	1,702
947,51	1,917
947,68	0,796
947,85	0,276
948,02	2,466
948,19	0,638
948,36	2,477
948,53	0,058
948,70	1,331
948,87	1,852
949,04	1,865
949,21	0,885
949,38	2,424
949,55	2,203
949,72	0,651
949,89	1,909
950,06	1,230
950,23	0,774
950,40	0,949
950,57	0,886
950,74	1,268
950,91	1,871
951,08	1,803
951,25	0,298
951,42	1,394
951,59	1,482
951,76	0,199
951,93	1,524
952,10	0,121
952,27	1,986
952,44	2,096
952,61	-0,088
952,77	0,393
952,94	1,840
953,11	1,259
953,28	2,460
953,45	3,075
953,62	3,090
953,79	2,519
953,96	2,310
954,13	2,617
954,30	2,044
954,47	2,740
954,64	0,114
954,81	4,423
954,98	2,416
955,15	-0,060
955,32	1,045
955,49	3,273
955,65	2,556
955,82	0,379
955,99	2,776
956,16	5,739
956,33	0,902
956,50	1,696
956,67	0,944
956,84	3,463
957,01	3,134
957,18	3,802
957,35	2,558
957,52	1,658
957,68	4,538
957,85	5,963
958,02	3,687
958,19	3,280
958,36	7,192
958,53	2,455
958,70	5,302
958,87	-1,796
959,04	2,045
959,21	6,294
959,37	6,612
959,54	6,702
959,71	2,081
959,88	0,698
960,05	4,540
960,22	8,302
960,39	2,764
960,56	2,174
960,72	4,432
960,89	1,074
961,06	4,155
961,23	-0,306
961,40	5,286
961,57	2,396
961,74	5,223
961,90	0,871
962,07	12,407
962,24	7,544
962,41	6,552
962,58	3,512
962,75	5,812
962,92	4,035
963,08	-4,375
963,25	-0,797
963,42	13,855
963,59	6,982
963,76	11,133
963,93	6,721
964,10	6,335
964,26	7,857
964,43	0,698
964,60	5,104
964,77	18,568
964,94	11,852
965,10	5,292
965,27	-0,559
965,44	1,587
965,61	0,685
965,78	7,453
965,95	6,965
966,11	7,273
966,28	15,084
966,45	9,804
966,62	-1,045
966,79	0,683
966,95	10,320
967,12	21,587
967,29	21,605
967,46	28,114
967,63	23,529
967,79	27,517
967,96	16,972
968,13	10,476
968,30	23,457
968,47	17,692
968,63	10,294
968,80	6,897
968,97	13,295
969,14	23,164
969,31	21,429
969,47	11,413
969,64	-2,747
969,81	4,516
969,98	22,105
970,14	-4,839
970,31	3,145
970,48	6,040
970,65	34,711
970,81	15,385
970,98	39,583
971,15	55,152
971,32	-0,758
971,48	48,214
971,65	34,437
971,82	40,000
971,99	28,481
972,15	-40,698
972,32	26,389
972,49	26,230
972,66	53,719
972,82	19,863
972,99	52,500
973,16	64,901
973,33	37,778
973,49	18,293
973,66	60,000
973,83	72,840
974,00	40,506
974,16	89,091
974,33	57,333
974,50	64,646
974,67	50,000
974,83	104,082
975,00	29,091
975,17	109,677
975,33	33,333
975,50	93,443
975,67	53,846
975,84	40,244
976,00	28,947
976,17	89,130
976,34	88,235
976,50	93,407
976,67	94,048
976,84	102,083
977,00	42,308
977,17	168,889
977,34	173,077
977,50	52,381
977,67	89,412
977,84	137,288
978,01	87,838
978,17	25,862
978,34	85,185
978,51	208,000
978,67	102,041
978,84	90,909
979,01	52,632
979,17	44,286
979,34	110,870
979,51	106,818
979,67	150,000
979,84	94,915
980,01	94,231
980,17	114,706
980,34	80,822
980,51	188,889
980,67	0,000
980,84	60,000
981,01	188,235
981,17	123,529
981,34	70,000
981,50	113,684
981,67	90,476
981,84	150,000
982,00	4500,000
982,17	123,438
982,34	136,585
982,50	0,000
982,67	-128,571
982,84	325,000
983,00	168,519
983,17	-214,286
983,33	288,889
983,50	182,927
983,67	76,812
983,83	309,524
984,00	243,478
984,17	1088,889
984,33	-235,714
984,50	135,135
984,66	12,500
984,83	87,500
985,00	161,538
985,16	229,032
985,33	3700,000
985,49	159,302
985,66	87,500
985,83	133,333
985,99	322,222
986,16	300,000
986,32	68,493
986,49	-720,000
986,66	220,000
986,82	178,788
986,99	-100,000
987,15	154,545
987,32	35,294
987,49	210,714
987,65	-21,739
987,82	-115,000
987,98	151,515
988,15	628,571
988,31	117,143
988,48	98,039
988,65	220,000
988,81	81,818
988,98	232,432
989,14	60,000
989,31	77,966
989,47	25,000
989,64	122,222
989,80	86,170
989,97	187,273
990,14	292,857
990,30	-462,500
990,47	-125,000
990,63	178,947
990,80	850,000
990,96	500,000
991,13	180,000
991,29	98,039
991,46	91,667
991,62	0,000
991,79	-380,000
991,95	111,765
992,12	633,333
992,29	-128,571
992,45	161,905
992,62	-128,571
992,78	100,000
992,95	148,387
993,11	762,500
993,28	-5100,000
993,44	-58,621
993,61	142,105
993,77	0,000
993,94	153,846
994,10	400,000
994,27	-57,895
994,43	90,625
994,60	592,857
994,76	218,182
994,93	-410,000
995,09	-325,000
995,26	229,167
995,42	362,500
995,59	93,333
995,75	-258,333
995,92	-114,286
996,08	-840,000
996,25	166,667
996,41	860,000
996,58	432,000
996,74	-380,000
996,91	108,065
997,07	76,000
997,23	78,431
997,40	566,667
997,56	-400,000
997,73	334,783
997,89	2000,000
998,06	124,561
998,22	176,596
998,39	97,959
998,55	373,684
998,72	-1200,000
998,88	88,000
999,05	426,667
999,21	194,118
999,37	146,512
999,54	258,065
999,70	28,571
999,87	500,000
1000,03	173,333
1000,20	235,714
1000,36	-975,000
1000,52	600,000
1000,69	404,000
1000,85	-341,667
1001,02	223,810
1001,18	160,000
1001,35	0,000
1001,51	150,000
1001,67	145,000
1001,84	126,829
1002,00	-281,818
1002,17	725,000
1002,33	-350,000
1002,50	600,000
1002,66	612,500
1002,82	139,024
1002,99	-90,909
1003,15	-6500,000
1003,32	21,429
1003,48	-1033,333
1003,64	291,304
1003,81	-10,526
1003,97	86,957
1004,14	-89,091
1004,30	472,727
1004,46	-7800,000
1004,63	-261,538
1004,79	235,135
1004,95	-520,000
1005,12	-61,538
1005,28	130,556
1005,45	-366,667
1005,61	-23,077
1005,77	-485,714
1005,94	195,652
1006,10	-200,000
1006,26	25,926
1006,43	115,152
1006,59	190,323
1006,76	-144,000
1006,92	173,913
1007,08	65,152
1007,25	194,444
1007,41	231,818
1007,57	-364,706
1007,74	143,478
1007,90	-7,143
1008,06	-13,333
1008,23	-147,368
1008,39	86,111
1008,55	62,353
1008,72	-300,000
1008,88	-20,000
1009,04	-433,333
1009,21	106,250
1009,37	267,742
1009,53	-240,000
1009,70	66,667
1009,86	347,368
1010,02	140,909
1010,19	340,000
1010,35	1100,000
1010,51	191,429
1010,68	100,000
1010,84	160,000
1011,00	528,571
1011,17	1400,000
1011,33	238,462
1011,49	293,750
1011,66	171,875
1011,82	-666,667
1011,98	640,000
1012,14	623,077
1012,31	172,727
1012,47	-557,143
1012,63	3100,000
1012,80	166,667
1012,96	77,778
1013,12	-44,444
1013,29	287,500
1013,45	-88,235
1013,61	-1060,000
1013,77	-333,333
1013,94	333,333
1014,10	2900,000
1014,26	-111,765
1014,43	157,895
1014,59	0,000
1014,75	120,000
1014,91	42,857
1015,08	226,923
1015,24	260,000
1015,40	493,333
1015,56	270,588
1015,73	185,714
1015,89	155,556
1016,05	232,432
1016,21	111,111
1016,38	126,316
1016,54	-200,000
1016,70	547,368
1016,86	-161,538
1017,03	0,000
1017,19	250,000
1017,35	176,667
1017,51	1000,000
1017,68	714,286
1017,84	121,053
1018,00	14,286
1018,16	-237,500
1018,33	300,000
1018,49	300,000
1018,65	-213,636
1018,81	-73,171
1018,97	253,846
1019,14	-585,714
1019,30	133,333
1019,46	212,821
1019,62	1050,000
1019,79	-128,571
1019,95	-725,000
1020,11	60,000
1020,27	115,000
1020,43	-462,500
1020,60	0,000
1020,76	89,706
1020,92	8500,000
1021,08	-40,000
1021,24	-700,000
1021,41	269,697
1021,57	-316,667
1021,73	0,000
1021,89	-268,182
1022,05	208,571
1022,21	-330,769
1022,38	257,895
1022,54	1560,000
1022,70	233,333
1022,86	-950,000
1023,02	233,333
1023,19	-115,000
1023,35	81,132
1023,51	161,290
1023,67	131,579
1023,83	463,636
1023,99	245,714
1024,16	-23,077
1024,32	243,750
1024,48	185,714
1024,64	-1160,000
1024,80	241,667
1024,96	507,692
1025,12	2266,667
1025,29	-0,000
1025,45	50,000
1025,61	1766,667
1025,77	171,429
1025,93	200,000
1026,09	3100,000
1026,26	42,857
1026,42	-425,000
1026,58	176,923
1026,74	385,714
1026,90	257,895
1027,06	-190,000
1027,22	-383,333
1027,38	88,889
1027,55	-84,000
1027,71	550,000
1027,87	132,500
1028,03	92,424
1028,19	-100,000
1028,35	104,054
1028,51	9,677
1028,67	60,000
1028,83	128,571
1029,00	200,000
1029,16	-320,000
1029,32	464,706
1029,48	1050,000
1029,64	585,714
1029,80	950,000
1029,96	174,510
1030,12	-137,500
1030,28	875,000
1030,44	-1500,000
1030,61	196,875
1030,77	-121,739
1030,93	181,395
1031,09	-364,286
1031,25	-422,222
1031,41	-950,000
1031,57	110,526
1031,73	472,727
1031,89	-27,273
1032,05	1500,000
1032,21	680,000
1032,37	-152,941
1032,53	-110,000
1032,69	-2700,000
1032,86	1316,667
1033,02	325,000
1033,18	-200,000
1033,34	-107,692
1033,50	161,290
1033,66	-444,444
1033,82	110,714
1033,98	-317,647
1034,14	722,222
1034,30	-104,545
1034,46	208,333
1034,62	583,333
1034,78	101,587
1034,94	74,194
1035,10	-272,727
1035,26	-944,444
1035,42	114,286
1035,58	1200,000
1035,74	-10,000
1035,90	-241,667
1036,06	186,792
1036,22	-216,000
1036,38	493,333
1036,54	230,000
1036,70	-3550,000
1036,86	-228,571
1037,02	-1050,000
1037,18	-85,714
1037,34	247,826
1037,50	-340,000
1037,66	-2366,667
1037,82	-182,353
1037,98	257,143
1038,14	-86,207
1038,30	86,538
1038,46	168,750
1038,62	54,839
1038,78	197,619
1038,94	-23,684
1039,10	-166,667
1039,26	-173,684
1039,42	-514,286
1039,58	103,774
1039,74	146,875
1039,90	-2,564
1040,06	282,353
>>>>>End Processed Spectral Data<<<<<
