SpectraSuite Data File
++++++++++++++++++++++++++++++++++++
Date: Thu Feb 02 17:21:08 EET 2017
User: optolab
Dark Spectrum Present: Yes
Reference Spectrum Present: Yes
Number of Sampled Component Spectra: 1
Spectrometers: USB4C02475
Integration Time (usec): 100000 (USB4C02475)
Spectra Averaged: 1 (USB4C02475)
Boxcar Smoothing: 0 (USB4C02475)
Correct for Electrical Dark: No (USB4C02475)
Strobe/Lamp Enabled: No (USB4C02475)
Correct for Detector Non-linearity: No (USB4C02475)
Correct for Stray Light: No (USB4C02475)
Number of Pixels in Processed Spectrum: 3648
>>>>>Begin Processed Spectral Data<<<<<
344,91	150,000
345,13	150,000
345,35	150,000
345,57	-100,000
345,79	36,957
346,00	-44,118
346,22	-1057,143
346,44	-0,000
346,66	182,979
346,87	282,609
347,09	538,462
347,31	1600,000
347,53	-1800,000
347,74	-46,512
347,96	-1157,143
348,18	300,000
348,40	511,765
348,61	-123,077
348,83	5100,000
349,05	197,436
349,27	270,588
349,48	-2400,000
349,70	428,571
349,92	71,429
350,14	97,297
350,35	-346,154
350,57	-388,889
350,79	-94,872
351,01	-253,333
351,22	370,000
351,44	583,333
351,66	316,667
351,87	1033,333
352,09	102,632
352,31	271,429
352,53	222,857
352,74	-814,286
352,96	131,579
353,18	21,875
353,40	-275,000
353,61	293,333
353,83	83,333
354,05	171,875
354,26	100,000
354,48	-660,000
354,70	209,524
354,92	247,222
355,13	-39,535
355,35	85,185
355,57	117,188
355,78	128,571
356,00	108,511
356,22	109,091
356,44	162,791
356,65	342,857
356,87	44,444
357,09	185,714
357,30	72,727
357,52	-700,000
357,74	219,355
357,95	248,571
358,17	71,014
358,39	188,000
358,60	175,000
358,82	390,909
359,04	43,590
359,26	90,909
359,47	-276,923
359,69	217,857
359,91	324,000
360,12	115,000
360,34	-38,889
360,56	-700,000
360,77	500,000
360,99	220,833
361,21	-34,783
361,42	-1925,000
361,64	-185,185
361,86	82,090
362,07	726,667
362,29	195,000
362,51	283,784
362,72	-640,000
362,94	303,704
363,16	91,429
363,37	572,727
363,59	-1600,000
363,81	537,500
364,02	82,667
364,24	177,273
364,46	233,333
364,67	83,333
364,89	217,647
365,11	132,432
365,32	196,296
365,54	81,250
365,76	131,818
365,97	185,366
366,19	70,175
366,41	840,000
366,62	95,000
366,84	416,667
367,05	93,137
367,27	100,000
367,49	292,308
367,70	277,778
367,92	18,750
368,14	-300,000
368,35	86,765
368,57	203,030
368,79	76,923
369,00	62,821
369,22	38,889
369,43	521,053
369,65	-41,379
369,87	-188,235
370,08	270,000
370,30	221,429
370,51	90,909
370,73	111,111
370,95	130,000
371,16	91,228
371,38	183,019
371,60	113,333
371,81	60,870
372,03	-475,000
372,24	-34,375
372,46	2066,667
372,68	126,471
372,89	46,789
373,11	48,837
373,32	78,992
373,54	490,909
373,76	183,333
373,97	139,394
374,19	-178,947
374,40	94,286
374,62	500,000
374,84	283,333
375,05	175,000
375,27	124,324
375,48	93,827
375,70	252,941
375,92	123,214
376,13	326,316
376,35	300,000
376,56	275,000
376,78	110,204
376,99	200,000
377,21	150,000
377,43	106,061
377,64	132,000
377,86	231,250
378,07	106,818
378,29	11,111
378,51	94,048
378,72	-154,545
378,94	-10,870
379,15	134,091
379,37	318,750
379,58	123,333
379,80	90,909
380,01	88,000
380,23	73,913
380,45	133,333
380,66	84,722
380,88	186,486
381,09	252,174
381,31	200,000
381,52	260,870
381,74	160,714
381,95	189,286
382,17	120,000
382,39	98,387
382,60	294,118
382,82	93,103
383,03	1633,333
383,25	90,123
383,46	275,000
383,68	157,447
383,89	40,909
384,11	110,959
384,32	128,947
384,54	-1028,571
384,76	155,882
384,97	-115,000
385,19	121,053
385,40	234,375
385,62	116,129
385,83	136,170
386,05	1028,571
386,26	42,308
386,48	369,231
386,69	144,444
386,91	20,000
387,12	194,872
387,34	77,966
387,55	231,429
387,77	236,000
387,98	118,367
388,20	159,155
388,41	119,048
388,63	147,143
388,84	142,500
389,06	155,814
389,27	112,500
389,49	28,916
389,70	130,508
389,92	79,545
390,13	151,282
390,35	66,667
390,56	114,062
390,78	27,273
390,99	77,778
391,21	72,727
391,42	8,696
391,64	-280,000
391,85	89,655
392,07	7,143
392,28	50,000
392,50	840,000
392,71	1400,000
392,93	74,194
393,14	106,522
393,36	110,256
393,57	41,667
393,79	107,937
394,00	73,973
394,22	28,000
394,43	214,286
394,65	217,857
394,86	84,375
395,08	-512,500
395,29	21,277
395,50	-2400,000
395,72	728,571
395,93	224,000
396,15	214,286
396,36	-3,333
396,58	-328,571
396,79	113,953
397,01	316,667
397,22	88,406
397,44	214,894
397,65	91,892
397,87	94,286
398,08	-15,385
398,29	25,000
398,51	231,707
398,72	106,522
398,94	141,860
399,15	85,000
399,37	82,609
399,58	120,635
399,80	260,000
400,01	188,235
400,22	178,571
400,44	228,571
400,65	78,082
400,87	3800,000
401,08	91,011
401,30	68,000
401,51	29,091
401,72	54,839
401,94	134,146
402,15	63,265
402,37	65,909
402,58	186,047
402,80	162,500
403,01	102,778
403,22	75,904
403,44	147,222
403,65	100,000
403,87	114,667
404,08	115,385
404,30	190,625
404,51	78,571
404,72	418,182
404,94	96,386
405,15	135,821
405,37	126,374
405,58	261,290
405,79	342,857
406,01	100,741
406,22	126,190
406,44	110,526
406,65	98,810
406,86	134,000
407,08	93,827
407,29	114,667
407,51	76,923
407,72	86,139
407,93	103,797
408,15	139,773
408,36	265,714
408,58	103,333
408,79	93,023
409,00	74,468
409,22	82,353
409,43	79,279
409,64	69,872
409,86	131,818
410,07	84,348
410,29	97,333
410,50	95,238
410,71	82,258
410,93	85,149
411,14	108,411
411,35	110,417
411,57	90,278
411,78	102,941
412,00	111,333
412,21	69,469
412,42	83,902
412,64	114,444
412,85	94,301
413,06	95,536
413,28	98,431
413,49	105,116
413,70	112,017
413,92	113,810
414,13	111,462
414,34	86,989
414,56	121,702
414,77	101,476
414,98	104,594
415,20	107,168
415,41	112,987
415,63	96,581
415,84	95,291
416,05	99,096
416,27	89,694
416,48	95,972
416,69	103,198
416,91	88,800
417,12	83,484
417,33	87,585
417,55	103,800
417,76	100,846
417,97	91,760
418,19	98,954
418,40	99,574
418,61	93,654
418,83	101,585
419,04	85,891
419,25	92,185
419,46	97,271
419,68	93,953
419,89	91,436
420,10	95,699
420,32	97,748
420,53	99,403
420,74	94,504
420,96	100,592
421,17	97,719
421,38	91,454
421,60	94,105
421,81	89,690
422,02	94,897
422,23	97,241
422,45	103,541
422,66	92,224
422,87	99,746
423,09	97,597
423,30	96,857
423,51	95,762
423,73	97,724
423,94	98,123
424,15	94,685
424,36	95,241
424,58	96,770
424,79	97,072
425,00	94,851
425,22	96,176
425,43	100,291
425,64	100,847
425,85	94,250
426,07	89,216
426,28	97,330
426,49	85,453
426,71	85,111
426,92	84,832
427,13	80,882
427,34	78,959
427,56	78,450
427,77	76,439
427,98	74,653
428,19	71,229
428,41	70,975
428,62	65,974
428,83	64,293
429,04	62,568
429,26	62,072
429,47	58,320
429,68	55,397
429,89	52,064
430,11	52,488
430,32	50,930
430,53	48,348
430,74	48,533
430,96	45,065
431,17	46,643
431,38	44,147
431,59	43,401
431,81	40,708
432,02	38,499
432,23	35,159
432,44	33,098
432,66	28,887
432,87	24,794
433,08	20,312
433,29	16,147
433,51	13,596
433,72	10,153
433,93	7,188
434,14	5,500
434,35	4,057
434,57	2,160
434,78	1,893
434,99	0,916
435,20	1,567
435,42	0,996
435,63	0,566
435,84	1,175
436,05	0,229
436,26	0,664
436,48	1,212
436,69	1,401
436,90	0,190
437,11	0,526
437,32	0,780
437,54	0,721
437,75	0,397
437,96	0,831
438,17	0,489
438,38	1,133
438,60	1,277
438,81	0,567
439,02	0,627
439,23	0,801
439,44	0,158
439,66	0,616
439,87	0,410
440,08	0,439
440,29	0,890
440,50	0,729
440,72	0,496
440,93	0,647
441,14	0,439
441,35	0,283
441,56	0,735
441,77	0,467
441,99	0,272
442,20	0,621
442,41	0,261
442,62	-0,007
442,83	0,279
443,04	0,666
443,26	0,428
443,47	0,568
443,68	0,245
443,89	0,451
444,10	0,355
444,31	0,868
444,53	0,733
444,74	0,345
444,95	0,037
445,16	0,260
445,37	0,559
445,58	0,342
445,80	0,313
446,01	0,415
446,22	0,631
446,43	0,735
446,64	-0,012
446,85	-0,061
447,06	0,427
447,28	0,260
447,49	0,232
447,70	0,567
447,91	0,442
448,12	0,118
448,33	0,353
448,54	0,232
448,76	0,492
448,97	0,203
449,18	0,374
449,39	0,487
449,60	0,378
449,81	0,696
450,02	0,696
450,23	0,472
450,45	0,552
450,66	0,644
450,87	0,448
451,08	0,079
451,29	0,545
451,50	0,523
451,71	0,179
451,92	0,424
452,13	0,447
452,35	0,402
452,56	0,252
452,77	0,395
452,98	0,565
453,19	0,471
453,40	0,617
453,61	0,447
453,82	0,598
454,03	0,440
454,25	0,559
454,46	0,178
454,67	0,545
454,88	0,582
455,09	0,742
455,30	0,338
455,51	0,551
455,72	0,482
455,93	0,440
456,14	0,608
456,35	0,194
456,56	0,592
456,78	0,409
456,99	0,588
457,20	0,220
457,41	0,121
457,62	0,346
457,83	0,586
458,04	0,488
458,25	0,479
458,46	0,313
458,67	0,434
458,88	0,368
459,09	0,520
459,30	0,265
459,51	0,355
459,73	0,022
459,94	0,785
460,15	0,205
460,36	0,432
460,57	0,490
460,78	0,187
460,99	0,518
461,20	0,441
461,41	0,596
461,62	0,251
461,83	0,230
462,04	0,371
462,25	0,495
462,46	0,365
462,67	0,093
462,88	0,288
463,09	0,285
463,30	0,404
463,51	0,253
463,72	0,368
463,93	0,299
464,15	0,452
464,36	0,225
464,57	0,227
464,78	0,240
464,99	0,554
465,20	0,354
465,41	0,379
465,62	0,555
465,83	0,341
466,04	0,433
466,25	0,342
466,46	0,475
466,67	0,260
466,88	0,407
467,09	0,215
467,30	0,198
467,51	0,260
467,72	0,239
467,93	0,257
468,14	0,309
468,35	0,475
468,56	0,286
468,77	0,289
468,98	0,525
469,19	0,263
469,40	0,445
469,61	0,323
469,82	0,504
470,03	0,161
470,24	0,342
470,45	0,490
470,66	0,678
470,87	0,457
471,08	0,642
471,29	0,377
471,50	0,372
471,71	0,383
471,92	0,286
472,13	0,504
472,34	0,148
472,55	0,524
472,76	0,625
472,97	0,586
473,18	0,492
473,39	0,476
473,60	0,254
473,81	0,423
474,01	0,692
474,22	0,522
474,43	0,636
474,64	0,700
474,85	0,656
475,06	0,643
475,27	0,892
475,48	0,660
475,69	0,630
475,90	0,722
476,11	0,846
476,32	0,917
476,53	0,689
476,74	0,801
476,95	0,803
477,16	1,126
477,37	1,137
477,58	1,108
477,79	1,408
478,00	1,925
478,21	2,505
478,41	2,765
478,62	3,599
478,83	4,696
479,04	5,606
479,25	7,533
479,46	9,519
479,67	11,647
479,88	14,840
480,09	18,831
480,30	21,886
480,51	25,188
480,72	30,257
480,93	35,531
481,14	39,853
481,34	45,162
481,55	50,457
481,76	54,892
481,97	60,313
482,18	64,555
482,39	69,680
482,60	73,470
482,81	78,168
483,02	79,851
483,23	82,499
483,44	84,271
483,65	85,768
483,85	88,601
484,06	87,967
484,27	88,945
484,48	90,336
484,69	89,934
484,90	91,135
485,11	90,418
485,32	92,058
485,53	91,182
485,73	91,874
485,94	91,563
486,15	93,624
486,36	93,287
486,57	93,769
486,78	94,212
486,99	94,107
487,20	94,905
487,41	94,773
487,61	94,412
487,82	96,764
488,03	95,307
488,24	95,956
488,45	95,950
488,66	96,844
488,87	97,147
489,08	97,367
489,28	96,435
489,49	95,838
489,70	96,728
489,91	96,727
490,12	96,086
490,33	96,489
490,54	97,554
490,74	97,389
490,95	97,082
491,16	97,519
491,37	96,539
491,58	96,315
491,79	96,671
492,00	96,534
492,20	96,953
492,41	97,353
492,62	97,128
492,83	97,025
493,04	97,296
493,25	97,090
493,45	98,097
493,66	97,324
493,87	97,531
494,08	97,803
494,29	98,314
494,50	99,133
494,70	96,925
494,91	98,494
495,12	99,760
495,33	98,735
495,54	98,705
495,75	98,374
495,95	98,146
496,16	97,482
496,37	97,007
496,58	98,658
496,79	97,976
496,99	97,780
497,20	98,117
497,41	96,541
497,62	96,453
497,83	96,097
498,04	95,281
498,24	95,729
498,45	94,318
498,66	93,804
498,87	93,345
499,08	92,269
499,28	91,147
499,49	90,508
499,70	89,239
499,91	88,700
500,12	86,232
500,32	86,094
500,53	85,968
500,74	85,609
500,95	85,026
501,15	83,472
501,36	82,891
501,57	82,658
501,78	81,212
501,99	79,737
502,19	78,091
502,40	76,260
502,61	72,724
502,82	70,245
503,02	67,273
503,23	62,960
503,44	58,473
503,65	54,480
503,86	50,458
504,06	45,533
504,27	41,689
504,48	36,560
504,69	32,325
504,89	27,277
505,10	23,661
505,31	19,228
505,52	15,976
505,72	13,168
505,93	10,153
506,14	7,549
506,35	5,665
506,55	4,079
506,76	3,019
506,97	2,488
507,18	1,765
507,38	1,348
507,59	1,021
507,80	0,857
508,01	0,816
508,21	0,728
508,42	0,549
508,63	0,394
508,84	0,581
509,04	0,587
509,25	0,670
509,46	0,451
509,67	0,752
509,87	0,506
510,08	0,398
510,29	0,390
510,49	0,578
510,70	0,454
510,91	0,655
511,12	0,530
511,32	0,597
511,53	0,533
511,74	0,432
511,94	0,248
512,15	0,522
512,36	0,395
512,57	0,542
512,77	0,429
512,98	0,231
513,19	0,540
513,39	0,371
513,60	0,430
513,81	0,515
514,01	0,630
514,22	0,520
514,43	0,437
514,64	0,457
514,84	0,442
515,05	0,607
515,26	0,248
515,46	0,288
515,67	0,227
515,88	0,559
516,08	0,531
516,29	0,289
516,50	0,542
516,70	0,370
516,91	0,523
517,12	0,430
517,32	0,093
517,53	0,240
517,74	0,370
517,95	0,512
518,15	0,387
518,36	0,487
518,57	0,483
518,77	0,279
518,98	0,325
519,19	0,238
519,39	0,507
519,60	0,286
519,80	0,291
520,01	0,168
520,22	0,504
520,42	0,328
520,63	0,261
520,84	0,311
521,04	0,358
521,25	0,355
521,46	0,340
521,66	0,299
521,87	0,366
522,08	0,298
522,28	0,532
522,49	0,446
522,70	0,335
522,90	0,243
523,11	0,220
523,31	0,115
523,52	0,289
523,73	0,305
523,93	0,355
524,14	0,426
524,35	0,324
524,55	0,366
524,76	0,313
524,97	0,309
525,17	0,424
525,38	0,394
525,58	0,263
525,79	0,295
526,00	0,222
526,20	0,415
526,41	0,378
526,61	0,343
526,82	0,173
527,03	0,450
527,23	0,358
527,44	0,248
527,64	0,377
527,85	0,251
528,06	0,433
528,26	0,361
528,47	0,325
528,68	0,398
528,88	0,247
529,09	0,281
529,29	0,594
529,50	0,297
529,70	0,294
529,91	0,207
530,12	0,323
530,32	0,394
530,53	0,455
530,73	0,343
530,94	0,413
531,15	0,334
531,35	0,496
531,56	0,404
531,76	0,508
531,97	0,448
532,17	0,360
532,38	0,396
532,59	0,378
532,79	0,607
533,00	0,398
533,20	0,437
533,41	0,324
533,61	0,272
533,82	0,275
534,03	0,569
534,23	0,406
534,44	0,396
534,64	0,448
534,85	0,458
535,05	0,272
535,26	0,513
535,46	0,355
535,67	0,248
535,88	0,277
536,08	0,354
536,29	0,449
536,49	0,384
536,70	0,533
536,90	0,453
537,11	0,333
537,31	0,375
537,52	0,575
537,72	0,544
537,93	0,376
538,13	0,321
538,34	0,367
538,55	0,431
538,75	0,348
538,96	0,297
539,16	0,298
539,37	0,475
539,57	0,496
539,78	0,365
539,98	0,562
540,19	0,683
540,39	0,417
540,60	0,411
540,80	0,394
541,01	0,494
541,21	0,423
541,42	0,566
541,62	0,556
541,83	0,449
542,03	0,511
542,24	0,505
542,44	0,481
542,65	0,450
542,85	0,596
543,06	0,680
543,26	0,625
543,47	0,788
543,67	0,817
543,88	0,666
544,08	0,657
544,29	0,833
544,49	0,782
544,70	0,931
544,90	1,467
545,11	1,460
545,31	1,647
545,52	2,325
545,72	2,674
545,93	3,386
546,13	4,097
546,34	5,221
546,54	6,198
546,75	7,541
546,95	8,808
547,15	10,703
547,36	13,068
547,56	14,957
547,77	17,094
547,97	19,658
548,18	22,525
548,38	26,090
548,59	28,693
548,79	31,800
549,00	35,656
549,20	38,616
549,41	43,045
549,61	47,114
549,81	50,210
550,02	55,847
550,22	58,575
550,43	63,398
550,63	67,668
550,84	71,267
551,04	75,754
551,25	76,999
551,45	80,571
551,65	81,566
551,86	84,016
552,06	86,001
552,27	86,766
552,47	86,776
552,68	88,641
552,88	89,068
553,08	89,985
553,29	88,662
553,49	88,289
553,70	88,373
553,90	90,016
554,11	88,918
554,31	88,110
554,51	87,681
554,72	86,448
554,92	86,736
555,13	86,514
555,33	85,314
555,53	85,083
555,74	85,925
555,94	84,885
556,15	85,045
556,35	85,471
556,56	85,815
556,76	86,045
556,96	87,065
557,17	88,151
557,37	89,523
557,58	89,265
557,78	90,002
557,98	92,065
558,19	91,970
558,39	92,985
558,59	93,881
558,80	94,786
559,00	94,141
559,21	95,312
559,41	94,782
559,61	94,768
559,82	96,828
560,02	95,371
560,23	95,420
560,43	95,174
560,63	95,059
560,84	94,613
561,04	94,681
561,24	94,555
561,45	93,343
561,65	93,128
561,85	93,788
562,06	92,456
562,26	92,645
562,47	92,538
562,67	92,322
562,87	92,419
563,08	91,260
563,28	91,673
563,48	90,889
563,69	91,266
563,89	90,876
564,09	90,846
564,30	88,835
564,50	88,700
564,70	88,104
564,91	87,818
565,11	84,565
565,31	84,637
565,52	83,234
565,72	80,673
565,92	79,630
566,13	75,994
566,33	74,072
566,53	72,139
566,74	68,677
566,94	66,965
567,14	63,927
567,35	60,512
567,55	58,356
567,75	55,382
567,96	52,467
568,16	51,207
568,36	48,780
568,57	47,878
568,77	46,093
568,97	44,663
569,18	43,634
569,38	41,908
569,58	40,809
569,79	40,147
569,99	37,785
570,19	36,367
570,39	35,076
570,60	32,744
570,80	31,127
571,00	29,556
571,21	28,542
571,41	26,443
571,61	24,364
571,82	22,273
572,02	20,258
572,22	17,834
572,42	15,370
572,63	12,407
572,83	10,213
573,03	8,177
573,24	5,922
573,44	4,556
573,64	3,505
573,84	2,355
574,05	1,814
574,25	1,405
574,45	1,060
574,66	0,929
574,86	0,700
575,06	0,749
575,26	0,583
575,47	0,495
575,67	0,463
575,87	0,522
576,07	0,361
576,28	0,420
576,48	0,507
576,68	0,388
576,88	0,490
577,09	0,460
577,29	0,654
577,49	0,279
577,69	0,232
577,90	0,288
578,10	0,273
578,30	0,430
578,50	0,351
578,71	0,347
578,91	0,358
579,11	0,305
579,31	0,251
579,52	0,260
579,72	0,254
579,92	0,347
580,12	0,291
580,33	0,340
580,53	0,215
580,73	0,279
580,93	0,244
581,13	0,215
581,34	0,136
581,54	0,377
581,74	0,300
581,94	0,327
582,15	0,539
582,35	0,203
582,55	0,323
582,75	0,417
582,95	0,324
583,16	0,265
583,36	0,118
583,56	0,229
583,76	0,177
583,96	0,254
584,17	0,281
584,37	0,176
584,57	0,245
584,77	0,221
584,97	0,191
585,18	0,372
585,38	0,100
585,58	0,290
585,78	0,207
585,98	0,185
586,19	0,307
586,39	0,349
586,59	0,188
586,79	0,304
586,99	0,146
587,20	0,212
587,40	0,183
587,60	0,155
587,80	0,244
588,00	0,326
588,20	0,248
588,41	0,231
588,61	0,315
588,81	0,197
589,01	0,277
589,21	0,399
589,41	0,091
589,62	0,219
589,82	0,311
590,02	0,274
590,22	0,201
590,42	0,270
590,62	0,297
590,83	0,139
591,03	0,087
591,23	0,153
591,43	0,310
591,63	0,219
591,83	0,300
592,03	0,354
592,24	0,228
592,44	0,211
592,64	0,144
592,84	0,255
593,04	0,098
593,24	0,170
593,44	0,185
593,65	0,209
593,85	0,285
594,05	0,274
594,25	0,156
594,45	0,238
594,65	0,194
594,85	0,076
595,06	0,113
595,26	0,386
595,46	0,163
595,66	0,245
595,86	0,291
596,06	0,289
596,26	0,174
596,46	0,237
596,66	0,141
596,87	0,372
597,07	0,141
597,27	0,138
597,47	0,139
597,67	0,214
597,87	0,167
598,07	0,139
598,27	0,224
598,47	0,264
598,67	0,176
598,88	0,121
599,08	0,277
599,28	0,199
599,48	0,026
599,68	0,306
599,88	0,167
600,08	0,215
600,28	0,284
600,48	0,267
600,68	0,160
600,88	0,287
601,09	0,135
601,29	0,363
601,49	0,098
601,69	0,256
601,89	0,218
602,09	0,336
602,29	0,283
602,49	0,114
602,69	0,243
602,89	0,110
603,09	0,329
603,29	0,201
603,49	0,081
603,69	0,229
603,90	0,015
604,10	0,148
604,30	0,274
604,50	0,365
604,70	0,273
604,90	0,282
605,10	0,164
605,30	0,184
605,50	0,264
605,70	0,410
605,90	-0,008
606,10	0,100
606,30	0,222
606,50	0,329
606,70	0,127
606,90	-0,008
607,10	0,251
607,30	0,326
607,50	0,321
607,70	0,284
607,90	0,222
608,10	0,199
608,30	0,089
608,50	0,243
608,70	0,298
608,90	0,116
609,11	0,070
609,31	0,299
609,51	0,335
609,71	0,090
609,91	0,082
610,11	0,460
610,31	0,160
610,51	0,342
610,71	0,262
610,91	0,208
611,11	0,243
611,31	0,258
611,51	0,055
611,71	0,055
611,91	0,367
612,11	0,114
612,31	0,273
612,51	0,216
612,71	0,088
612,91	0,107
613,11	0,167
613,31	0,170
613,51	0,147
613,71	0,187
613,91	0,405
614,11	0,243
614,31	0,063
614,50	0,427
614,70	0,185
614,90	0,164
615,10	0,063
615,30	0,064
615,50	0,175
615,70	0,301
615,90	0,120
616,10	0,112
616,30	0,246
616,50	0,157
616,70	0,176
616,90	0,221
617,10	0,255
617,30	0,139
617,50	0,234
617,70	0,024
617,90	0,226
618,10	0,158
618,30	0,083
618,50	0,250
618,70	0,319
618,90	0,092
619,10	0,125
619,30	-0,124
619,49	0,356
619,69	0,198
619,89	0,194
620,09	0,127
620,29	0,198
620,49	0,282
620,69	0,225
620,89	0,242
621,09	0,172
621,29	0,327
621,49	-0,004
621,69	0,160
621,89	0,281
622,09	0,254
622,29	0,055
622,48	0,250
622,68	0,086
622,88	0,253
623,08	0,167
623,28	0,167
623,48	0,246
623,68	0,192
623,88	0,271
624,08	0,129
624,28	0,162
624,48	0,251
624,67	0,167
624,87	0,103
625,07	0,069
625,27	0,196
625,47	0,239
625,67	0,288
625,87	0,050
626,07	0,263
626,27	0,107
626,47	0,378
626,66	0,241
626,86	0,110
627,06	0,277
627,26	0,266
627,46	0,082
627,66	0,170
627,86	0,142
628,06	0,319
628,25	0,192
628,45	0,178
628,65	0,194
628,85	0,149
629,05	0,239
629,25	0,160
629,45	0,293
629,65	0,108
629,84	0,071
630,04	0,217
630,24	0,294
630,44	0,177
630,64	0,231
630,84	0,069
631,04	0,331
631,23	0,280
631,43	0,004
631,63	0,071
631,83	0,102
632,03	0,334
632,23	0,177
632,42	0,143
632,62	0,192
632,82	0,133
633,02	0,004
633,22	0,148
633,42	0,270
633,62	0,104
633,81	0,158
634,01	0,331
634,21	0,089
634,41	0,264
634,61	0,160
634,80	0,321
635,00	0,289
635,20	0,351
635,40	-0,087
635,60	0,206
635,80	0,197
635,99	0,362
636,19	0,261
636,39	0,247
636,59	0,175
636,79	0,283
636,98	0,162
637,18	0,364
637,38	0,255
637,58	-0,102
637,78	0,319
637,97	0,039
638,17	0,354
638,37	0,377
638,57	0,331
638,77	0,261
638,96	0,372
639,16	0,473
639,36	0,109
639,56	0,233
639,76	0,259
639,95	0,390
640,15	0,262
640,35	0,024
640,55	0,248
640,75	0,341
640,94	0,248
641,14	0,277
641,34	0,216
641,54	0,284
641,73	0,206
641,93	0,228
642,13	0,239
642,33	0,176
642,53	0,136
642,72	0,143
642,92	0,475
643,12	0,279
643,32	0,264
643,51	0,481
643,71	-0,074
643,91	0,298
644,11	0,260
644,30	0,192
644,50	0,342
644,70	-0,098
644,90	0,542
645,09	0,361
645,29	0,326
645,49	0,278
645,69	0,137
645,88	0,238
646,08	0,297
646,28	0,416
646,48	0,243
646,67	-0,007
646,87	0,391
647,07	0,440
647,26	0,418
647,46	0,408
647,66	0,091
647,86	0,514
648,05	0,303
648,25	0,824
648,45	0,302
648,65	0,168
648,84	0,153
649,04	0,453
649,24	0,401
649,43	0,213
649,63	0,319
649,83	0,360
650,03	0,353
650,22	0,369
650,42	0,460
650,62	0,443
650,81	0,467
651,01	0,248
651,21	0,357
651,40	0,274
651,60	-0,146
651,80	0,392
652,00	0,423
652,19	0,188
652,39	0,301
652,59	0,626
652,78	-0,148
652,98	0,215
653,18	0,184
653,37	0,618
653,57	0,800
653,77	0,552
653,96	0,161
654,16	0,555
654,36	0,585
654,55	0,185
654,75	0,336
654,95	0,400
655,14	0,328
655,34	0,478
655,54	0,886
655,73	0,321
655,93	0,375
656,13	0,130
656,32	0,009
656,52	0,486
656,72	0,591
656,91	0,609
657,11	0,466
657,31	0,313
657,50	0,638
657,70	0,382
657,90	0,504
658,09	0,547
658,29	0,657
658,49	0,462
658,68	0,070
658,88	0,227
659,07	0,680
659,27	0,183
659,47	0,348
659,66	0,459
659,86	0,122
660,06	0,104
660,25	0,035
660,45	0,573
660,64	0,105
660,84	0,584
661,04	0,473
661,23	0,120
661,43	0,386
661,63	0,344
661,82	0,061
662,02	0,556
662,21	-0,227
662,41	0,892
662,61	0,777
662,80	0,044
663,00	0,069
663,19	0,847
663,39	0,130
663,59	0,784
663,78	0,533
663,98	0,658
664,17	0,656
664,37	0,767
664,57	0,471
664,76	0,229
664,96	0,281
665,15	0,289
665,35	0,322
665,55	0,222
665,74	0,363
665,94	0,549
666,13	0,424
666,33	0,667
666,53	0,359
666,72	0,565
666,92	0,338
667,11	0,324
667,31	-0,017
667,50	0,017
667,70	0,526
667,90	0,008
668,09	0,254
668,29	0,409
668,48	0,163
668,68	0,301
668,87	0,314
669,07	0,288
669,26	0,273
669,46	0,473
669,66	0,238
669,85	0,434
670,05	0,197
670,24	0,368
670,44	0,197
670,63	0,179
670,83	0,296
671,02	0,329
671,22	0,457
671,42	0,394
671,61	0,220
671,81	0,369
672,00	0,189
672,20	0,213
672,39	0,165
672,59	0,135
672,78	0,256
672,98	0,271
673,17	0,422
673,37	0,105
673,56	0,443
673,76	-0,022
673,95	0,350
674,15	0,412
674,34	0,000
674,54	0,592
674,73	0,128
674,93	0,177
675,13	0,453
675,32	0,238
675,52	0,378
675,71	0,549
675,91	0,367
676,10	0,487
676,30	0,124
676,49	0,129
676,69	0,161
676,88	0,224
677,08	0,249
677,27	0,228
677,47	0,150
677,66	0,556
677,86	0,570
678,05	0,096
678,24	0,400
678,44	0,457
678,63	0,124
678,83	0,118
679,02	0,252
679,22	0,376
679,41	0,357
679,61	0,255
679,80	0,272
680,00	-0,160
680,19	0,415
680,39	0,244
680,58	0,168
680,78	0,075
680,97	0,529
681,17	0,306
681,36	0,045
681,56	0,140
681,75	0,028
681,94	0,253
682,14	0,296
682,33	0,385
682,53	-0,032
682,72	0,263
682,92	0,352
683,11	0,163
683,31	0,409
683,50	0,115
683,69	0,211
683,89	0,360
684,08	0,106
684,28	0,194
684,47	0,165
684,67	0,055
684,86	0,015
685,06	0,247
685,25	0,024
685,44	0,135
685,64	0,270
685,83	0,147
686,03	0,150
686,22	0,209
686,42	0,226
686,61	0,173
686,80	0,055
687,00	0,126
687,19	0,155
687,39	0,089
687,58	0,181
687,77	0,196
687,97	0,291
688,16	0,283
688,36	0,048
688,55	0,095
688,74	-0,051
688,94	0,149
689,13	0,004
689,33	0,146
689,52	0,272
689,71	0,174
689,91	0,182
690,10	0,175
690,30	-0,125
690,49	0,107
690,68	0,353
690,88	-0,123
691,07	0,079
691,27	0,094
691,46	0,016
691,65	0,198
691,85	0,161
692,04	0,146
692,23	0,099
692,43	0,214
692,62	0,184
692,82	0,337
693,01	0,302
693,20	0,125
693,40	0,004
693,59	0,020
693,78	0,168
693,98	0,073
694,17	0,108
694,36	0,564
694,56	0,227
694,75	0,303
694,94	0,256
695,14	0,052
695,33	0,365
695,53	0,257
695,72	0,224
695,91	0,000
696,11	0,122
696,30	0,298
696,49	0,313
696,69	0,152
696,88	0,091
697,07	0,296
697,27	0,186
697,46	0,385
697,65	0,023
697,85	0,146
698,04	0,325
698,23	0,146
698,43	0,343
698,62	-0,161
698,81	0,381
699,01	0,445
699,20	0,267
699,39	0,368
699,58	0,210
699,78	0,084
699,97	-0,008
700,16	0,170
700,36	0,501
700,55	0,501
700,74	0,263
700,94	0,440
701,13	0,142
701,32	0,107
701,52	0,319
701,71	0,543
701,90	0,171
702,09	0,358
702,29	0,650
702,48	0,137
702,67	0,666
702,87	1,232
703,06	0,751
703,25	0,493
703,44	0,672
703,64	0,511
703,83	0,215
704,02	0,490
704,22	0,192
704,41	-0,031
704,60	0,857
704,79	0,801
704,99	1,009
705,18	1,406
705,37	1,241
705,56	0,434
705,76	1,879
705,95	1,403
706,14	1,200
706,33	0,828
706,53	0,750
706,72	0,460
706,91	1,619
707,11	0,516
707,30	1,437
707,49	1,072
707,68	1,091
707,88	1,286
708,07	0,414
708,26	0,025
708,45	0,311
708,64	1,272
708,84	1,213
709,03	1,838
709,22	0,613
709,41	1,817
709,61	0,899
709,80	1,246
709,99	2,794
710,18	0,894
710,38	-0,157
710,57	0,922
710,76	1,245
710,95	2,502
711,14	1,159
711,34	1,136
711,53	1,855
711,72	2,070
711,91	1,107
712,11	1,769
712,30	0,616
712,49	1,340
712,68	1,385
712,87	0,694
713,07	2,369
713,26	2,416
713,45	-0,666
713,64	2,663
713,83	2,199
714,03	0,761
714,22	2,670
714,41	2,421
714,60	2,421
714,79	-0,768
714,99	1,374
715,18	3,856
715,37	3,201
715,56	3,794
715,75	2,301
715,94	4,232
716,14	3,840
716,33	1,613
716,52	2,044
716,71	3,135
716,90	0,555
717,10	-0,278
717,29	1,238
717,48	2,169
717,67	2,764
717,86	4,325
718,05	2,225
718,24	4,162
718,44	1,558
718,63	0,669
718,82	2,061
719,01	1,370
719,20	3,365
719,39	3,399
719,59	2,474
719,78	1,670
719,97	1,205
720,16	0,739
720,35	0,826
720,54	-1,537
720,73	2,867
720,93	0,434
721,12	1,293
721,31	-0,437
721,50	4,145
721,69	-0,446
721,88	5,069
722,07	5,026
722,27	5,152
722,46	1,049
722,65	-0,318
722,84	3,629
723,03	4,163
723,22	2,015
723,41	0,498
723,60	2,371
723,79	8,003
723,99	2,682
724,18	1,944
724,37	1,998
724,56	2,726
724,75	4,435
724,94	7,010
725,13	2,833
725,32	3,240
725,51	3,256
725,71	1,775
725,90	1,607
726,09	3,562
726,28	1,907
726,47	0,888
726,66	6,769
726,85	3,791
727,04	0,102
727,23	5,922
727,42	7,312
727,61	3,086
727,81	0,541
728,00	0,832
728,19	6,717
728,38	2,074
728,57	4,063
728,76	4,721
728,95	7,708
729,14	8,658
729,33	6,989
729,52	2,362
729,71	2,603
729,90	7,143
730,09	6,323
730,28	6,390
730,48	6,885
730,67	10,045
730,86	8,156
731,05	1,634
731,24	-0,610
731,43	6,504
731,62	4,811
731,81	2,270
732,00	10,419
732,19	1,803
732,38	2,308
732,57	1,467
732,76	8,208
732,95	2,188
733,14	-1,004
733,33	-1,058
733,52	11,236
733,71	6,026
733,90	0,847
734,09	9,324
734,28	9,449
734,47	8,194
734,66	8,155
734,85	1,571
735,04	9,272
735,23	7,423
735,42	11,202
735,61	7,580
735,81	5,621
736,00	5,840
736,19	-1,824
736,38	7,335
736,57	10,014
736,76	6,569
736,95	8,121
737,14	1,914
737,33	13,154
737,52	5,385
737,71	5,246
737,90	10,201
738,09	5,327
738,28	4,185
738,47	2,007
738,66	-1,763
738,85	8,108
739,04	4,117
739,22	9,197
739,41	0,000
739,60	-1,365
739,79	3,957
739,98	5,018
740,17	9,044
740,36	9,222
740,55	10,510
740,74	9,777
740,93	3,824
741,12	12,679
741,31	2,289
741,50	1,323
741,69	10,265
741,88	-2,964
742,07	10,326
742,26	6,286
742,45	2,869
742,64	3,291
742,83	13,274
743,02	-3,579
743,21	13,177
743,40	-7,453
743,59	4,779
743,78	7,241
743,97	9,808
744,16	5,512
744,34	2,564
744,53	17,526
744,72	3,967
744,91	1,261
745,10	15,933
745,29	7,661
745,48	7,273
745,67	8,200
745,86	5,740
746,05	14,929
746,24	15,464
746,43	3,640
746,62	18,750
746,81	11,011
747,00	3,063
747,18	7,407
747,37	18,737
747,56	11,294
747,75	2,463
747,94	10,922
748,13	23,266
748,32	9,286
748,51	14,213
748,70	5,947
748,89	14,754
749,08	-4,360
749,26	12,996
749,45	0,000
749,64	12,343
749,83	15,506
750,02	16,848
750,21	9,924
750,40	16,802
750,59	-0,268
750,78	14,963
750,96	6,630
751,15	8,411
751,34	0,852
751,53	4,372
751,72	11,549
751,91	15,803
752,10	9,686
752,29	0,000
752,47	-4,298
752,66	10,159
752,85	15,847
753,04	6,145
753,23	0,619
753,42	12,129
753,61	9,091
753,80	-5,155
753,98	13,131
754,17	7,903
754,36	10,323
754,55	13,855
754,74	11,688
754,93	19,559
755,12	16,617
755,30	20,455
755,49	15,116
755,68	22,699
755,87	11,834
756,06	15,278
756,25	27,660
756,43	-7,383
756,62	18,634
756,81	12,252
757,00	3,947
757,19	14,236
757,38	12,741
757,56	0,000
757,75	13,652
757,94	-2,281
758,13	-1,712
758,32	13,650
758,51	-6,061
758,69	15,830
758,88	10,101
759,07	22,455
759,26	25,795
759,45	2,456
759,63	28,139
759,82	14,035
760,01	7,326
760,20	18,868
760,39	22,397
760,57	14,286
760,76	17,770
760,95	18,403
761,14	12,044
761,33	14,194
761,51	16,071
761,70	16,729
761,89	16,889
762,08	18,216
762,27	24,910
762,45	3,986
762,64	22,613
762,83	35,060
763,02	10,435
763,21	-1,500
763,39	14,336
763,58	20,074
763,77	12,658
763,96	28,287
764,14	10,833
764,33	10,952
764,52	12,500
764,71	19,016
764,89	18,304
765,08	16,749
765,27	13,617
765,46	21,525
765,65	25,098
765,83	48,416
766,02	-0,476
766,21	0,000
766,40	27,626
766,58	13,757
766,77	29,817
766,96	23,171
767,15	15,966
767,33	15,942
767,52	19,651
767,71	11,842
767,90	-2,513
768,08	1,796
768,27	19,512
768,46	26,316
768,64	24,074
768,83	28,431
769,02	-0,985
769,21	15,625
769,39	17,143
769,58	19,048
769,77	29,787
769,96	26,577
770,14	25,137
770,33	11,215
770,52	26,619
770,70	37,297
770,89	29,189
771,08	-1,807
771,27	21,053
771,45	18,235
771,64	47,879
771,83	21,078
772,01	44,845
772,20	39,801
772,39	6,962
772,57	11,443
772,76	22,973
772,95	29,310
773,14	31,293
773,32	15,819
773,51	14,881
773,70	42,446
773,88	47,097
774,07	48,223
774,26	-11,290
774,44	26,316
774,63	48,503
774,82	15,584
775,00	39,720
775,19	8,333
775,38	26,596
775,56	39,130
775,75	45,055
775,94	-18,333
776,12	44,444
776,31	33,083
776,50	21,918
776,68	19,355
776,87	41,148
777,06	20,126
777,24	-4,202
777,43	34,759
777,62	33,708
777,80	47,170
777,99	73,333
778,18	43,103
778,36	50,000
778,55	14,407
778,74	18,750
778,92	32,716
779,11	60,909
779,29	-4,965
779,48	22,695
779,67	38,739
779,85	-6,140
780,04	23,188
780,23	17,857
780,41	28,814
780,60	14,765
780,79	20,161
780,97	24,183
781,16	17,021
781,34	39,189
781,53	59,821
781,72	-6,306
781,90	38,922
782,09	-6,977
782,28	36,054
782,46	58,571
782,65	42,958
782,83	34,591
783,02	30,702
783,21	33,835
783,39	36,975
783,58	40,870
783,76	27,211
783,95	51,408
784,14	80,263
784,32	-14,118
784,51	60,135
784,69	17,969
784,88	14,019
785,06	33,775
785,25	46,809
785,44	67,742
785,62	33,571
785,81	27,778
785,99	3,008
786,18	2,703
786,37	31,868
786,55	29,167
786,74	60,909
786,92	23,077
787,11	22,917
787,29	25,000
787,48	47,312
787,67	41,509
787,85	46,835
788,04	23,423
788,22	5,941
788,41	51,181
788,59	51,316
788,78	50,549
788,96	33,058
789,15	40,000
789,34	51,923
789,52	35,484
789,71	82,014
789,89	33,766
790,08	42,500
790,26	24,841
790,45	38,889
790,63	-3,448
790,82	26,923
791,00	16,814
791,19	18,400
791,38	-1,905
791,56	60,000
791,75	-18,056
791,93	75,000
792,12	53,043
792,30	18,978
792,49	34,343
792,67	13,235
792,86	61,600
793,04	50,000
793,23	48,421
793,41	54,348
793,60	45,139
793,78	11,429
793,97	38,194
794,15	87,218
794,34	2,667
794,52	9,677
794,71	10,853
794,89	6,818
795,08	31,200
795,26	49,333
795,45	6,944
795,63	28,226
795,82	49,451
796,00	55,000
796,19	41,463
796,37	3,817
796,56	43,689
796,74	37,895
796,93	68,182
797,11	37,349
797,30	60,000
797,48	34,375
797,67	38,211
797,85	45,385
798,04	51,695
798,22	91,026
798,41	-0,962
798,59	69,524
798,77	69,880
798,96	26,543
799,14	70,161
799,33	55,046
799,51	44,444
799,70	82,308
799,88	90,826
800,07	34,351
800,25	14,458
800,44	83,333
800,62	62,500
800,80	46,479
800,99	83,562
801,17	68,966
801,36	56,429
801,54	27,000
801,73	33,684
801,91	48,760
802,10	23,529
802,28	46,400
802,46	31,579
802,65	38,129
802,83	50,667
803,02	44,355
803,20	74,699
803,39	79,310
803,57	1,575
803,75	62,602
803,94	64,286
804,12	51,724
804,31	-24,638
804,49	9,600
804,67	38,235
804,86	46,018
805,04	-2,410
805,23	52,212
805,41	33,333
805,59	73,973
805,78	86,400
805,96	20,482
806,15	79,208
806,33	40,789
806,51	5,333
806,70	54,887
806,88	37,209
807,07	41,441
807,25	35,165
807,43	45,536
807,62	34,513
807,80	73,333
807,99	47,692
808,17	2,362
808,35	43,000
808,54	51,449
808,72	53,153
808,90	50,000
809,09	52,174
809,27	-1,333
809,46	92,308
809,64	56,098
809,82	25,828
810,01	23,438
810,19	45,455
810,37	49,219
810,56	106,667
810,74	28,571
810,92	34,000
811,11	50,000
811,29	58,491
811,48	43,077
811,66	46,067
811,84	35,165
812,03	36,066
812,21	64,035
812,39	20,870
812,58	25,263
812,76	36,691
812,94	36,145
813,13	2,128
813,31	83,000
813,49	55,556
813,68	38,182
813,86	40,449
814,04	37,190
814,23	48,193
814,41	7,865
814,59	30,097
814,78	36,029
814,96	51,572
815,14	9,346
815,33	9,302
815,51	48,031
815,69	27,619
815,87	63,366
816,06	56,522
816,24	26,087
816,42	44,853
816,61	40,252
816,79	21,552
816,97	23,864
817,16	50,888
817,34	56,349
817,52	21,488
817,70	48,515
817,89	52,593
818,07	28,082
818,25	-7,143
818,44	39,744
818,62	37,984
818,80	11,278
818,98	35,669
819,17	25,210
819,35	43,617
819,53	61,194
819,72	55,063
819,90	45,736
820,08	12,821
820,26	44,828
820,45	28,859
820,63	60,714
820,81	11,200
820,99	29,787
821,18	41,497
821,36	31,646
821,54	33,793
821,73	47,778
821,91	22,807
822,09	-8,065
822,27	16,774
822,46	8,088
822,64	28,800
822,82	13,260
823,00	8,287
823,19	52,198
823,37	39,394
823,55	25,000
823,73	58,621
823,91	42,029
824,10	29,032
824,28	58,291
824,46	10,680
824,64	46,053
824,83	34,161
825,01	48,667
825,19	41,129
825,37	20,870
825,56	31,604
825,74	38,265
825,92	12,739
826,10	69,318
826,28	13,690
826,47	30,000
826,65	45,390
826,83	30,172
827,01	46,821
827,19	42,262
827,38	53,704
827,56	31,818
827,74	24,581
827,92	38,372
828,10	32,692
828,29	45,562
828,47	34,553
828,65	-3,077
828,83	6,061
829,01	44,565
829,20	24,176
829,38	23,864
829,56	19,022
829,74	8,805
829,92	29,762
830,10	44,828
830,29	8,543
830,47	16,080
830,65	3,659
830,83	34,821
831,01	30,952
831,20	24,757
831,38	21,531
831,56	26,512
831,74	38,389
831,92	13,816
832,10	29,048
832,29	42,568
832,47	12,921
832,65	34,314
832,83	23,474
833,01	27,000
833,19	9,955
833,37	33,032
833,56	31,646
833,74	50,490
833,92	7,870
834,10	34,440
834,28	21,519
834,46	44,796
834,64	35,185
834,83	19,091
835,01	25,311
835,19	40,000
835,37	8,678
835,55	1,563
835,73	26,601
835,91	25,461
836,09	19,392
836,28	31,734
836,46	14,400
836,64	29,699
836,82	18,552
837,00	22,826
837,18	10,037
837,36	15,936
837,54	27,273
837,72	24,138
837,91	14,179
838,09	13,147
838,27	17,333
838,45	28,014
838,63	5,147
838,81	-1,266
838,99	16,935
839,17	13,176
839,35	17,021
839,53	10,877
839,72	12,406
839,90	23,711
840,08	27,692
840,26	26,190
840,44	28,097
840,62	9,655
840,80	24,830
840,98	10,980
841,16	6,464
841,34	10,033
841,52	28,135
841,70	20,615
841,89	21,371
842,07	14,734
842,25	35,920
842,43	15,948
842,61	20,351
842,79	15,254
842,97	14,658
843,15	16,502
843,33	11,987
843,51	12,952
843,69	23,647
843,87	-1,493
844,05	12,766
844,23	25,826
844,41	2,821
844,59	10,375
844,77	16,246
844,95	14,451
845,13	26,462
845,31	8,721
845,50	17,016
845,68	5,788
845,86	14,943
846,04	25,419
846,22	14,441
846,40	14,516
846,58	16,524
846,76	10,753
846,94	15,212
847,12	16,321
847,30	7,990
847,48	16,099
847,66	19,951
847,84	-1,366
848,02	16,908
848,20	10,336
848,38	9,687
848,56	13,636
848,74	18,377
848,92	4,489
849,10	3,000
849,28	13,968
849,46	17,067
849,64	8,314
849,82	6,173
850,00	19,159
850,18	14,681
850,36	7,726
850,54	10,276
850,72	5,656
850,90	21,739
851,08	23,632
851,26	10,503
851,44	9,956
851,62	10,465
851,80	11,013
851,98	14,505
852,16	14,184
852,34	12,784
852,52	13,170
852,70	2,733
852,87	10,046
853,05	10,526
853,23	5,155
853,41	12,472
853,59	8,921
853,77	5,556
853,95	18,565
854,13	-1,549
854,31	13,347
854,49	4,591
854,67	9,287
854,85	6,418
855,03	16,834
855,21	14,105
855,39	1,408
855,57	8,781
855,75	12,956
855,93	2,941
856,11	13,540
856,28	1,292
856,46	12,100
856,64	15,429
856,82	3,952
857,00	4,868
857,18	7,040
857,36	17,538
857,54	7,266
857,72	3,158
857,90	5,720
858,08	3,137
858,26	3,520
858,44	4,094
858,61	2,962
858,79	6,401
858,97	6,195
859,15	14,396
859,33	9,375
859,51	9,715
859,69	-3,220
859,87	7,084
860,05	-0,888
860,23	9,253
860,40	13,523
860,58	2,459
860,76	1,905
860,94	3,902
861,12	7,846
861,30	0,942
861,48	9,286
861,66	8,889
861,84	11,211
862,01	12,666
862,19	1,695
862,37	7,867
862,55	5,331
862,73	2,941
862,91	6,314
863,09	8,482
863,27	7,902
863,44	4,231
863,62	5,435
863,80	10,408
863,98	6,231
864,16	-3,468
864,34	7,214
864,52	7,105
864,69	7,310
864,87	2,460
865,05	7,075
865,23	3,137
865,41	4,973
865,59	4,307
865,76	8,668
865,94	5,426
866,12	10,452
866,30	5,049
866,48	13,709
866,66	3,898
866,83	14,377
867,01	4,987
867,19	4,681
867,37	5,563
867,55	4,301
867,73	5,168
867,90	3,353
868,08	6,167
868,26	4,044
868,44	2,110
868,62	5,528
868,79	3,895
868,97	2,771
869,15	1,624
869,33	3,297
869,51	4,065
869,69	4,146
869,86	6,901
870,04	6,782
870,22	7,376
870,40	8,304
870,57	6,690
870,75	7,072
870,93	7,684
871,11	4,870
871,29	6,050
871,46	5,629
871,64	11,088
871,82	7,858
872,00	9,979
872,18	3,692
872,35	8,325
872,53	2,961
872,71	6,224
872,89	10,085
873,06	7,061
873,24	6,693
873,42	5,952
873,60	6,006
873,77	0,204
873,95	3,413
874,13	2,326
874,31	4,438
874,49	4,453
874,66	2,444
874,84	6,419
875,02	5,500
875,20	6,798
875,37	6,958
875,55	6,202
875,73	3,759
875,91	5,669
876,08	0,731
876,26	1,325
876,44	5,821
876,61	4,835
876,79	4,199
876,97	1,369
877,15	1,762
877,32	3,069
877,50	3,560
877,68	3,685
877,86	0,680
878,03	6,782
878,21	0,871
878,39	2,406
878,56	1,074
878,74	4,128
878,92	0,161
879,10	5,765
879,27	7,479
879,45	3,864
879,63	0,776
879,80	2,620
879,98	0,752
880,16	2,038
880,34	4,643
880,51	-0,158
880,69	2,604
880,87	2,691
881,04	2,677
881,22	3,625
881,40	4,269
881,57	2,177
881,75	4,432
881,93	4,441
882,10	1,054
882,28	4,759
882,46	6,575
882,63	2,982
882,81	5,036
882,99	1,956
883,16	3,745
883,34	2,340
883,52	1,140
883,69	5,089
883,87	1,237
884,05	3,045
884,22	1,174
884,40	4,753
884,58	-1,161
884,75	0,601
884,93	1,460
885,11	2,668
885,28	2,932
885,46	-1,722
885,64	2,549
885,81	4,535
885,99	2,726
886,17	1,921
886,34	0,613
886,52	1,399
886,70	3,310
886,87	2,229
887,05	2,301
887,22	-0,277
887,40	4,066
887,58	1,764
887,75	2,862
887,93	2,475
888,11	4,437
888,28	1,008
888,46	4,061
888,63	3,533
888,81	1,668
888,99	2,475
889,16	4,410
889,34	0,199
889,51	1,551
889,69	2,974
889,87	3,330
890,04	2,020
890,22	1,804
890,39	1,985
890,57	2,252
890,75	0,888
890,92	3,486
891,10	1,454
891,27	2,884
891,45	0,802
891,63	3,646
891,80	3,629
891,98	0,966
892,15	1,878
892,33	0,369
892,51	2,818
892,68	3,895
892,86	1,733
893,03	3,249
893,21	2,673
893,38	0,726
893,56	0,908
893,74	1,800
893,91	1,973
894,09	2,335
894,26	1,807
894,44	1,298
894,61	2,127
894,79	1,911
894,96	1,664
895,14	2,119
895,32	2,621
895,49	1,576
895,67	2,069
895,84	2,116
896,02	-0,043
896,19	-0,211
896,37	1,123
896,54	1,897
896,72	0,812
896,89	0,809
897,07	4,666
897,25	1,345
897,42	2,266
897,60	1,642
897,77	2,333
897,95	1,267
898,12	1,991
898,30	2,287
898,47	0,815
898,65	0,117
898,82	1,865
899,00	0,708
899,17	1,261
899,35	0,118
899,52	3,415
899,70	2,366
899,87	2,062
900,05	1,446
900,22	1,676
900,40	2,421
900,57	1,187
900,75	1,233
900,92	1,743
901,10	1,303
901,27	0,259
901,45	3,427
901,62	1,798
901,80	1,231
901,97	2,374
902,15	1,231
902,32	1,581
902,50	1,184
902,67	2,653
902,85	1,533
903,02	1,762
903,20	1,106
903,37	-0,320
903,54	1,796
903,72	1,829
903,89	1,124
904,07	1,497
904,24	2,657
904,42	0,915
904,59	0,464
904,77	1,486
904,94	1,541
905,12	0,567
905,29	0,421
905,47	1,185
905,64	2,825
905,81	1,427
905,99	-0,070
906,16	0,520
906,34	1,301
906,51	1,589
906,69	3,451
906,86	1,005
907,03	1,648
907,21	1,461
907,38	1,906
907,56	1,873
907,73	1,137
907,91	0,902
908,08	2,407
908,25	2,970
908,43	0,034
908,60	-0,388
908,78	1,443
908,95	0,872
909,13	3,188
909,30	1,953
909,47	0,848
909,65	1,532
909,82	1,269
910,00	1,208
910,17	1,566
910,34	1,817
910,52	0,311
910,69	0,410
910,87	0,689
911,04	0,878
911,21	2,877
911,39	0,456
911,56	3,020
911,73	1,112
911,91	0,935
912,08	1,697
912,26	0,272
912,43	2,930
912,60	1,225
912,78	1,799
912,95	1,740
913,13	1,617
913,30	2,106
913,47	2,549
913,65	1,446
913,82	1,613
913,99	0,844
914,17	1,845
914,34	0,574
914,51	1,658
914,69	1,492
914,86	1,997
915,03	1,699
915,21	1,148
915,38	1,474
915,56	1,584
915,73	0,853
915,90	1,755
916,08	2,376
916,25	1,227
916,42	1,437
916,60	1,278
916,77	2,317
916,94	0,890
917,12	-0,084
917,29	0,579
917,46	1,153
917,64	1,280
917,81	1,944
917,98	0,764
918,16	1,739
918,33	2,198
918,50	0,861
918,67	1,619
918,85	0,380
919,02	2,279
919,19	0,365
919,37	1,283
919,54	1,711
919,71	2,173
919,89	1,928
920,06	2,100
920,23	0,486
920,41	1,895
920,58	0,286
920,75	2,197
920,92	1,648
921,10	1,181
921,27	1,650
921,44	2,978
921,62	1,740
921,79	0,546
921,96	1,913
922,13	1,602
922,31	1,313
922,48	1,006
922,65	1,872
922,82	0,740
923,00	1,738
923,17	0,709
923,34	1,428
923,52	1,077
923,69	1,828
923,86	3,030
924,03	2,288
924,21	1,961
924,38	1,304
924,55	2,127
924,72	0,992
924,90	2,050
925,07	1,300
925,24	1,745
925,41	1,882
925,59	1,621
925,76	1,224
925,93	1,749
926,10	2,087
926,28	1,838
926,45	1,475
926,62	0,271
926,79	1,389
926,96	2,848
927,14	2,356
927,31	1,567
927,48	2,188
927,65	2,357
927,83	0,883
928,00	2,025
928,17	2,498
928,34	1,974
928,51	1,205
928,69	0,855
928,86	1,224
929,03	1,603
929,20	1,464
929,37	0,830
929,55	1,188
929,72	1,755
929,89	1,487
930,06	1,523
930,23	2,690
930,41	1,207
930,58	2,041
930,75	0,872
930,92	1,321
931,09	2,253
931,27	0,640
931,44	1,146
931,61	1,553
931,78	1,238
931,95	1,939
932,12	1,543
932,30	1,281
932,47	-0,392
932,64	1,726
932,81	1,278
932,98	1,179
933,16	0,725
933,33	1,155
933,50	1,140
933,67	1,414
933,84	1,884
934,01	1,208
934,18	1,687
934,36	1,418
934,53	1,590
934,70	0,764
934,87	0,465
935,04	1,775
935,21	0,927
935,38	0,962
935,56	1,666
935,73	0,559
935,90	1,071
936,07	0,452
936,24	0,392
936,41	0,907
936,58	-0,217
936,76	1,041
936,93	0,689
937,10	1,526
937,27	1,426
937,44	1,016
937,61	0,784
937,78	1,155
937,95	1,347
938,13	0,971
938,30	0,396
938,47	0,542
938,64	0,780
938,81	0,676
938,98	0,658
939,15	0,462
939,32	1,004
939,49	0,995
939,66	1,173
939,84	-0,020
940,01	1,155
940,18	0,709
940,35	-0,288
940,52	0,514
940,69	0,182
940,86	1,523
941,03	1,092
941,20	0,972
941,37	0,607
941,54	1,618
941,71	1,381
941,89	1,253
942,06	0,210
942,23	1,076
942,40	0,652
942,57	1,388
942,74	1,254
942,91	1,116
943,08	1,260
943,25	1,021
943,42	1,199
943,59	0,290
943,76	1,171
943,93	0,740
944,10	-0,113
944,27	-0,275
944,44	1,083
944,61	0,690
944,79	1,993
944,96	1,770
945,13	0,656
945,30	0,772
945,47	0,965
945,64	-0,267
945,81	0,292
945,98	0,894
946,15	1,320
946,32	1,507
946,49	0,973
946,66	0,382
946,83	0,312
947,00	1,315
947,17	-0,027
947,34	0,756
947,51	0,594
947,68	1,070
947,85	0,661
948,02	1,398
948,19	0,928
948,36	2,074
948,53	-0,349
948,70	-0,296
948,87	2,223
949,04	2,827
949,21	0,641
949,38	1,102
949,55	2,139
949,72	1,887
949,89	2,330
950,06	2,060
950,23	0,706
950,40	1,187
950,57	1,806
950,74	0,869
950,91	0,440
951,08	2,797
951,25	2,309
951,42	1,545
951,59	0,988
951,76	0,199
951,93	-0,195
952,10	0,846
952,27	0,803
952,44	1,802
952,61	1,932
952,77	2,837
952,94	2,714
953,11	2,612
953,28	2,096
953,45	1,817
953,62	1,404
953,79	1,877
953,96	2,461
954,13	3,674
954,30	0,839
954,47	1,021
954,64	1,029
954,81	4,479
954,98	1,348
955,15	1,451
955,32	1,625
955,49	0,064
955,65	2,236
955,82	3,533
955,99	4,296
956,16	5,267
956,33	0,971
956,50	2,802
956,67	0,726
956,84	6,290
957,01	0,522
957,18	1,369
957,35	4,125
957,52	2,819
957,68	3,465
957,85	4,429
958,02	5,531
958,19	2,624
958,36	6,326
958,53	3,211
958,70	5,302
958,87	2,295
959,04	1,125
959,21	7,293
959,37	7,731
959,54	3,560
959,71	9,310
959,88	-0,233
960,05	10,128
960,22	2,390
960,39	9,296
960,56	7,033
960,72	5,540
960,89	8,054
961,06	5,402
961,23	0,612
961,40	5,874
961,57	7,508
961,74	5,376
961,90	9,579
962,07	9,716
962,24	12,520
962,41	14,483
962,58	11,706
962,75	15,556
962,92	10,702
963,08	6,042
963,25	2,191
963,42	16,265
963,59	6,982
963,76	18,688
963,93	18,330
964,10	14,480
964,26	12,857
964,43	13,023
964,60	14,153
964,77	18,121
964,94	15,309
965,10	17,270
965,27	6,425
965,44	23,810
965,61	7,877
965,78	27,950
965,95	34,328
966,11	26,970
966,28	25,140
966,45	30,392
966,62	30,662
966,79	20,819
966,95	28,470
967,12	35,873
967,29	36,728
967,46	46,263
967,63	43,137
967,79	46,980
967,96	38,532
968,13	43,810
968,30	54,321
968,47	55,769
968,63	61,275
968,80	26,054
968,97	61,272
969,14	50,847
969,31	47,959
969,47	47,826
969,64	26,374
969,81	42,581
969,98	47,368
970,14	36,022
970,31	52,201
970,48	55,034
970,65	34,711
970,81	34,266
970,98	68,750
971,15	87,273
971,32	60,606
971,48	74,405
971,65	43,709
971,82	50,000
971,99	68,354
972,15	51,163
972,32	87,500
972,49	59,836
972,66	46,281
972,82	58,904
972,99	77,500
973,16	90,728
973,33	60,741
973,49	62,195
973,66	76,190
973,83	96,296
974,00	93,671
974,16	103,636
974,33	94,667
974,50	124,242
974,67	63,095
974,83	104,082
975,00	67,273
975,17	132,258
975,33	72,414
975,50	96,721
975,67	3,846
975,84	90,244
976,00	39,474
976,17	100,000
976,34	23,529
976,50	30,769
976,67	120,238
976,84	202,083
977,00	61,538
977,17	206,667
977,34	234,615
977,50	64,286
977,67	129,412
977,84	93,220
978,01	102,703
978,17	81,034
978,34	111,111
978,51	256,000
978,67	155,102
978,84	49,091
979,01	110,526
979,17	44,286
979,34	156,522
979,51	70,455
979,67	320,833
979,84	118,644
980,01	76,923
980,17	97,059
980,34	75,342
980,51	255,556
980,67	73,333
980,84	81,429
981,01	208,824
981,17	76,471
981,34	112,857
981,50	135,789
981,67	147,619
981,84	71,429
982,00	2000,000
982,17	79,688
982,34	139,024
982,50	0,000
982,67	-100,000
982,84	305,000
983,00	103,704
983,17	-300,000
983,33	344,444
983,50	29,268
983,67	91,304
983,83	180,952
984,00	252,174
984,17	633,333
984,33	-221,429
984,50	102,703
984,66	93,750
984,83	325,000
985,00	115,385
985,16	145,161
985,33	3350,000
985,49	116,279
985,66	115,000
985,83	-2100,000
985,99	177,778
986,16	231,579
986,32	94,521
986,49	120,000
986,66	420,000
986,82	148,485
986,99	-160,000
987,15	100,000
987,32	241,176
987,49	114,286
987,65	-95,652
987,82	-130,000
987,98	112,121
988,15	542,857
988,31	60,000
988,48	188,235
988,65	-30,000
988,81	54,545
988,98	181,081
989,14	-70,000
989,31	71,186
989,47	-10,714
989,64	250,000
989,80	122,340
989,97	183,636
990,14	335,714
990,30	-200,000
990,47	-145,833
990,63	128,947
990,80	1133,333
990,96	833,333
991,13	33,333
991,29	111,765
991,46	135,417
991,62	0,000
991,79	-140,000
991,95	400,000
992,12	1383,333
992,29	-76,190
992,45	142,857
992,62	-50,000
992,78	-750,000
992,95	216,129
993,11	587,500
993,28	-2800,000
993,44	-168,966
993,61	98,246
993,77	0,000
993,94	189,744
994,10	842,857
994,27	-110,526
994,43	309,375
994,60	464,286
994,76	130,303
994,93	-470,000
995,09	-125,000
995,26	170,833
995,42	475,000
995,59	36,667
995,75	-291,667
995,92	-442,857
996,08	-540,000
996,25	87,879
996,41	1400,000
996,58	212,000
996,74	-380,000
996,91	80,645
997,07	136,000
997,23	94,118
997,40	1166,667
997,56	-766,667
997,73	208,696
997,89	600,000
998,06	101,754
998,22	110,638
998,39	167,347
998,55	494,737
998,72	-1700,000
998,88	144,000
999,05	380,000
999,21	100,000
999,37	186,047
999,54	190,323
999,70	176,190
999,87	33,333
1000,03	346,667
1000,20	100,000
1000,36	-525,000
1000,52	750,000
1000,69	460,000
1000,85	33,333
1001,02	333,333
1001,18	500,000
1001,35	0,000
1001,51	464,286
1001,67	260,000
1001,84	14,634
1002,00	-300,000
1002,17	450,000
1002,33	-75,000
1002,50	508,333
1002,66	562,500
1002,82	253,659
1002,99	-304,545
1003,15	-1900,000
1003,32	-114,286
1003,48	-1500,000
1003,64	143,478
1003,81	-73,684
1003,97	118,841
1004,14	-107,273
1004,30	136,364
1004,46	-4500,000
1004,63	-92,308
1004,79	129,730
1004,95	-640,000
1005,12	-200,000
1005,28	147,222
1005,45	-983,333
1005,61	369,231
1005,77	-885,714
1005,94	171,739
1006,10	-180,000
1006,26	7,407
1006,43	230,303
1006,59	200,000
1006,76	-212,000
1006,92	69,565
1007,08	87,879
1007,25	61,111
1007,41	63,636
1007,57	-288,235
1007,74	117,391
1007,90	-250,000
1008,06	-66,667
1008,23	-173,684
1008,39	141,667
1008,55	57,647
1008,72	-550,000
1008,88	-102,857
1009,04	-722,222
1009,21	193,750
1009,37	303,226
1009,53	-245,000
1009,70	15,152
1009,86	184,211
1010,02	204,545
1010,19	460,000
1010,35	2100,000
1010,51	260,000
1010,68	322,727
1010,84	240,000
1011,00	21,429
1011,17	1900,000
1011,33	165,385
1011,49	118,750
1011,66	237,500
1011,82	-741,667
1011,98	393,333
1012,14	307,692
1012,31	150,000
1012,47	-814,286
1012,63	4400,000
1012,80	266,667
1012,96	72,222
1013,12	25,926
1013,29	229,167
1013,45	-38,235
1013,61	-1480,000
1013,77	33,333
1013,94	187,500
1014,10	2100,000
1014,26	-79,412
1014,43	284,211
1014,59	0,000
1014,75	130,000
1014,91	214,286
1015,08	157,692
1015,24	153,333
1015,40	453,333
1015,56	270,588
1015,73	212,245
1015,89	344,444
1016,05	181,081
1016,21	251,852
1016,38	134,211
1016,54	-144,000
1016,70	378,947
1016,86	-315,385
1017,03	0,000
1017,19	562,500
1017,35	183,333
1017,51	-100,000
1017,68	685,714
1017,84	278,947
1018,00	-52,381
1018,16	-443,750
1018,33	345,455
1018,49	328,571
1018,65	-159,091
1018,81	-14,634
1018,97	407,692
1019,14	-500,000
1019,30	352,381
1019,46	176,923
1019,62	1650,000
1019,79	-171,429
1019,95	-475,000
1020,11	440,000
1020,27	97,500
1020,43	-750,000
1020,60	0,000
1020,76	80,882
1020,92	9600,000
1021,08	-86,667
1021,24	-150,000
1021,41	233,333
1021,57	-229,167
1021,73	0,000
1021,89	-209,091
1022,05	217,143
1022,21	-253,846
1022,38	205,263
1022,54	840,000
1022,70	96,296
1022,86	-2400,000
1023,02	411,111
1023,19	-340,000
1023,35	167,925
1023,51	248,387
1023,67	89,474
1023,83	590,909
1023,99	182,857
1024,16	-53,846
1024,32	150,000
1024,48	193,878
1024,64	-240,000
1024,80	366,667
1024,96	261,538
1025,12	1533,333
1025,29	-0,000
1025,45	137,500
1025,61	1633,333
1025,77	233,333
1025,93	-138,462
1026,09	3350,000
1026,26	-542,857
1026,42	-900,000
1026,58	115,385
1026,74	514,286
1026,90	452,632
1027,06	-310,000
1027,22	-408,333
1027,38	766,667
1027,55	-236,000
1027,71	525,000
1027,87	145,000
1028,03	12,121
1028,19	-106,061
1028,35	62,162
1028,51	16,129
1028,67	-80,000
1028,83	73,810
1029,00	378,571
1029,16	-206,667
1029,32	76,471
1029,48	2950,000
1029,64	757,143
1029,80	1350,000
1029,96	125,490
1030,12	412,500
1030,28	1500,000
1030,44	-650,000
1030,61	140,625
1030,77	-160,870
1030,93	155,814
1031,09	-135,714
1031,25	-811,111
1031,41	-1100,000
1031,57	5,263
1031,73	390,909
1031,89	-81,818
1032,05	1228,571
1032,21	870,000
1032,37	-97,059
1032,53	-30,000
1032,69	-1600,000
1032,86	1066,667
1033,02	93,750
1033,18	-515,385
1033,34	23,077
1033,50	209,677
1033,66	-233,333
1033,82	314,286
1033,98	-211,765
1034,14	588,889
1034,30	-213,636
1034,46	258,333
1034,62	344,444
1034,78	168,254
1034,94	-51,613
1035,10	-236,364
1035,26	-600,000
1035,42	74,286
1035,58	-20,000
1035,74	40,000
1035,90	-466,667
1036,06	141,509
1036,22	-108,000
1036,38	320,000
1036,54	560,000
1036,70	-3050,000
1036,86	-314,286
1037,02	-1100,000
1037,18	-39,286
1037,34	160,870
1037,50	-386,667
1037,66	-2400,000
1037,82	-94,118
1037,98	304,762
1038,14	-17,241
1038,30	61,538
1038,46	143,750
1038,62	132,258
1038,78	190,476
1038,94	-60,526
1039,10	-166,667
1039,26	-142,105
1039,42	-1028,571
1039,58	124,528
1039,74	9,375
1039,90	-112,821
1040,06	470,588
>>>>>End Processed Spectral Data<<<<<
