SpectraSuite Data File
++++++++++++++++++++++++++++++++++++
Date: Thu Feb 02 17:21:41 EET 2017
User: optolab
Dark Spectrum Present: Yes
Reference Spectrum Present: Yes
Number of Sampled Component Spectra: 1
Spectrometers: USB4C02475
Integration Time (usec): 100000 (USB4C02475)
Spectra Averaged: 1 (USB4C02475)
Boxcar Smoothing: 0 (USB4C02475)
Correct for Electrical Dark: No (USB4C02475)
Strobe/Lamp Enabled: No (USB4C02475)
Correct for Detector Non-linearity: No (USB4C02475)
Correct for Stray Light: No (USB4C02475)
Number of Pixels in Processed Spectrum: 3648
>>>>>Begin Processed Spectral Data<<<<<
344,91	-925,000
345,13	-925,000
345,35	-925,000
345,57	-64,706
345,79	13,043
346,00	47,059
346,22	-1042,857
346,44	-66,667
346,66	131,915
346,87	208,696
347,09	300,000
347,31	3600,000
347,53	-2200,000
347,74	-51,163
347,96	-557,143
348,18	208,824
348,40	352,941
348,61	-130,769
348,83	7100,000
349,05	194,872
349,27	441,176
349,48	-4100,000
349,70	407,143
349,92	9,524
350,14	129,730
350,35	-92,308
350,57	-216,667
350,79	66,667
351,01	-180,000
351,22	20,000
351,44	416,667
351,66	16,667
351,87	900,000
352,09	89,474
352,31	175,000
352,53	220,000
352,74	-885,714
352,96	94,737
353,18	103,125
353,40	-337,500
353,61	653,333
353,83	143,750
354,05	321,875
354,26	117,857
354,48	-960,000
354,70	395,238
354,92	327,778
355,13	6,977
355,35	133,333
355,57	168,750
355,78	-7,143
356,00	87,234
356,22	209,091
356,44	86,047
356,65	-78,571
356,87	94,444
357,09	71,429
357,30	113,636
357,52	-816,667
357,74	219,355
357,95	202,857
358,17	53,623
358,39	248,000
358,60	180,556
358,82	250,000
359,04	205,128
359,26	100,000
359,47	-384,615
359,69	235,714
359,91	360,000
360,12	330,000
360,34	44,444
360,56	850,000
360,77	522,222
360,99	266,667
361,21	143,478
361,42	-1900,000
361,64	-125,926
361,86	79,104
362,07	546,667
362,29	152,500
362,51	194,595
362,72	80,000
362,94	166,667
363,16	100,000
363,37	663,636
363,59	-6300,000
363,81	1137,500
364,02	84,000
364,24	150,000
364,46	161,905
364,67	130,952
364,89	282,353
365,11	254,054
365,32	200,000
365,54	262,500
365,76	81,818
365,97	239,024
366,19	110,526
366,41	800,000
366,62	103,000
366,84	400,000
367,05	100,000
367,27	960,000
367,49	205,128
367,70	366,667
367,92	45,833
368,14	92,308
368,35	95,588
368,57	66,667
368,79	292,308
369,00	58,974
369,22	111,111
369,43	231,579
369,65	-110,345
369,87	-194,118
370,08	210,000
370,30	300,000
370,51	63,636
370,73	194,444
370,95	125,000
371,16	103,509
371,38	132,075
371,60	123,333
371,81	98,913
372,03	-775,000
372,24	-137,500
372,46	1866,667
372,68	117,647
372,89	50,459
373,11	55,814
373,32	48,739
373,54	272,727
373,76	294,444
373,97	-27,273
374,19	-205,263
374,40	81,429
374,62	341,176
374,84	187,500
375,05	130,769
375,27	140,541
375,48	48,148
375,70	129,412
375,92	107,143
376,13	184,211
376,35	275,000
376,56	365,000
376,78	57,143
376,99	175,758
377,21	93,750
377,43	106,061
377,64	120,000
377,86	312,500
378,07	45,455
378,29	36,111
378,51	141,667
378,72	-122,727
378,94	132,609
379,15	95,455
379,37	231,250
379,58	66,667
379,80	50,000
380,01	96,000
380,23	130,435
380,45	131,250
380,66	94,444
380,88	118,919
381,09	282,609
381,31	238,462
381,52	200,000
381,74	162,500
381,95	260,714
382,17	256,000
382,39	72,581
382,60	423,529
382,82	265,517
383,03	766,667
383,25	39,506
383,46	416,667
383,68	200,000
383,89	250,000
384,11	109,589
384,32	165,789
384,54	-914,286
384,76	150,000
384,97	360,000
385,19	0,000
385,40	231,250
385,62	187,097
385,83	217,021
386,05	657,143
386,26	184,615
386,48	638,462
386,69	247,222
386,91	280,000
387,12	156,410
387,34	100,000
387,55	165,714
387,77	332,000
387,98	48,980
388,20	152,113
388,41	66,667
388,63	161,429
388,84	155,000
389,06	132,558
389,27	71,875
389,49	128,916
389,70	103,390
389,92	-2,273
390,13	100,000
390,35	59,375
390,56	134,375
390,78	172,727
390,99	124,444
391,21	109,091
391,42	23,913
391,64	-300,000
391,85	112,069
392,07	-200,000
392,28	103,846
392,50	1120,000
392,71	400,000
392,93	101,613
393,14	154,348
393,36	58,974
393,57	250,000
393,79	69,841
394,00	95,890
394,22	86,000
394,43	282,143
394,65	150,000
394,86	106,250
395,08	-437,500
395,29	48,936
395,50	-3700,000
395,72	14,286
395,93	416,000
396,15	-214,286
396,36	113,333
396,58	-133,333
396,79	204,651
397,01	197,619
397,22	107,246
397,44	85,106
397,65	86,486
397,87	94,286
398,08	50,000
398,29	316,667
398,51	270,732
398,72	158,696
398,94	190,698
399,15	50,000
399,37	139,130
399,58	88,889
399,80	20,000
400,01	188,235
400,22	385,714
400,44	161,905
400,65	63,014
400,87	800,000
401,08	93,258
401,30	168,000
401,51	107,273
401,72	79,032
401,94	163,415
402,15	55,102
402,37	84,091
402,58	188,372
402,80	187,500
403,01	2,778
403,22	89,157
403,44	100,000
403,65	85,714
403,87	52,000
404,08	109,615
404,30	115,625
404,51	102,857
404,72	590,909
404,94	90,361
405,15	141,791
405,37	115,385
405,58	138,710
405,79	471,429
406,01	104,444
406,22	48,810
406,44	135,088
406,65	69,048
406,86	132,000
407,08	85,185
407,29	130,667
407,51	54,808
407,72	119,802
407,93	69,620
408,15	64,773
408,36	251,429
408,58	100,833
408,79	82,946
409,00	99,291
409,22	105,882
409,43	76,577
409,64	53,205
409,86	111,364
410,07	84,348
410,29	51,333
410,50	84,127
410,71	112,903
410,93	99,010
411,14	128,972
411,35	125,000
411,57	70,139
411,78	86,765
412,00	88,667
412,21	98,230
412,42	86,829
412,64	112,222
412,85	97,927
413,06	98,214
413,28	87,059
413,49	99,535
413,70	98,283
413,92	102,381
414,13	82,609
414,34	76,580
414,56	111,489
414,77	101,845
414,98	85,512
415,20	106,452
415,41	100,649
415,63	92,308
415,84	94,460
416,05	101,205
416,27	92,758
416,48	90,521
416,69	104,070
416,91	124,800
417,12	92,308
417,33	102,483
417,55	92,200
417,76	103,383
417,97	91,573
418,19	94,142
418,40	94,243
418,61	97,084
418,83	89,613
419,04	83,566
419,25	100,638
419,46	97,111
419,68	90,413
419,89	90,382
420,10	93,952
420,32	99,603
420,53	92,124
420,74	92,115
420,96	84,360
421,17	83,010
421,38	80,688
421,60	82,529
421,81	76,577
422,02	74,681
422,23	78,306
422,45	71,388
422,66	71,488
422,87	68,702
423,09	72,704
423,30	67,929
423,51	67,212
423,73	64,871
423,94	66,065
424,15	61,678
424,36	64,922
424,58	54,307
424,79	52,635
425,00	47,208
425,22	43,000
425,43	40,790
425,64	37,266
425,85	34,611
426,07	34,193
426,28	32,728
426,49	32,503
426,71	31,030
426,92	31,902
427,13	33,734
427,34	33,931
427,56	35,902
427,77	32,174
427,98	33,836
428,19	31,175
428,41	30,650
428,62	28,519
428,83	23,793
429,04	20,308
429,26	17,786
429,47	17,124
429,68	12,535
429,89	9,630
430,11	8,391
430,32	7,234
430,53	4,110
430,74	4,042
430,96	2,805
431,17	2,701
431,38	1,621
431,59	0,805
431,81	1,435
432,02	2,095
432,23	2,347
432,44	1,324
432,66	0,674
432,87	0,782
433,08	0,963
433,29	0,670
433,51	1,177
433,72	1,695
433,93	0,266
434,14	0,249
434,35	0,157
434,57	0,337
434,78	1,387
434,99	0,755
435,20	1,488
435,42	1,313
435,63	0,283
435,84	1,190
436,05	0,487
436,26	-0,318
436,48	1,091
436,69	0,713
436,90	-0,215
437,11	1,112
437,32	0,636
437,54	0,756
437,75	0,443
437,96	0,707
438,17	0,782
438,38	1,006
438,60	1,044
438,81	0,840
439,02	0,637
439,23	0,762
439,44	0,520
439,66	0,802
439,87	0,273
440,08	0,527
440,29	0,802
440,50	0,911
440,72	0,613
440,93	0,663
441,14	0,423
441,35	0,299
441,56	0,441
441,77	0,306
441,99	0,198
442,20	0,426
442,41	0,304
442,62	0,071
442,83	0,537
443,04	0,082
443,26	0,442
443,47	0,615
443,68	0,344
443,89	0,268
444,10	0,471
444,31	0,753
444,53	0,720
444,74	0,389
444,95	0,131
445,16	0,359
445,37	0,195
445,58	0,198
445,80	0,269
446,01	0,595
446,22	0,547
446,43	0,267
446,64	0,116
446,85	0,261
447,06	0,469
447,28	0,321
447,49	0,250
447,70	0,505
447,91	0,448
448,12	0,081
448,33	0,090
448,54	0,268
448,76	0,308
448,97	0,252
449,18	0,311
449,39	0,247
449,60	0,315
449,81	0,450
450,02	0,345
450,23	0,395
450,45	0,372
450,66	0,124
450,87	0,333
451,08	0,295
451,29	0,584
451,50	0,483
451,71	0,153
451,92	0,336
452,13	0,098
452,35	0,168
452,56	0,156
452,77	0,654
452,98	0,544
453,19	0,378
453,40	0,712
453,61	0,468
453,82	0,428
454,03	0,265
454,25	0,251
454,46	0,383
454,67	0,135
454,88	0,479
455,09	0,742
455,30	0,465
455,51	0,223
455,72	0,447
455,93	0,453
456,14	0,401
456,35	0,355
456,56	0,282
456,78	0,686
456,99	0,608
457,20	0,265
457,41	0,490
457,62	0,239
457,83	0,492
458,04	0,608
458,25	0,231
458,46	0,553
458,67	0,475
458,88	0,362
459,09	0,369
459,30	0,485
459,51	0,546
459,73	-0,017
459,94	0,357
460,15	0,308
460,36	0,341
460,57	0,566
460,78	0,434
460,99	0,371
461,20	0,312
461,41	0,467
461,62	0,236
461,83	0,269
462,04	0,282
462,25	0,406
462,46	0,370
462,67	0,332
462,88	0,427
463,09	0,217
463,30	0,436
463,51	0,223
463,72	0,455
463,93	0,299
464,15	0,382
464,36	0,220
464,57	0,140
464,78	0,393
464,99	0,537
465,20	0,280
465,41	0,399
465,62	0,515
465,83	0,325
466,04	0,320
466,25	0,270
466,46	0,431
466,67	0,327
466,88	0,335
467,09	0,338
467,30	0,427
467,51	0,362
467,72	0,335
467,93	0,441
468,14	0,469
468,35	0,584
468,56	0,270
468,77	0,328
468,98	0,430
469,19	0,366
469,40	0,517
469,61	0,460
469,82	0,551
470,03	0,406
470,24	0,496
470,45	0,514
470,66	0,800
470,87	0,649
471,08	0,658
471,29	0,557
471,50	0,873
471,71	0,878
471,92	0,709
472,13	0,924
472,34	1,014
472,55	1,601
472,76	1,905
472,97	2,084
473,18	2,442
473,39	3,215
473,60	3,972
473,81	5,174
474,01	6,705
474,22	8,169
474,43	10,186
474,64	12,590
474,85	14,811
475,06	17,135
475,27	20,238
475,48	22,666
475,69	25,870
475,90	29,775
476,11	33,212
476,32	36,861
476,53	41,118
476,74	44,983
476,95	48,794
477,16	53,224
477,37	56,930
477,58	59,280
477,79	63,916
478,00	66,336
478,21	69,325
478,41	72,497
478,62	74,186
478,83	76,270
479,04	76,192
479,25	78,840
479,46	82,122
479,67	83,100
479,88	83,848
480,09	86,372
480,30	86,207
480,51	86,824
480,72	87,206
480,93	89,051
481,14	88,423
481,34	89,306
481,55	90,621
481,76	90,836
481,97	91,663
482,18	91,623
482,39	92,393
482,60	92,419
482,81	93,317
483,02	92,873
483,23	93,807
483,44	93,862
483,65	94,715
483,85	95,508
484,06	94,911
484,27	94,865
484,48	95,311
484,69	94,010
484,90	95,866
485,11	95,027
485,32	95,763
485,53	95,609
485,73	95,464
485,94	95,246
486,15	97,888
486,36	96,868
486,57	95,698
486,78	96,385
486,99	96,417
487,20	96,585
487,41	96,115
487,61	96,337
487,82	96,473
488,03	97,152
488,24	95,653
488,45	96,449
488,66	96,751
488,87	97,096
489,08	97,215
489,28	96,276
489,49	96,296
489,70	96,584
489,91	96,047
490,12	95,135
490,33	95,340
490,54	96,818
490,74	95,402
490,95	94,375
491,16	94,639
491,37	94,323
491,58	93,578
491,79	93,147
492,00	92,063
492,20	92,263
492,41	91,649
492,62	91,062
492,83	90,116
493,04	89,848
493,25	88,097
493,45	87,566
493,66	87,145
493,87	86,486
494,08	84,351
494,29	82,857
494,50	82,677
494,70	80,666
494,91	80,151
495,12	79,536
495,33	78,411
495,54	77,585
495,75	76,566
495,95	75,695
496,16	73,710
496,37	72,611
496,58	72,872
496,79	71,381
496,99	69,219
497,20	67,705
497,41	63,695
497,62	61,540
497,83	58,454
498,04	55,242
498,24	52,468
498,45	47,889
498,66	43,921
498,87	40,910
499,08	36,915
499,28	32,642
499,49	29,084
499,70	25,210
499,91	21,685
500,12	18,421
500,32	15,997
500,53	13,317
500,74	11,471
500,95	9,238
501,15	7,542
501,36	6,352
501,57	4,944
501,78	3,821
501,99	3,114
502,19	2,194
502,40	1,932
502,61	1,248
502,82	1,096
503,02	0,813
503,23	0,664
503,44	0,922
503,65	0,785
503,86	0,421
504,06	0,530
504,27	0,587
504,48	0,386
504,69	0,610
504,89	0,380
505,10	0,371
505,31	0,635
505,52	0,496
505,72	0,657
505,93	0,445
506,14	0,353
506,35	0,358
506,55	0,399
506,76	0,244
506,97	0,336
507,18	0,337
507,38	0,261
507,59	0,405
507,80	0,312
508,01	0,361
508,21	0,210
508,42	0,290
508,63	0,410
508,84	0,469
509,04	0,455
509,25	0,440
509,46	0,321
509,67	0,430
509,87	0,401
510,08	0,386
510,29	0,137
510,49	0,494
510,70	0,527
510,91	0,444
511,12	0,453
511,32	0,345
511,53	0,578
511,74	0,285
511,94	0,151
512,15	0,297
512,36	0,132
512,57	0,392
512,77	0,405
512,98	0,255
513,19	0,417
513,39	0,335
513,60	0,258
513,81	0,401
514,01	0,370
514,22	0,368
514,43	0,371
514,64	0,342
514,84	0,632
515,05	0,213
515,26	0,318
515,46	0,136
515,67	0,231
515,88	0,367
516,08	0,380
516,29	0,204
516,50	0,250
516,70	0,292
516,91	0,377
517,12	0,274
517,32	0,255
517,53	0,313
517,74	0,520
517,95	0,517
518,15	0,400
518,36	0,385
518,57	0,187
518,77	0,349
518,98	0,297
519,19	0,355
519,39	0,470
519,60	0,220
519,80	0,202
520,01	0,311
520,22	0,418
520,42	0,267
520,63	0,383
520,84	0,303
521,04	0,341
521,25	0,441
521,46	0,219
521,66	0,231
521,87	0,281
522,08	0,213
522,28	0,512
522,49	0,256
522,70	0,352
522,90	0,380
523,11	0,216
523,31	0,299
523,52	0,277
523,73	0,190
523,93	0,253
524,14	0,246
524,35	0,377
524,55	0,444
524,76	0,243
524,97	0,297
525,17	0,202
525,38	0,246
525,58	0,296
525,79	0,380
526,00	0,156
526,20	0,345
526,41	0,387
526,61	0,221
526,82	0,252
527,03	0,328
527,23	0,244
527,44	0,342
527,64	0,373
527,85	0,165
528,06	0,372
528,26	0,217
528,47	0,330
528,68	0,427
528,88	0,288
529,09	0,322
529,29	0,393
529,50	0,288
529,70	0,356
529,91	0,359
530,12	0,282
530,32	0,345
530,53	0,447
530,73	0,128
530,94	0,512
531,15	0,074
531,35	0,476
531,56	0,520
531,76	0,500
531,97	0,345
532,17	0,455
532,38	0,330
532,59	0,555
532,79	0,456
533,00	0,145
533,20	0,392
533,41	0,303
533,61	0,544
533,82	0,221
534,03	0,235
534,23	0,382
534,44	0,532
534,64	0,387
534,85	0,289
535,05	0,314
535,26	0,267
535,46	0,384
535,67	0,248
535,88	0,417
536,08	0,415
536,29	0,412
536,49	0,500
536,70	0,562
536,90	0,618
537,11	0,632
537,31	0,718
537,52	0,579
537,72	0,791
537,93	0,818
538,13	0,690
538,34	0,978
538,55	1,158
538,75	1,056
538,96	1,658
539,16	1,893
539,37	2,418
539,57	2,913
539,78	3,383
539,98	4,009
540,19	4,696
540,39	5,426
540,60	6,971
540,80	8,005
541,01	9,401
541,21	10,799
541,42	12,287
541,62	14,425
541,83	15,996
542,03	17,969
542,24	19,954
542,44	22,320
542,65	24,300
542,85	26,535
543,06	28,998
543,26	31,442
543,47	33,324
543,67	36,460
543,88	38,144
544,08	40,183
544,29	42,733
544,49	43,624
544,70	46,633
544,90	49,348
545,11	51,191
545,31	53,605
545,52	56,615
545,72	58,681
545,93	61,321
546,13	63,877
546,34	65,780
546,54	68,914
546,75	70,930
546,95	73,371
547,15	75,038
547,36	76,293
547,56	78,349
547,77	78,788
547,97	80,247
548,18	81,219
548,38	81,073
548,59	82,244
548,79	82,096
549,00	81,471
549,20	80,779
549,41	81,125
549,61	80,653
549,81	79,753
550,02	79,859
550,22	79,803
550,43	80,368
550,63	80,095
550,84	80,601
551,04	80,514
551,25	80,846
551,45	82,839
551,65	81,688
551,86	82,811
552,06	84,734
552,27	84,342
552,47	85,553
552,68	87,102
552,88	87,241
553,08	88,695
553,29	88,395
553,49	88,598
553,70	88,689
553,90	90,154
554,11	89,996
554,31	88,786
554,51	88,486
554,72	88,667
554,92	88,062
555,13	87,384
555,33	87,618
555,53	86,281
555,74	87,183
555,94	86,287
556,15	85,292
556,35	85,056
556,56	84,802
556,76	84,753
556,96	83,615
557,17	83,209
557,37	82,324
557,58	81,798
557,78	79,950
557,98	79,014
558,19	78,893
558,39	76,484
558,59	75,548
558,80	73,576
559,00	70,939
559,21	69,396
559,41	66,300
559,61	63,961
559,82	62,306
560,02	59,721
560,23	57,674
560,43	55,725
560,63	53,312
560,84	52,265
561,04	49,966
561,24	49,368
561,45	47,807
561,65	46,703
561,85	45,203
562,06	44,334
562,26	43,178
562,47	42,102
562,67	41,785
562,87	40,694
563,08	40,364
563,28	39,737
563,48	38,411
563,69	37,429
563,89	37,318
564,09	35,846
564,30	34,581
564,50	32,989
564,70	31,509
564,91	29,694
565,11	27,542
565,31	26,355
565,52	24,294
565,72	22,887
565,92	21,326
566,13	19,627
566,33	18,478
566,53	17,047
566,74	15,501
566,94	14,518
567,14	13,340
567,35	11,446
567,55	9,346
567,75	8,182
567,96	6,259
568,16	5,185
568,36	3,912
568,57	3,087
568,77	2,232
568,97	1,837
569,18	1,440
569,38	1,100
569,58	0,853
569,79	0,676
569,99	0,592
570,19	0,538
570,39	0,282
570,60	0,507
570,80	0,244
571,00	0,249
571,21	0,321
571,41	0,331
571,61	0,281
571,82	0,410
572,02	0,314
572,22	0,030
572,42	0,281
572,63	0,316
572,83	0,399
573,03	0,239
573,24	0,156
573,44	0,229
573,64	0,215
573,84	0,093
574,05	0,100
574,25	0,063
574,45	0,199
574,66	0,392
574,86	0,330
575,06	0,371
575,26	0,224
575,47	0,251
575,67	0,370
575,87	0,414
576,07	0,206
576,28	0,218
576,48	0,163
576,68	0,270
576,88	0,374
577,09	0,055
577,29	0,364
577,49	0,197
577,69	0,063
577,90	0,116
578,10	0,118
578,30	0,327
578,50	0,340
578,71	0,313
578,91	0,181
579,11	0,140
579,31	0,207
579,52	0,249
579,72	0,258
579,92	0,339
580,12	0,180
580,33	0,170
580,53	0,058
580,73	0,357
580,93	0,210
581,13	0,163
581,34	0,070
581,54	0,244
581,74	0,107
581,94	0,283
582,15	0,170
582,35	-0,045
582,55	0,345
582,75	0,165
582,95	0,316
583,16	0,132
583,36	0,059
583,56	0,229
583,76	0,103
583,96	0,169
584,17	0,196
584,37	0,147
584,57	0,149
584,77	0,103
584,97	0,132
585,18	0,052
585,38	0,137
585,58	0,184
585,78	0,170
585,98	0,015
586,19	0,204
586,39	0,247
586,59	0,177
586,79	0,300
586,99	0,066
587,20	0,161
587,40	0,260
587,60	0,063
587,80	0,128
588,00	0,183
588,20	0,153
588,41	0,121
588,61	0,318
588,81	0,219
589,01	0,181
589,21	0,223
589,41	0,127
589,62	0,190
589,82	0,117
590,02	0,073
590,22	0,164
590,42	0,201
590,62	0,081
590,83	-0,026
591,03	0,015
591,23	0,080
591,43	0,233
591,63	0,186
591,83	0,083
592,03	0,186
592,24	0,195
592,44	0,153
592,64	0,263
592,84	0,236
593,04	0,033
593,24	0,116
593,44	0,152
593,65	0,217
593,85	0,144
594,05	0,140
594,25	0,084
594,45	0,072
594,65	0,108
594,85	-0,014
595,06	0,262
595,26	0,253
595,46	0,091
595,66	0,108
595,86	0,126
596,06	0,206
596,26	0,170
596,46	0,158
596,66	-0,029
596,87	0,217
597,07	0,188
597,27	0,025
597,47	0,150
597,67	0,022
597,87	0,014
598,07	0,176
598,27	0,084
598,47	0,173
598,67	0,033
598,88	0,099
599,08	0,203
599,28	0,291
599,48	0,011
599,68	0,209
599,88	-0,022
600,08	0,178
600,28	0,159
600,48	0,170
600,68	0,108
600,88	0,168
601,09	0,146
601,29	0,093
601,49	0,053
601,69	0,162
601,89	0,252
602,09	0,223
602,29	0,034
602,49	-0,004
602,69	0,004
602,89	0,110
603,09	0,163
603,29	0,129
603,49	0,069
603,69	0,217
603,90	0,015
604,10	0,201
604,30	0,278
604,50	0,186
604,70	0,004
604,90	0,137
605,10	0,183
605,30	0,077
605,50	0,034
605,70	0,124
605,90	0,046
606,10	0,115
606,30	0,039
606,50	0,329
606,70	0,093
606,90	0,043
607,10	0,174
607,30	0,248
607,50	0,271
607,70	0,066
607,90	0,249
608,10	0,336
608,30	0,289
608,50	0,285
608,70	0,352
608,90	0,179
609,11	0,035
609,31	0,264
609,51	0,112
609,71	-0,039
609,91	0,019
610,11	0,259
610,31	0,140
610,51	0,175
610,71	0,094
610,91	0,169
611,11	0,039
611,31	0,106
611,51	-0,008
611,71	0,024
611,91	0,245
612,11	0,098
612,31	0,174
612,51	0,130
612,71	-0,012
612,91	0,016
613,11	0,016
613,31	-0,024
613,51	-0,008
613,71	-0,032
613,91	0,333
614,11	0,223
614,31	0,028
614,50	0,331
614,70	0,146
614,90	0,032
615,10	0,189
615,30	0,135
615,50	0,179
615,70	0,385
615,90	0,004
616,10	0,108
616,30	0,270
616,50	0,114
616,70	0,104
616,90	0,170
617,10	0,322
617,30	0,123
617,50	0,186
617,70	0,076
617,90	0,174
618,10	0,138
618,30	-0,032
618,50	0,218
618,70	0,043
618,90	0,008
619,10	0,051
619,30	-0,132
619,49	0,174
619,69	0,083
619,89	0,166
620,09	0,071
620,29	0,273
620,49	0,246
620,69	0,059
620,89	0,123
621,09	0,012
621,29	0,004
621,49	0,137
621,69	0,101
621,89	0,407
622,09	0,187
622,29	-0,125
622,48	0,192
622,68	0,082
622,88	0,249
623,08	0,287
623,28	0,085
623,48	0,172
623,68	0,196
623,88	0,019
624,08	0,023
624,28	0,197
624,48	0,239
624,67	0,194
624,87	-0,061
625,07	0,207
625,27	0,096
625,47	0,162
625,67	0,196
625,87	0,103
626,07	0,111
626,27	0,110
626,47	0,283
626,66	0,184
626,86	0,117
627,06	0,168
627,26	0,251
627,46	-0,004
627,66	0,004
627,86	0,075
628,06	0,124
628,25	0,207
628,45	0,048
628,65	0,202
628,85	0,242
629,05	0,381
629,25	0,141
629,45	0,150
629,65	0,048
629,84	0,038
630,04	0,255
630,24	0,132
630,44	0,045
630,64	0,140
630,84	0,096
631,04	0,229
631,23	0,008
631,43	-0,096
631,63	-0,075
631,83	0,082
632,03	0,219
632,23	0,004
632,42	0,138
632,62	0,344
632,82	0,174
633,02	0,118
633,22	-0,089
633,42	0,184
633,62	0,100
633,81	-0,044
634,01	0,116
634,21	0,027
634,41	0,232
634,61	0,169
634,80	0,098
635,00	0,135
635,20	0,164
635,40	-0,024
635,60	0,206
635,80	0,212
635,99	0,357
636,19	0,191
636,39	0,141
636,59	0,154
636,79	0,134
636,98	0,214
637,18	0,185
637,38	0,228
637,58	-0,011
637,78	0,254
637,97	0,022
638,17	0,133
638,37	0,188
638,57	0,135
638,77	0,182
638,96	0,154
639,16	0,254
639,36	0,247
639,56	0,425
639,76	0,300
639,95	0,077
640,15	0,101
640,35	-0,133
640,55	0,302
640,75	0,372
640,94	0,139
641,14	0,345
641,34	0,191
641,54	-0,025
641,73	-0,081
641,93	0,209
642,13	0,174
642,33	0,280
642,53	0,331
642,72	0,364
642,92	0,202
643,12	0,313
643,32	0,310
643,51	0,401
643,71	0,241
643,91	-0,027
644,11	0,363
644,30	-0,007
644,50	0,384
644,70	0,112
644,90	0,373
645,09	0,361
645,29	0,170
645,49	0,321
645,69	0,029
645,88	0,245
646,08	0,058
646,28	0,431
646,48	-0,037
646,67	0,029
646,87	0,221
647,07	0,052
647,26	0,485
647,46	0,340
647,66	-0,053
647,86	0,370
648,05	0,402
648,25	0,366
648,45	0,132
648,65	-0,008
648,84	0,038
649,04	0,641
649,24	0,601
649,43	0,331
649,63	0,109
649,83	0,188
650,03	0,314
650,22	0,337
650,42	0,270
650,62	0,135
650,81	0,274
651,01	0,232
651,21	-0,032
651,40	0,444
651,60	0,178
651,80	0,057
652,00	0,447
652,19	0,344
652,39	0,260
652,59	0,494
652,78	0,222
652,98	-0,050
653,18	0,209
653,37	0,627
653,57	0,484
653,77	0,376
653,96	0,068
654,16	0,487
654,36	0,051
654,55	-0,160
654,75	0,345
654,95	0,494
655,14	0,129
655,34	0,743
655,54	0,138
655,73	0,174
655,93	0,157
656,13	0,122
656,32	0,035
656,52	0,132
656,72	0,078
656,91	0,415
657,11	0,293
657,31	0,078
657,50	0,216
657,70	0,243
657,90	0,756
658,09	0,191
658,29	0,216
658,49	0,271
658,68	0,043
658,88	0,113
659,07	0,253
659,27	0,087
659,47	0,096
659,66	0,318
659,86	0,332
660,06	-0,268
660,25	0,071
660,45	0,113
660,64	0,334
660,84	0,427
661,04	0,429
661,23	0,378
661,43	0,316
661,63	0,335
661,82	-0,078
662,02	0,295
662,21	0,253
662,41	0,699
662,61	0,495
662,80	0,360
663,00	0,121
663,19	0,611
663,39	-0,285
663,59	0,439
663,78	0,636
663,98	0,325
664,17	0,358
664,37	0,241
664,57	0,120
664,76	0,416
664,96	0,145
665,15	-0,077
665,35	0,381
665,55	-0,068
665,74	0,245
665,94	0,439
666,13	0,108
666,33	0,388
666,53	0,376
666,72	-0,017
666,92	0,495
667,11	0,383
667,31	-0,099
667,50	0,017
667,70	0,501
667,90	-0,139
668,09	0,385
668,29	0,147
668,48	0,236
668,68	0,236
668,87	0,105
669,07	-0,080
669,26	0,136
669,46	0,304
669,66	0,032
669,85	0,402
670,05	0,008
670,24	0,016
670,44	0,567
670,63	0,171
670,83	0,211
671,02	0,117
671,22	0,178
671,42	-0,062
671,61	0,416
671,81	-0,062
672,00	0,515
672,20	0,205
672,39	0,060
672,59	-0,008
672,78	0,023
672,98	0,136
673,17	0,059
673,37	0,112
673,56	0,203
673,76	-0,189
673,95	0,212
674,15	0,058
674,34	-0,107
674,54	0,335
674,73	0,363
674,93	0,092
675,13	0,355
675,32	0,547
675,52	0,210
675,71	0,370
675,91	0,286
676,10	0,233
676,30	0,158
676,49	-0,061
676,69	0,401
676,88	0,119
677,08	0,144
677,27	0,085
677,47	0,215
677,66	0,226
677,86	0,237
678,05	0,064
678,24	0,102
678,44	0,488
678,63	0,118
678,83	0,118
679,02	0,295
679,22	0,247
679,41	0,238
679,61	0,206
679,80	0,065
680,00	-0,012
680,19	0,211
680,39	0,383
680,58	0,203
680,78	0,000
680,97	-0,006
681,17	0,266
681,36	-0,062
681,56	0,056
681,75	0,022
681,94	-0,006
682,14	0,339
682,33	0,239
682,53	0,189
682,72	0,344
682,92	0,256
683,11	-0,111
683,31	0,226
683,50	0,031
683,69	-0,093
683,89	0,154
684,08	0,197
684,28	-0,179
684,47	0,175
684,67	0,149
684,86	0,153
685,06	0,084
685,25	0,270
685,44	0,169
685,64	0,299
685,83	0,285
686,03	0,028
686,22	0,111
686,42	0,097
686,61	0,150
686,80	-0,014
687,00	0,041
687,19	0,133
687,39	0,093
687,58	0,252
687,77	0,222
687,97	0,252
688,16	0,235
688,36	0,204
688,55	0,035
688,74	-0,136
688,94	0,094
689,13	0,000
689,33	0,117
689,52	0,144
689,71	0,116
689,91	-0,008
690,10	0,126
690,30	-0,105
690,49	-0,028
690,68	0,310
690,88	-0,024
691,07	0,095
691,27	0,031
691,46	0,142
691,65	0,126
691,85	0,098
692,04	0,040
692,23	0,008
692,43	0,277
692,62	0,196
692,82	0,220
693,01	0,100
693,20	0,008
693,40	-0,048
693,59	0,012
693,78	0,181
693,98	-0,061
694,17	0,029
694,36	0,282
694,56	0,080
694,75	0,051
694,94	0,051
695,14	0,162
695,33	0,290
695,53	0,221
695,72	0,201
695,91	-0,357
696,11	0,118
696,30	0,221
696,49	-0,049
696,69	0,066
696,88	-0,010
697,07	0,130
697,27	-0,027
697,46	0,159
697,65	-0,017
697,85	0,111
698,04	0,201
698,23	-0,006
698,43	0,374
698,62	-0,206
698,81	0,375
699,01	0,301
699,20	0,203
699,39	0,187
699,58	0,240
699,78	0,046
699,97	0,251
700,16	-0,170
700,36	0,326
700,55	0,285
700,74	0,674
700,94	0,359
701,13	0,275
701,32	0,418
701,52	-0,030
701,71	0,512
701,90	0,128
702,09	0,553
702,29	0,381
702,48	0,034
702,67	0,452
702,87	0,406
703,06	0,388
703,25	1,182
703,44	0,605
703,64	0,484
703,83	0,874
704,02	0,461
704,22	0,502
704,41	-0,015
704,60	0,031
704,79	0,641
704,99	0,943
705,18	1,660
705,37	0,466
705,56	0,507
705,76	0,957
705,95	1,571
706,14	0,967
706,33	0,178
706,53	1,095
706,72	0,293
706,91	0,715
707,11	-0,021
707,30	-0,517
707,49	0,639
707,68	1,796
707,88	1,043
708,07	-0,146
708,26	1,044
708,45	0,727
708,64	1,298
708,84	1,078
709,03	0,378
709,22	0,808
709,41	1,314
709,61	0,000
709,80	0,682
709,99	0,511
710,18	1,634
710,38	0,126
710,57	0,095
710,76	-0,164
710,95	0,879
711,14	0,298
711,34	0,860
711,53	1,890
711,72	1,356
711,91	2,251
712,11	2,238
712,30	0,346
712,49	1,914
712,68	-0,435
712,87	1,388
713,07	1,084
713,26	0,000
713,45	-1,665
713,64	0,611
713,83	-0,528
714,03	0,671
714,22	1,584
714,41	2,328
714,60	1,993
714,79	-0,048
714,99	1,800
715,18	4,148
715,37	2,962
715,56	2,297
715,75	1,201
715,94	2,953
716,14	3,133
716,33	2,653
716,52	2,987
716,71	3,666
716,90	2,664
717,10	-1,002
717,29	0,844
717,48	-0,278
717,67	1,861
717,86	0,692
718,05	1,991
718,24	-0,832
718,44	1,121
718,63	-1,156
718,82	1,562
719,01	2,179
719,20	3,111
719,39	1,438
719,59	0,781
719,78	0,334
719,97	2,075
720,16	4,435
720,35	1,583
720,54	-0,629
720,73	5,597
720,93	1,157
721,12	1,006
721,31	1,822
721,50	3,927
721,69	1,487
721,88	7,296
722,07	1,800
722,27	4,215
722,46	3,298
722,65	0,794
722,84	1,774
723,03	2,390
723,22	3,062
723,41	3,571
723,60	0,327
723,79	7,096
723,99	5,448
724,18	4,818
724,37	-0,272
724,56	2,726
724,75	1,565
724,94	7,095
725,13	-2,318
725,32	6,211
725,51	0,372
725,71	3,815
725,90	3,592
726,09	2,466
726,28	2,193
726,47	-2,170
726,66	3,339
726,85	2,844
727,04	1,427
727,23	4,489
727,42	5,046
727,61	2,675
727,81	-4,649
728,00	2,495
728,19	2,709
728,38	2,183
728,57	4,063
728,76	6,867
728,95	9,583
729,14	3,030
729,33	2,366
729,52	5,512
729,71	5,206
729,90	4,286
730,09	0,937
730,28	6,177
730,48	3,273
730,67	2,902
730,86	10,520
731,05	2,800
731,24	0,610
731,43	5,575
731,62	3,551
731,81	1,135
732,00	8,623
732,19	-1,442
732,38	6,154
732,57	4,890
732,76	0,000
732,95	3,732
733,14	-1,004
733,33	5,820
733,52	1,826
733,71	5,452
733,90	-0,424
734,09	7,703
734,28	2,493
734,47	5,278
734,66	5,348
734,85	6,000
735,04	3,281
735,23	7,983
735,42	7,104
735,61	3,790
735,81	5,325
736,00	-2,991
736,19	5,775
736,38	7,335
736,57	6,722
736,76	4,234
736,95	4,618
737,14	7,656
737,33	4,950
737,52	2,923
737,71	-0,656
737,90	8,346
738,09	6,545
738,28	7,474
738,47	1,277
738,66	4,647
738,85	2,252
739,04	2,744
739,22	6,522
739,41	1,471
739,60	0,683
739,79	1,799
739,98	-0,717
740,17	7,679
740,36	9,765
740,55	8,121
740,74	14,408
740,93	6,119
741,12	1,786
741,31	6,866
741,50	1,701
741,69	7,257
741,88	0,791
742,07	11,051
742,26	16,190
742,45	9,221
742,64	3,291
742,83	8,142
743,02	8,211
743,21	13,538
743,40	-5,590
743,59	12,132
743,78	9,198
743,97	10,577
744,16	12,598
744,34	3,263
744,53	13,608
744,72	10,438
744,91	1,891
745,10	14,675
745,29	12,702
745,48	4,773
745,67	2,961
745,86	10,155
746,05	2,844
746,24	4,536
746,43	11,135
746,62	12,500
746,81	13,034
747,00	15,974
747,18	10,240
747,37	14,947
747,56	16,471
747,75	-0,739
747,94	7,282
748,13	12,975
748,32	4,048
748,51	13,706
748,70	13,216
748,89	8,899
749,08	-1,453
749,26	8,811
749,45	-0,536
749,64	9,572
749,83	19,775
750,02	16,304
750,21	2,036
750,40	15,789
750,59	8,579
750,78	14,464
750,96	8,011
751,15	12,150
751,34	5,966
751,53	3,279
751,72	11,268
751,91	6,995
752,10	3,403
752,29	2,667
752,47	1,146
752,66	-3,810
752,85	0,000
753,04	13,687
753,23	5,882
753,42	8,625
753,61	14,107
753,80	3,093
753,98	11,364
754,17	11,550
754,36	1,613
754,55	2,108
754,74	8,442
754,93	19,559
755,12	10,979
755,30	10,390
755,49	8,721
755,68	12,577
755,87	10,355
756,06	11,111
756,25	13,678
756,43	-4,362
756,62	18,323
756,81	12,583
757,00	12,500
757,19	1,042
757,38	-0,772
757,56	-8,400
757,75	10,922
757,94	-7,985
758,13	7,534
758,32	19,881
758,51	2,020
758,69	-11,969
758,88	9,091
759,07	10,479
759,26	7,420
759,45	12,632
759,63	-4,762
759,82	8,070
760,01	4,762
760,20	25,157
760,39	23,344
760,57	9,756
760,76	28,920
760,95	32,292
761,14	17,883
761,33	9,355
761,51	22,500
761,70	10,037
761,89	-1,333
762,08	17,472
762,27	9,025
762,45	9,783
762,64	11,558
762,83	33,466
763,02	4,783
763,21	-18,500
763,39	10,140
763,58	23,048
763,77	13,080
763,96	12,749
764,14	19,167
764,33	20,476
764,52	12,500
764,71	17,705
764,89	25,000
765,08	12,315
765,27	14,894
765,46	8,072
765,65	23,529
765,83	16,290
766,02	-12,857
766,21	3,825
766,40	21,012
766,58	10,053
766,77	17,890
766,96	12,195
767,15	24,370
767,33	19,324
767,52	12,227
767,71	2,632
767,90	15,075
768,08	8,383
768,27	28,862
768,46	25,877
768,64	6,019
768,83	7,843
769,02	1,478
769,21	27,604
769,39	22,143
769,58	15,584
769,77	26,064
769,96	9,910
770,14	32,240
770,33	13,084
770,52	37,410
770,70	21,081
770,89	24,865
771,08	1,205
771,27	3,158
771,45	22,353
771,64	29,091
771,83	20,098
772,01	26,289
772,20	15,920
772,39	13,924
772,57	38,308
772,76	18,243
772,95	-4,598
773,14	13,605
773,32	32,768
773,51	23,810
773,70	40,288
773,88	31,613
774,07	30,457
774,26	5,645
774,44	37,594
774,63	24,551
774,82	10,390
775,00	26,168
775,19	5,357
775,38	32,447
775,56	51,553
775,75	6,593
775,94	16,667
776,12	5,882
776,31	13,534
776,50	-15,753
776,68	-4,839
776,87	50,239
777,06	38,365
777,24	22,689
777,43	22,460
777,62	38,764
777,80	30,818
777,99	33,333
778,18	29,310
778,36	14,407
778,55	-4,237
778,74	12,500
778,92	49,383
779,11	19,091
779,29	-13,475
779,48	28,369
779,67	19,820
779,85	-15,789
780,04	18,116
780,23	22,024
780,41	34,746
780,60	32,886
780,79	29,032
780,97	32,680
781,16	38,830
781,34	36,486
781,53	37,500
781,72	21,622
781,90	27,545
782,09	-6,977
782,28	25,850
782,46	37,143
782,65	0,704
782,83	7,547
783,02	50,877
783,21	45,865
783,39	47,059
783,58	40,870
783,76	39,456
783,95	46,479
784,14	43,421
784,32	-24,706
784,51	39,189
784,69	6,250
784,88	40,187
785,06	45,695
785,25	34,752
785,44	-40,323
785,62	32,143
785,81	19,444
785,99	25,564
786,18	18,018
786,37	64,835
786,55	38,889
786,74	8,182
786,92	25,175
787,11	0,694
787,29	25,893
787,48	36,559
787,67	13,208
787,85	44,304
788,04	36,036
788,22	-25,743
788,41	74,016
788,59	44,737
788,78	45,055
788,96	20,661
789,15	8,333
789,34	40,385
789,52	-19,355
789,71	10,791
789,89	6,494
790,08	7,500
790,26	43,949
790,45	52,778
790,63	6,897
790,82	16,154
791,00	46,903
791,19	37,600
791,38	-14,286
791,56	37,273
791,75	0,000
791,93	62,000
792,12	34,783
792,30	44,526
792,49	50,505
792,67	35,294
792,86	50,400
793,04	40,741
793,23	45,263
793,41	29,710
793,60	61,111
793,78	35,238
793,97	58,333
794,15	85,714
794,34	25,333
794,52	5,376
794,71	49,612
794,89	32,576
795,08	48,000
795,26	25,333
795,45	62,500
795,63	67,742
795,82	34,066
796,00	32,000
796,19	22,764
796,37	16,794
796,56	32,039
796,74	5,263
796,93	19,697
797,11	32,530
797,30	35,000
797,48	36,719
797,67	21,138
797,85	50,000
798,04	31,356
798,22	88,462
798,41	46,154
798,59	39,048
798,77	59,036
798,96	22,222
799,14	24,194
799,33	74,312
799,51	41,667
799,70	57,692
799,88	27,523
800,07	35,878
800,25	7,229
800,44	35,185
800,62	79,167
800,80	33,099
800,99	69,863
801,17	57,759
801,36	38,571
801,54	44,000
801,73	11,579
801,91	40,496
802,10	28,235
802,28	24,800
802,46	-42,105
802,65	29,496
802,83	41,333
803,02	25,806
803,20	46,988
803,39	79,310
803,57	42,520
803,75	45,528
803,94	59,524
804,12	53,103
804,31	44,928
804,49	32,000
804,67	-11,029
804,86	46,018
805,04	-19,277
805,23	29,204
805,41	19,167
805,59	93,151
805,78	63,200
805,96	22,892
806,15	49,505
806,33	38,158
806,51	48,000
806,70	45,113
806,88	48,837
807,07	72,973
807,25	15,385
807,43	66,071
807,62	21,239
807,80	30,476
807,99	35,385
808,17	34,646
808,35	33,000
808,54	34,058
808,72	70,270
808,90	33,562
809,09	42,391
809,27	-1,333
809,46	46,154
809,64	26,829
809,82	25,166
810,01	59,375
810,19	57,576
810,37	4,688
810,56	71,111
810,74	50,649
810,92	22,667
811,11	3,509
811,29	84,906
811,48	10,769
811,66	50,562
811,84	25,275
812,03	36,066
812,21	74,561
812,39	20,870
812,58	52,632
812,76	43,885
812,94	46,988
813,13	3,191
813,31	45,000
813,49	21,296
813,68	8,182
813,86	-12,360
814,04	32,231
814,23	31,325
814,41	35,955
814,59	26,214
814,78	11,029
814,96	26,415
815,14	13,084
815,33	27,132
815,51	46,457
815,69	0,000
815,87	27,723
816,06	33,043
816,24	37,888
816,42	57,353
816,61	45,912
816,79	9,483
816,97	-1,136
817,16	44,970
817,34	47,619
817,52	20,661
817,70	47,525
817,89	61,481
818,07	49,315
818,25	23,469
818,44	78,205
818,62	13,178
818,80	27,068
818,98	19,108
819,17	27,731
819,35	37,234
819,53	50,000
819,72	31,646
819,90	25,581
820,08	10,256
820,26	38,793
820,45	29,530
820,63	76,786
820,81	67,200
820,99	17,730
821,18	17,687
821,36	55,063
821,54	28,966
821,73	28,889
821,91	1,754
822,09	0,806
822,27	25,161
822,46	0,735
822,64	29,600
822,82	28,177
823,00	8,840
823,19	28,571
823,37	47,273
823,55	23,864
823,73	22,069
823,91	39,855
824,10	21,505
824,28	24,121
824,46	20,388
824,64	30,921
824,83	38,509
825,01	20,667
825,19	27,419
825,37	3,478
825,56	42,453
825,74	55,102
825,92	24,204
826,10	23,295
826,28	14,286
826,47	16,316
826,65	43,972
826,83	24,138
827,01	49,711
827,19	32,143
827,38	19,753
827,56	32,386
827,74	13,408
827,92	18,023
828,10	0,641
828,29	43,787
828,47	36,585
828,65	-0,769
828,83	-19,394
829,01	34,783
829,20	52,198
829,38	34,659
829,56	31,522
829,74	9,434
829,92	34,127
830,10	27,586
830,29	21,106
830,47	14,573
830,65	10,366
830,83	23,214
831,01	17,262
831,20	26,214
831,38	22,010
831,56	25,116
831,74	41,232
831,92	50,658
832,10	40,476
832,29	31,081
832,47	-14,045
832,65	23,039
832,83	20,188
833,01	14,500
833,19	17,195
833,37	19,457
833,56	9,705
833,74	11,275
833,92	18,519
834,10	19,087
834,28	24,895
834,46	23,077
834,64	23,148
834,83	17,273
835,01	32,780
835,19	33,200
835,37	20,248
835,55	-8,333
835,73	18,227
835,91	22,509
836,09	9,886
836,28	23,616
836,46	11,200
836,64	27,068
836,82	5,430
837,00	23,913
837,18	4,089
837,36	8,765
837,54	7,727
837,72	2,586
837,91	19,030
838,09	3,586
838,27	18,000
838,45	24,468
838,63	16,544
838,81	4,641
838,99	14,113
839,17	13,851
839,35	16,667
839,53	0,000
839,72	16,165
839,90	23,368
840,08	30,769
840,26	18,254
840,44	16,314
840,62	2,414
840,80	14,966
840,98	10,980
841,16	15,209
841,34	4,348
841,52	19,266
841,70	15,692
841,89	4,839
842,07	6,583
842,25	15,517
842,43	4,741
842,61	29,825
842,79	23,729
842,97	7,166
843,15	23,102
843,33	6,309
843,51	12,952
843,69	23,362
843,87	-0,746
844,05	6,383
844,23	17,117
844,41	5,956
844,59	10,951
844,77	6,723
844,95	13,295
845,13	13,846
845,31	-2,035
845,50	8,115
845,68	7,717
845,86	11,207
846,04	19,274
846,22	9,537
846,40	12,634
846,58	7,977
846,76	9,946
846,94	8,229
847,12	13,731
847,30	8,763
847,48	-1,548
847,66	12,315
847,84	8,470
848,02	15,700
848,20	11,370
848,38	9,402
848,56	13,352
848,74	19,570
848,92	9,726
849,10	5,750
849,28	8,300
849,46	8,267
849,64	9,007
849,82	-0,309
850,00	20,093
850,18	12,340
850,36	0,000
850,54	8,772
850,72	4,884
850,90	21,304
851,08	11,597
851,26	11,816
851,44	7,965
851,62	9,535
851,80	10,573
851,98	5,934
852,16	5,910
852,34	15,258
852,52	4,464
852,70	-3,872
852,87	16,210
853,05	-1,365
853,23	7,216
853,41	6,349
853,59	-1,867
853,77	10,913
853,95	8,017
854,13	7,965
854,31	6,776
854,49	7,984
854,67	4,752
854,85	1,449
855,03	18,838
855,21	10,105
855,39	4,829
855,57	10,753
855,75	9,124
855,93	2,157
856,11	17,408
856,28	7,749
856,46	10,676
856,64	10,667
856,82	5,498
857,00	-5,274
857,18	8,845
857,36	9,275
857,54	10,727
857,72	4,737
857,90	3,506
858,08	10,980
858,26	6,004
858,44	6,433
858,61	1,568
858,79	10,035
858,97	13,274
859,15	10,372
859,33	12,500
859,51	7,873
859,69	5,009
859,87	5,931
860,05	-1,776
860,23	4,708
860,40	8,185
860,58	14,590
860,76	4,921
860,94	13,821
861,12	3,385
861,30	2,669
861,48	9,857
861,66	2,857
861,84	7,922
862,01	15,464
862,19	5,593
862,37	6,657
862,55	8,646
862,73	1,858
862,91	8,370
863,09	8,036
863,27	0,000
863,44	4,795
863,62	3,533
863,80	2,110
863,98	3,116
864,16	1,734
864,34	10,608
864,52	2,011
864,69	4,240
864,87	0,724
865,05	6,122
865,23	9,412
865,41	2,957
865,59	2,692
865,76	10,479
865,94	6,072
866,12	11,355
866,30	2,104
866,48	11,506
866,66	0,403
866,83	10,814
867,01	3,836
867,19	6,502
867,37	2,070
867,55	5,496
867,73	4,327
867,90	2,635
868,08	6,046
868,26	8,946
868,44	2,814
868,62	8,354
868,79	8,477
868,97	-1,889
869,15	5,684
869,33	4,396
869,51	3,717
869,69	4,878
869,86	3,743
870,04	7,931
870,22	10,643
870,40	6,082
870,57	-0,231
870,75	6,851
870,93	8,421
871,11	4,004
871,29	6,393
871,46	4,967
871,64	5,126
871,82	3,337
872,00	10,185
872,18	0,527
872,35	8,117
872,53	2,303
872,71	6,429
872,89	12,102
873,06	8,100
873,24	6,014
873,42	2,083
873,60	2,002
873,77	3,476
873,95	1,344
874,13	-0,634
874,31	3,612
874,49	-0,097
874,66	2,914
874,84	2,006
875,02	4,675
875,20	2,660
875,37	5,352
875,55	4,962
875,73	0,787
875,91	3,067
876,08	1,920
876,26	0,000
876,44	1,303
876,61	4,110
876,79	4,987
876,97	-1,369
877,15	2,819
877,32	5,882
877,50	3,228
877,68	1,200
877,86	1,444
878,03	6,452
878,21	2,534
878,39	3,609
878,56	2,975
878,74	5,505
878,92	-3,309
879,10	1,922
879,27	4,626
879,45	0,773
879,63	3,183
879,80	6,961
879,98	-0,752
880,16	4,003
880,34	6,411
880,51	1,025
880,69	-1,786
880,87	1,558
881,04	3,329
881,22	4,036
881,40	3,639
881,57	2,879
881,75	2,424
881,93	4,576
882,10	4,357
882,28	3,379
882,46	5,205
882,63	2,253
882,81	5,886
882,99	1,760
883,16	2,365
883,34	2,139
883,52	2,482
883,69	5,420
883,87	0,521
884,05	2,192
884,22	2,153
884,40	2,742
884,58	1,676
884,75	2,764
884,93	1,217
885,11	4,730
885,28	0,561
885,46	-2,337
885,64	-0,178
885,81	3,416
885,99	1,611
886,17	0,815
886,34	0,000
886,52	2,214
886,70	3,078
886,87	-0,489
887,05	2,750
887,22	3,210
887,40	4,890
887,58	1,550
887,75	3,872
887,93	2,530
888,11	3,117
888,28	1,327
888,46	3,903
888,63	1,434
888,81	1,303
888,99	1,970
889,16	3,903
889,34	1,690
889,51	3,202
889,69	0,302
889,87	4,225
890,04	1,379
890,22	1,950
890,39	2,581
890,57	2,447
890,75	0,608
890,92	2,340
891,10	1,266
891,27	2,128
891,45	4,011
891,63	3,323
891,80	2,664
891,98	1,425
892,15	2,107
892,33	1,338
892,51	2,302
892,68	2,400
892,86	2,326
893,03	2,609
893,21	1,359
893,38	1,906
893,56	2,855
893,74	2,340
893,91	1,887
894,09	1,427
894,26	1,631
894,44	2,465
894,61	1,063
894,79	1,019
894,96	1,578
895,14	2,458
895,32	1,664
895,49	1,278
895,67	1,056
895,84	1,016
896,02	0,730
896,19	0,465
896,37	1,040
896,54	1,567
896,72	1,177
896,89	1,456
897,07	3,152
897,25	2,445
897,42	2,465
897,60	2,924
897,77	1,971
897,95	2,167
898,12	2,498
898,30	2,050
898,47	1,009
898,65	0,157
898,82	0,894
899,00	0,551
899,17	2,600
899,35	0,473
899,52	4,297
899,70	2,518
899,87	0,191
900,05	2,169
900,22	1,219
900,40	1,551
900,57	1,262
900,75	0,971
900,92	2,410
901,10	2,493
901,27	-0,074
901,45	2,928
901,62	2,398
901,80	1,866
901,97	1,655
902,15	3,236
902,32	2,623
902,50	-0,466
902,67	2,474
902,85	1,747
903,02	3,101
903,20	0,571
903,37	0,498
903,54	1,760
903,72	3,107
903,89	2,388
904,07	0,820
904,24	2,243
904,42	2,148
904,59	1,071
904,77	1,061
904,94	1,096
905,12	0,709
905,29	1,089
905,47	1,081
905,64	2,058
905,81	0,765
905,99	1,120
906,16	0,312
906,34	0,514
906,51	1,244
906,69	2,795
906,86	2,044
907,03	0,942
907,21	1,594
907,38	2,451
907,56	1,512
907,73	1,304
907,91	1,256
908,08	1,304
908,25	3,486
908,43	1,174
908,60	0,647
908,78	1,934
908,95	1,001
909,13	3,156
909,30	3,042
909,47	-0,424
909,65	2,521
909,82	0,730
910,00	2,044
910,17	1,182
910,34	2,187
910,52	2,024
910,69	0,852
910,87	1,253
911,04	0,787
911,21	2,938
911,39	2,006
911,56	1,743
911,73	0,571
911,91	2,746
912,08	2,204
912,26	0,664
912,43	3,433
912,60	0,986
912,78	1,219
912,95	2,100
913,13	2,396
913,30	2,402
913,47	1,998
913,65	2,891
913,82	2,766
913,99	1,309
914,17	1,677
914,34	1,206
914,51	2,143
914,69	1,693
914,86	2,340
915,03	3,255
915,21	0,976
915,38	3,093
915,56	2,917
915,73	0,597
915,90	1,672
916,08	3,649
916,25	1,701
916,42	1,860
916,60	1,668
916,77	1,517
916,94	2,280
917,12	1,098
917,29	2,068
917,46	1,785
917,64	1,697
917,81	1,177
917,98	0,573
918,16	1,338
918,33	1,086
918,50	1,749
918,67	1,808
918,85	0,897
919,02	2,227
919,19	1,303
919,37	1,781
919,54	2,369
919,71	3,058
919,89	-0,052
920,06	1,665
920,23	1,381
920,41	1,496
920,58	1,300
920,75	1,894
920,92	1,420
921,10	0,821
921,27	1,550
921,44	2,387
921,62	1,887
921,79	1,440
921,96	1,423
922,13	1,451
922,31	1,483
922,48	1,252
922,65	0,219
922,82	1,677
923,00	1,980
923,17	-0,220
923,34	1,094
923,52	1,264
923,69	1,078
923,86	1,659
924,03	1,038
924,21	1,134
924,38	1,352
924,55	2,735
924,72	0,709
924,90	0,396
925,07	0,780
925,24	0,637
925,41	1,435
925,59	0,936
925,76	0,115
925,93	1,317
926,10	0,930
926,28	1,361
926,45	0,726
926,62	0,518
926,79	1,708
926,96	1,214
927,14	1,871
927,31	1,148
927,48	0,672
927,65	1,427
927,83	1,147
928,00	0,754
928,17	2,259
928,34	1,041
928,51	0,526
928,69	1,474
928,86	1,071
929,03	0,373
929,20	1,248
929,37	0,021
929,55	1,021
929,72	0,698
929,89	0,942
930,06	0,835
930,23	1,055
930,41	1,041
930,58	1,220
930,75	0,602
930,92	0,630
931,09	1,372
931,27	0,578
931,44	0,450
931,61	1,130
931,78	0,994
931,95	0,367
932,12	1,182
932,30	1,302
932,47	-0,186
932,64	0,711
932,81	0,467
932,98	0,806
933,16	0,685
933,33	0,628
933,50	0,570
933,67	1,334
933,84	1,443
934,01	0,846
934,18	0,181
934,36	1,053
934,53	0,624
934,70	0,603
934,87	0,567
935,04	0,239
935,21	1,480
935,38	0,381
935,56	1,414
935,73	0,140
935,90	0,754
936,07	1,296
936,24	1,646
936,41	0,059
936,58	0,198
936,76	1,081
936,93	-0,295
937,10	1,370
937,27	1,015
937,44	0,219
937,61	0,502
937,78	0,607
937,95	0,872
938,13	0,583
938,30	0,614
938,47	0,742
938,64	0,960
938,81	-0,378
938,98	0,499
939,15	0,985
939,32	1,319
939,49	0,239
939,66	0,835
939,84	0,606
940,01	0,851
940,18	0,729
940,35	-0,062
940,52	0,431
940,69	-0,364
940,86	1,320
941,03	0,330
941,20	0,142
941,37	0,879
941,54	1,618
941,71	1,527
941,89	0,021
942,06	0,272
942,23	0,968
942,40	1,389
942,57	1,346
942,74	0,425
942,91	1,330
943,08	2,136
943,25	1,420
943,42	1,221
943,59	1,450
943,76	1,396
943,93	0,247
944,10	0,270
944,27	-0,596
944,44	0,760
944,61	1,058
944,79	2,920
944,96	1,581
945,13	1,312
945,30	1,287
945,47	1,062
945,64	0,825
945,81	1,535
945,98	1,588
946,15	1,395
946,32	2,520
946,49	2,024
946,66	1,963
946,83	1,430
947,00	2,707
947,17	1,005
947,34	1,540
947,51	2,457
947,68	2,250
947,85	2,756
948,02	3,289
948,19	2,696
948,36	3,571
948,53	2,445
948,70	2,515
948,87	3,736
949,04	4,421
949,21	2,718
949,38	5,164
949,55	4,949
949,72	4,686
949,89	5,469
950,06	6,248
950,23	5,584
950,40	6,646
950,57	6,405
950,74	7,534
950,91	7,080
951,08	9,165
951,25	9,162
951,42	8,817
951,59	9,271
951,76	9,073
951,93	9,535
952,10	9,875
952,27	10,562
952,44	10,604
952,61	12,950
952,77	13,488
952,94	14,259
953,11	12,966
953,28	15,672
953,45	15,331
953,62	15,590
953,79	15,654
953,96	18,182
954,13	17,765
954,30	20,073
954,47	16,819
954,64	16,867
954,81	20,381
954,98	18,034
955,15	16,203
955,32	19,791
955,49	23,556
955,65	23,131
955,82	22,145
955,99	22,009
956,16	26,469
956,33	22,885
956,50	24,558
956,67	23,457
956,84	24,735
957,01	22,388
957,18	25,323
957,35	23,267
957,52	26,202
957,68	26,733
957,85	29,046
958,02	26,690
958,19	28,679
958,36	30,589
958,53	28,990
958,70	30,233
958,87	28,343
959,04	31,391
959,21	34,565
959,37	32,146
959,54	32,356
959,71	34,502
959,88	26,860
960,05	37,602
960,22	34,340
960,39	34,296
960,56	34,527
960,72	38,504
960,89	35,570
961,06	31,440
961,23	34,098
961,40	37,151
961,57	34,665
961,74	29,800
961,90	35,269
962,07	36,771
962,24	37,721
962,41	43,448
962,58	39,632
962,75	32,650
962,92	33,860
963,08	36,667
963,25	30,478
963,42	42,972
963,59	35,318
963,76	37,575
963,93	37,271
964,10	33,258
964,26	35,000
964,43	37,209
964,60	24,594
964,77	37,584
964,94	46,420
965,10	34,262
965,27	37,709
965,44	32,381
965,61	30,479
965,78	34,783
965,95	24,627
966,11	24,545
966,28	35,475
966,45	12,418
966,62	37,979
966,79	21,160
966,95	32,028
967,12	33,968
967,29	51,852
967,46	48,043
967,63	47,059
967,79	49,664
967,96	25,688
968,13	40,476
968,30	47,325
968,47	41,538
968,63	45,588
968,80	52,490
968,97	69,942
969,14	38,418
969,31	47,449
969,47	43,478
969,64	36,264
969,81	43,871
969,98	48,947
970,14	37,634
970,31	36,478
970,48	30,872
970,65	65,289
970,81	16,783
970,98	53,125
971,15	69,697
971,32	31,818
971,48	58,929
971,65	29,801
971,82	59,091
971,99	41,139
972,15	-6,977
972,32	60,417
972,49	72,131
972,66	39,669
972,82	55,479
972,99	35,000
973,16	72,185
973,33	72,593
973,49	35,366
973,66	38,095
973,83	91,358
974,00	36,709
974,16	61,818
974,33	68,000
974,50	65,657
974,67	61,905
974,83	62,245
975,00	190,909
975,17	33,871
975,33	87,356
975,50	150,820
975,67	86,538
975,84	67,073
976,00	52,632
976,17	10,870
976,34	56,471
976,50	47,253
976,67	63,095
976,84	162,500
977,00	83,333
977,17	88,889
977,34	53,846
977,50	39,286
977,67	84,706
977,84	62,712
978,01	51,351
978,17	55,172
978,34	100,000
978,51	164,000
978,67	114,286
978,84	41,818
979,01	50,000
979,17	22,857
979,34	82,609
979,51	70,455
979,67	108,333
979,84	96,610
980,01	86,538
980,17	82,353
980,34	60,274
980,51	422,222
980,67	-37,778
980,84	61,429
981,01	88,235
981,17	76,471
981,34	52,857
981,50	103,158
981,67	80,952
981,84	82,143
982,00	2700,000
982,17	78,125
982,34	126,829
982,50	0,000
982,67	171,429
982,84	300,000
983,00	77,778
983,17	-471,429
983,33	244,444
983,50	85,366
983,67	71,014
983,83	176,190
984,00	343,478
984,17	966,667
984,33	-121,429
984,50	59,459
984,66	-68,750
984,83	462,500
985,00	76,923
985,16	274,194
985,33	4650,000
985,49	90,698
985,66	67,500
985,83	-700,000
985,99	322,222
986,16	263,158
986,32	104,110
986,49	-700,000
986,66	100,000
986,82	100,000
986,99	-460,000
987,15	212,121
987,32	405,882
987,49	175,000
987,65	-121,739
987,82	-25,000
987,98	128,788
988,15	585,714
988,31	137,143
988,48	115,686
988,65	110,000
988,81	69,091
988,98	189,189
989,14	60,000
989,31	127,119
989,47	-67,857
989,64	150,000
989,80	90,426
989,97	149,091
990,14	235,714
990,30	-312,500
990,47	-208,333
990,63	142,105
990,80	500,000
990,96	25,000
991,13	136,667
991,29	131,373
991,46	93,750
991,62	0,000
991,79	-230,000
991,95	47,059
992,12	1266,667
992,29	-138,095
992,45	190,476
992,62	-117,857
992,78	-866,667
992,95	183,871
993,11	837,500
993,28	-400,000
993,44	-127,586
993,61	122,807
993,77	0,000
993,94	207,692
994,10	428,571
994,27	-84,211
994,43	250,000
994,60	485,714
994,76	106,061
994,93	-500,000
995,09	-406,250
995,26	208,333
995,42	412,500
995,59	53,333
995,75	-558,333
995,92	-828,571
996,08	-460,000
996,25	169,697
996,41	1540,000
996,58	184,000
996,74	-290,000
996,91	150,000
997,07	164,000
997,23	103,922
997,40	850,000
997,56	-1633,333
997,73	400,000
997,89	-60,000
998,06	143,860
998,22	110,638
998,39	161,224
998,55	352,632
998,72	-6000,000
998,88	92,000
999,05	373,333
999,21	82,353
999,37	234,884
999,54	245,161
999,70	271,429
999,87	850,000
1000,03	193,333
1000,20	207,143
1000,36	-425,000
1000,52	1500,000
1000,69	320,000
1000,85	-100,000
1001,02	266,667
1001,18	980,000
1001,35	0,000
1001,51	128,571
1001,67	300,000
1001,84	136,585
1002,00	-836,364
1002,17	725,000
1002,33	-212,500
1002,50	591,667
1002,66	625,000
1002,82	280,488
1002,99	-154,545
1003,15	-4900,000
1003,32	-150,000
1003,48	-1000,000
1003,64	195,652
1003,81	-63,158
1003,97	134,783
1004,14	-81,818
1004,30	290,909
1004,46	-4100,000
1004,63	-392,308
1004,79	200,000
1004,95	-800,000
1005,12	15,385
1005,28	122,222
1005,45	-166,667
1005,61	107,692
1005,77	-385,714
1005,94	143,478
1006,10	-390,000
1006,26	70,370
1006,43	178,788
1006,59	274,194
1006,76	-132,000
1006,92	178,261
1007,08	95,455
1007,25	138,889
1007,41	-45,455
1007,57	-117,647
1007,74	230,435
1007,90	-285,714
1008,06	-13,333
1008,23	-242,105
1008,39	211,111
1008,55	40,000
1008,72	-437,500
1008,88	-2,857
1009,04	-1011,111
1009,21	165,625
1009,37	416,129
1009,53	-370,000
1009,70	-18,182
1009,86	273,684
1010,02	218,182
1010,19	860,000
1010,35	4800,000
1010,51	220,000
1010,68	240,909
1010,84	105,000
1011,00	307,143
1011,17	3766,667
1011,33	142,308
1011,49	287,500
1011,66	265,625
1011,82	-708,333
1011,98	666,667
1012,14	230,769
1012,31	213,636
1012,47	-257,143
1012,63	4100,000
1012,80	83,333
1012,96	91,667
1013,12	-3,704
1013,29	291,667
1013,45	-132,353
1013,61	-560,000
1013,77	-33,333
1013,94	170,833
1014,10	2900,000
1014,26	-14,706
1014,43	271,053
1014,59	0,000
1014,75	630,000
1014,91	217,143
1015,08	169,231
1015,24	353,333
1015,40	320,000
1015,56	329,412
1015,73	185,714
1015,89	400,000
1016,05	143,243
1016,21	266,667
1016,38	231,579
1016,54	-64,000
1016,70	400,000
1016,86	-315,385
1017,03	0,000
1017,19	487,500
1017,35	326,667
1017,51	333,333
1017,68	800,000
1017,84	410,526
1018,00	209,524
1018,16	-225,000
1018,33	236,364
1018,49	0,000
1018,65	-218,182
1018,81	-46,341
1018,97	292,308
1019,14	-757,143
1019,30	290,476
1019,46	158,974
1019,62	2150,000
1019,79	-657,143
1019,95	-1250,000
1020,11	0,000
1020,27	107,500
1020,43	-625,000
1020,60	0,000
1020,76	82,353
1020,92	5700,000
1021,08	-88,889
1021,24	-2400,000
1021,41	190,909
1021,57	-216,667
1021,73	0,000
1021,89	-231,818
1022,05	274,286
1022,21	-207,692
1022,38	547,368
1022,54	240,000
1022,70	162,963
1022,86	-350,000
1023,02	700,000
1023,19	-80,000
1023,35	118,868
1023,51	212,903
1023,67	107,895
1023,83	372,727
1023,99	300,000
1024,16	36,923
1024,32	268,750
1024,48	226,531
1024,64	-440,000
1024,80	433,333
1024,96	207,692
1025,12	300,000
1025,29	-800,000
1025,45	137,500
1025,61	1300,000
1025,77	280,952
1025,93	-69,231
1026,09	4400,000
1026,26	-257,143
1026,42	-1175,000
1026,58	186,538
1026,74	471,429
1026,90	331,579
1027,06	-390,000
1027,22	-233,333
1027,38	233,333
1027,55	-108,000
1027,71	537,500
1027,87	202,500
1028,03	78,788
1028,19	-160,606
1028,35	83,784
1028,51	-16,129
1028,67	-40,000
1028,83	71,429
1029,00	207,143
1029,16	-446,667
1029,32	405,882
1029,48	4650,000
1029,64	1157,143
1029,80	1166,667
1029,96	166,667
1030,12	125,000
1030,28	1150,000
1030,44	-1600,000
1030,61	271,875
1030,77	-56,522
1030,93	169,767
1031,09	-192,857
1031,25	-733,333
1031,41	-2600,000
1031,57	-136,842
1031,73	609,091
1031,89	-109,091
1032,05	1228,571
1032,21	550,000
1032,37	-14,706
1032,53	-130,000
1032,69	-1500,000
1032,86	566,667
1033,02	150,000
1033,18	-453,846
1033,34	-115,385
1033,50	277,419
1033,66	-77,778
1033,82	375,000
1033,98	-388,235
1034,14	688,889
1034,30	-209,091
1034,46	170,833
1034,62	288,889
1034,78	134,921
1034,94	3,226
1035,10	-236,364
1035,26	-500,000
1035,42	85,714
1035,58	920,000
1035,74	10,000
1035,90	-66,667
1036,06	183,019
1036,22	-208,000
1036,38	306,667
1036,54	700,000
1036,70	-1800,000
1036,86	-550,000
1037,02	600,000
1037,18	75,000
1037,34	269,565
1037,50	-513,333
1037,66	-2033,333
1037,82	-252,941
1037,98	361,905
1038,14	-113,793
1038,30	57,692
1038,46	91,667
1038,62	125,806
1038,78	185,714
1038,94	-47,368
1039,10	-58,333
1039,26	-157,895
1039,42	-800,000
1039,58	111,321
1039,74	159,375
1039,90	2,564
1040,06	300,000
>>>>>End Processed Spectral Data<<<<<
