SpectraSuite Data File
++++++++++++++++++++++++++++++++++++
Date: Thu Feb 02 17:23:20 EET 2017
User: optolab
Dark Spectrum Present: Yes
Reference Spectrum Present: Yes
Number of Sampled Component Spectra: 1
Spectrometers: USB4C02475
Integration Time (usec): 100000 (USB4C02475)
Spectra Averaged: 1 (USB4C02475)
Boxcar Smoothing: 0 (USB4C02475)
Correct for Electrical Dark: No (USB4C02475)
Strobe/Lamp Enabled: No (USB4C02475)
Correct for Detector Non-linearity: No (USB4C02475)
Correct for Stray Light: No (USB4C02475)
Number of Pixels in Processed Spectrum: 3648
>>>>>Begin Processed Spectral Data<<<<<
344,91	-800,000
345,13	-800,000
345,35	-800,000
345,57	-123,529
345,79	30,435
346,00	-170,588
346,22	-700,000
346,44	-78,788
346,66	182,979
346,87	278,261
347,09	253,846
347,31	4300,000
347,53	-500,000
347,74	-127,907
347,96	-685,714
348,18	164,706
348,40	400,000
348,61	-94,872
348,83	5400,000
349,05	182,051
349,27	370,588
349,48	-2550,000
349,70	50,000
349,92	28,571
350,14	89,189
350,35	-230,769
350,57	-344,444
350,79	23,077
351,01	-253,333
351,22	530,000
351,44	533,333
351,66	194,444
351,87	950,000
352,09	82,895
352,31	264,286
352,53	248,571
352,74	-614,286
352,96	215,789
353,18	78,125
353,40	-900,000
353,61	253,333
353,83	102,083
354,05	312,500
354,26	185,714
354,48	-1000,000
354,70	242,857
354,92	272,222
355,13	-48,837
355,35	157,407
355,57	189,062
355,78	100,000
356,00	136,170
356,22	136,364
356,44	193,023
356,65	300,000
356,87	186,111
357,09	168,571
357,30	81,818
357,52	-1066,667
357,74	219,355
357,95	211,429
358,17	76,812
358,39	292,000
358,60	30,556
358,82	277,273
359,04	58,974
359,26	118,182
359,47	-392,308
359,69	214,286
359,91	292,000
360,12	255,000
360,34	136,111
360,56	750,000
360,77	844,444
360,99	304,167
361,21	108,696
361,42	-825,000
361,64	-177,778
361,86	53,731
362,07	360,000
362,29	157,500
362,51	291,892
362,72	-660,000
362,94	162,963
363,16	81,429
363,37	427,273
363,59	100,000
363,81	775,000
364,02	89,333
364,24	134,091
364,46	261,905
364,67	178,571
364,89	370,588
365,11	197,297
365,32	240,741
365,54	18,750
365,76	125,000
365,97	117,073
366,19	94,737
366,41	510,000
366,62	119,000
366,84	400,000
367,05	106,863
367,27	1420,000
367,49	248,718
367,70	600,000
367,92	135,417
368,14	30,769
368,35	170,588
368,57	127,273
368,79	292,308
369,00	76,923
369,22	338,889
369,43	389,474
369,65	-58,621
369,87	-305,882
370,08	230,000
370,30	271,429
370,51	254,545
370,73	80,556
370,95	260,000
371,16	82,456
371,38	137,736
371,60	210,000
371,81	130,435
372,03	-1925,000
372,24	-81,250
372,46	1600,000
372,68	152,941
372,89	88,073
373,11	144,186
373,32	80,672
373,54	345,455
373,76	188,889
373,97	154,545
374,19	-142,105
374,40	95,714
374,62	300,000
374,84	216,667
375,05	142,308
375,27	229,730
375,48	108,642
375,70	294,118
375,92	117,857
376,13	421,053
376,35	300,000
376,56	310,000
376,78	138,776
376,99	190,909
377,21	178,125
377,43	115,152
377,64	154,000
377,86	68,750
378,07	0,000
378,29	175,000
378,51	84,524
378,72	-104,545
378,94	126,087
379,15	104,545
379,37	87,500
379,58	93,333
379,80	61,364
380,01	126,000
380,23	378,261
380,45	158,333
380,66	58,333
380,88	197,297
381,09	286,957
381,31	171,795
381,52	160,870
381,74	144,643
381,95	335,714
382,17	272,000
382,39	114,516
382,60	376,471
382,82	151,724
383,03	1700,000
383,25	80,247
383,46	458,333
383,68	125,532
383,89	218,182
384,11	57,534
384,32	97,368
384,54	-671,429
384,76	182,353
384,97	130,000
385,19	294,737
385,40	250,000
385,62	109,677
385,83	110,638
386,05	871,429
386,26	253,846
386,48	100,000
386,69	111,111
386,91	390,000
387,12	102,564
387,34	127,119
387,55	140,000
387,77	268,000
387,98	110,204
388,20	123,944
388,41	60,317
388,63	138,571
388,84	197,500
389,06	174,419
389,27	175,000
389,49	80,723
389,70	84,746
389,92	70,455
390,13	253,846
390,35	69,792
390,56	139,062
390,78	318,182
390,99	131,111
391,21	102,273
391,42	8,696
391,64	110,000
391,85	134,483
392,07	-214,286
392,28	96,154
392,50	1180,000
392,71	5100,000
392,93	124,194
393,14	245,652
393,36	100,000
393,57	154,167
393,79	30,159
394,00	50,685
394,22	122,000
394,43	132,143
394,65	203,571
394,86	112,500
395,08	-925,000
395,29	87,234
395,50	-4000,000
395,72	814,286
395,93	224,000
396,15	-214,286
396,36	53,333
396,58	-128,571
396,79	102,326
397,01	173,810
397,22	133,333
397,44	153,191
397,65	97,297
397,87	115,714
398,08	3,846
398,29	241,667
398,51	124,390
398,72	171,739
398,94	141,860
399,15	70,000
399,37	52,174
399,58	158,730
399,80	180,000
400,01	188,235
400,22	257,143
400,44	138,095
400,65	161,644
400,87	1100,000
401,08	30,337
401,30	150,667
401,51	38,182
401,72	96,774
401,94	163,415
402,15	91,837
402,37	131,818
402,58	141,860
402,80	543,750
403,01	86,111
403,22	92,771
403,44	111,111
403,65	61,224
403,87	136,000
404,08	92,308
404,30	178,125
404,51	30,000
404,72	954,545
404,94	54,217
405,15	137,313
405,37	102,198
405,58	322,581
405,79	535,714
406,01	80,741
406,22	69,048
406,44	154,386
406,65	111,905
406,86	132,000
407,08	69,136
407,29	125,333
407,51	70,192
407,72	92,079
407,93	108,861
408,15	98,864
408,36	231,429
408,58	69,167
408,79	58,140
409,00	86,525
409,22	99,020
409,43	99,099
409,64	60,256
409,86	103,409
410,07	84,348
410,29	68,667
410,50	78,571
410,71	74,194
410,93	64,356
411,14	93,458
411,35	68,056
411,57	31,944
411,78	89,706
412,00	63,333
412,21	56,195
412,42	66,341
412,64	74,444
412,85	56,477
413,06	51,339
413,28	63,922
413,49	31,628
413,70	40,773
413,92	67,143
414,13	53,755
414,34	42,751
414,56	49,362
414,77	32,841
414,98	31,449
415,20	33,333
415,41	40,260
415,63	25,071
415,84	34,072
416,05	23,494
416,27	20,891
416,48	27,014
416,69	32,849
416,91	23,467
417,12	10,633
417,33	25,056
417,55	25,800
417,76	29,598
417,97	28,277
418,19	19,456
418,40	19,829
418,61	25,214
418,83	22,359
419,04	23,411
419,25	19,139
419,46	24,238
419,68	15,487
419,89	14,493
420,10	12,903
420,32	9,404
420,53	12,649
420,74	5,018
420,96	5,332
421,17	9,122
421,38	3,219
421,60	4,502
421,81	2,803
422,02	5,790
422,23	5,233
422,45	3,062
422,66	6,940
422,87	2,545
423,09	4,635
423,30	2,498
423,51	5,204
423,73	5,539
423,94	4,693
424,15	2,308
424,36	2,311
424,58	2,019
424,79	0,195
425,00	4,529
425,22	5,588
425,43	3,254
425,64	2,420
425,85	2,593
426,07	1,631
426,28	4,431
426,49	3,103
426,71	1,391
426,92	1,924
427,13	2,317
427,34	1,494
427,56	3,175
427,77	-1,698
427,98	2,896
428,19	0,078
428,41	0,077
428,62	2,662
428,83	2,054
429,04	3,288
429,26	0,549
429,47	3,328
429,68	0,218
429,89	0,245
430,11	2,228
430,32	2,244
430,53	0,833
430,74	2,547
430,96	0,688
431,17	1,658
431,38	0,746
431,59	1,244
431,81	1,005
432,02	1,819
432,23	2,079
432,44	1,169
432,66	0,780
432,87	0,190
433,08	1,455
433,29	0,986
433,51	1,354
433,72	0,812
433,93	0,875
434,14	0,890
434,35	1,276
434,57	0,000
434,78	1,191
434,99	0,000
435,20	0,839
435,42	1,223
435,63	0,596
435,84	0,955
436,05	0,544
436,26	0,291
436,48	1,158
436,69	0,817
436,90	0,393
437,11	0,403
437,32	0,456
437,54	1,088
437,75	0,976
437,96	0,674
438,17	1,141
438,38	0,943
438,60	0,902
438,81	0,678
439,02	0,558
439,23	0,723
439,44	0,603
439,66	0,336
439,87	0,401
440,08	0,263
440,29	0,705
440,50	0,755
440,72	0,370
440,93	0,614
441,14	0,520
441,35	0,150
441,56	0,402
441,77	0,386
441,99	0,323
442,20	0,808
442,41	0,355
442,62	0,473
442,83	0,425
443,04	0,405
443,26	0,428
443,47	0,588
443,68	0,159
443,89	0,497
444,10	0,362
444,31	0,778
444,53	0,569
444,74	0,570
444,95	0,062
445,16	0,180
445,37	0,446
445,58	0,336
445,80	0,344
446,01	0,535
446,22	0,372
446,43	0,589
446,64	0,190
446,85	0,200
447,06	0,421
447,28	0,466
447,49	0,140
447,70	0,573
447,91	0,577
448,12	0,318
448,33	0,180
448,54	0,256
448,76	0,228
448,97	0,289
449,18	0,216
449,39	0,149
449,60	0,170
449,81	0,639
450,02	0,619
450,23	0,574
450,45	0,404
450,66	0,208
450,87	0,480
451,08	0,571
451,29	0,702
451,50	0,268
451,71	0,359
451,92	0,538
452,13	0,482
452,35	0,194
452,56	0,327
452,77	0,674
452,98	0,455
453,19	0,621
453,40	0,610
453,61	0,902
453,82	0,299
454,03	0,614
454,25	0,356
454,46	0,462
454,67	0,737
454,88	0,493
455,09	0,742
455,30	0,380
455,51	0,418
455,72	0,440
455,93	0,602
456,14	0,922
456,35	0,435
456,56	0,726
456,78	0,600
456,99	0,977
457,20	0,511
457,41	0,573
457,62	0,660
457,83	0,700
458,04	1,027
458,25	0,631
458,46	0,926
458,67	1,319
458,88	1,009
459,09	1,207
459,30	1,102
459,51	1,655
459,73	1,888
459,94	2,596
460,15	3,230
460,36	3,990
460,57	4,628
460,78	5,681
460,99	7,127
461,20	8,357
461,41	9,508
461,62	10,698
461,83	12,331
462,04	13,363
462,25	15,098
462,46	15,745
462,67	16,887
462,88	18,082
463,09	19,043
463,30	20,251
463,51	21,433
463,72	22,910
463,93	24,807
464,15	26,995
464,36	28,812
464,57	30,599
464,78	32,480
464,99	35,756
465,20	37,857
465,41	40,520
465,62	42,428
465,83	45,157
466,04	47,220
466,25	50,155
466,46	51,143
466,67	53,530
466,88	57,531
467,09	58,888
467,30	61,302
467,51	63,486
467,72	65,987
467,93	68,698
468,14	70,925
468,35	72,734
468,56	74,368
468,77	76,437
468,98	78,373
469,19	80,261
469,40	80,981
469,61	82,057
469,82	84,907
470,03	85,066
470,24	86,678
470,45	87,757
470,66	88,563
470,87	88,468
471,08	90,492
471,29	91,545
471,50	91,182
471,71	90,699
471,92	91,302
472,13	91,024
472,34	91,784
472,55	91,760
472,76	90,509
472,97	90,859
473,18	89,389
473,39	88,919
473,60	86,955
473,81	85,062
474,01	86,307
474,22	84,943
474,43	83,758
474,64	83,243
474,85	82,395
475,06	82,056
475,27	82,650
475,48	81,832
475,69	81,360
475,90	82,370
476,11	80,985
476,32	80,333
476,53	80,249
476,74	80,123
476,95	78,657
477,16	77,954
477,37	76,464
477,58	74,520
477,79	75,691
478,00	73,712
478,21	73,382
478,41	71,741
478,62	71,401
478,83	70,601
479,04	67,752
479,25	66,339
479,46	68,048
479,67	64,636
479,88	64,297
480,09	63,408
480,30	61,922
480,51	59,723
480,72	58,992
480,93	57,709
481,14	56,099
481,34	53,922
481,55	54,025
481,76	52,186
481,97	51,991
482,18	49,633
482,39	49,356
482,60	47,977
482,81	47,689
483,02	46,107
483,23	45,199
483,44	43,416
483,65	42,756
483,85	41,495
484,06	39,156
484,27	37,550
484,48	35,676
484,69	33,620
484,90	31,731
485,11	29,966
485,32	27,885
485,53	25,922
485,73	24,231
485,94	22,336
486,15	20,894
486,36	18,943
486,57	16,750
486,78	15,122
486,99	13,063
487,20	11,224
487,41	9,525
487,61	7,936
487,82	6,588
488,03	5,484
488,24	4,440
488,45	3,923
488,66	3,312
488,87	2,760
489,08	2,595
489,28	1,912
489,49	1,631
489,70	1,361
489,91	1,322
490,12	1,073
490,33	0,948
490,54	0,995
490,74	0,935
490,95	0,691
491,16	0,738
491,37	0,693
491,58	0,454
491,79	0,308
492,00	0,191
492,20	0,485
492,41	0,275
492,62	0,542
492,83	0,370
493,04	0,395
493,25	0,473
493,45	0,350
493,66	0,355
493,87	0,413
494,08	0,209
494,29	0,349
494,50	0,307
494,70	0,259
494,91	0,425
495,12	0,251
495,33	0,490
495,54	0,373
495,75	0,439
495,95	0,361
496,16	0,205
496,37	0,321
496,58	0,278
496,79	0,295
496,99	0,264
497,20	0,294
497,41	0,247
497,62	0,324
497,83	0,222
498,04	0,267
498,24	0,289
498,45	0,253
498,66	0,319
498,87	0,302
499,08	0,269
499,28	0,117
499,49	0,257
499,70	0,306
499,91	0,139
500,12	0,210
500,32	0,327
500,53	0,399
500,74	0,258
500,95	0,117
501,15	0,351
501,36	0,193
501,57	0,394
501,78	0,296
501,99	0,249
502,19	0,286
502,40	0,248
502,61	0,419
502,82	0,243
503,02	0,203
503,23	0,326
503,44	0,383
503,65	0,218
503,86	0,151
504,06	0,175
504,27	0,255
504,48	0,199
504,69	0,388
504,89	0,181
505,10	0,131
505,31	0,413
505,52	0,326
505,72	0,684
505,93	0,360
506,14	0,186
506,35	0,338
506,55	0,145
506,76	0,252
506,97	0,249
507,18	0,211
507,38	0,111
507,59	0,306
507,80	0,280
508,01	0,329
508,21	0,277
508,42	0,207
508,63	0,271
508,84	0,525
509,04	0,208
509,25	0,464
509,46	0,044
509,67	0,271
509,87	0,429
510,08	0,354
510,29	0,157
510,49	0,289
510,70	0,422
510,91	0,297
511,12	0,226
511,32	0,548
511,53	0,350
511,74	0,249
511,94	0,155
512,15	0,309
512,36	0,316
512,57	0,324
512,77	0,258
512,98	0,243
513,19	0,389
513,39	0,206
513,60	0,245
513,81	0,389
514,01	0,277
514,22	0,475
514,43	0,331
514,64	0,350
514,84	0,397
515,05	0,291
515,26	0,314
515,46	0,238
515,67	0,252
515,88	0,416
516,08	0,282
516,29	0,118
516,50	0,435
516,70	0,214
516,91	0,182
517,12	0,340
517,32	0,126
517,53	0,232
517,74	0,382
517,95	0,313
518,15	0,518
518,36	0,414
518,57	0,122
518,77	0,399
518,98	0,191
519,19	0,371
519,39	0,376
519,60	0,188
519,80	0,194
520,01	0,156
520,22	0,406
520,42	0,328
520,63	0,407
520,84	0,413
521,04	0,577
521,25	0,608
521,46	0,453
521,66	0,510
521,87	0,606
522,08	0,777
522,28	1,003
522,49	1,209
522,70	1,170
522,90	1,181
523,11	1,499
523,31	1,686
523,52	1,973
523,73	2,206
523,93	2,931
524,14	3,432
524,35	3,908
524,55	4,663
524,76	5,295
524,97	5,668
525,17	6,452
525,38	7,506
525,58	8,505
525,79	9,183
526,00	10,032
526,20	11,254
526,41	12,389
526,61	13,513
526,82	14,579
527,03	15,415
527,23	16,858
527,44	17,813
527,64	18,924
527,85	19,622
528,06	20,465
528,26	20,661
528,47	21,128
528,68	21,231
528,88	21,334
529,09	21,645
529,29	21,968
529,50	21,722
529,70	22,580
529,91	22,683
530,12	23,011
530,32	23,269
530,53	23,733
530,73	24,047
530,94	24,978
531,15	26,060
531,35	27,079
531,56	28,452
531,76	30,120
531,97	31,120
532,17	32,587
532,38	34,610
532,59	37,074
532,79	39,046
533,00	40,298
533,20	43,397
533,41	45,203
533,61	46,734
533,82	49,133
534,03	51,700
534,23	52,580
534,44	55,066
534,64	56,089
534,85	57,745
535,05	59,033
535,26	58,721
535,46	59,640
535,67	60,474
535,88	59,961
536,08	60,267
536,29	59,425
536,49	59,079
536,70	59,037
536,90	58,584
537,11	58,168
537,31	57,863
537,52	58,201
537,72	57,677
537,93	57,193
538,13	57,555
538,34	58,152
538,55	58,324
538,75	57,790
538,96	57,886
539,16	58,507
539,37	57,918
539,57	58,253
539,78	58,427
539,98	57,910
540,19	57,695
540,39	56,139
540,60	55,651
540,80	55,580
541,01	54,194
541,21	52,965
541,42	52,009
541,62	51,486
541,83	50,104
542,03	48,656
542,24	48,418
542,44	47,423
542,65	47,447
542,85	45,223
543,06	44,826
543,26	44,732
543,47	43,832
543,67	43,944
543,88	42,953
544,08	43,319
544,29	42,141
544,49	42,121
544,70	42,177
544,90	42,458
545,11	41,911
545,31	42,402
545,52	42,287
545,72	41,456
545,93	41,151
546,13	41,238
546,34	41,051
546,54	41,194
546,75	39,436
546,95	39,456
547,15	38,752
547,36	37,534
547,56	37,220
547,77	35,668
547,97	34,354
548,18	33,703
548,38	32,639
548,59	31,666
548,79	30,887
549,00	29,406
549,20	28,694
549,41	28,154
549,61	26,872
549,81	25,650
550,02	24,667
550,22	23,191
550,43	22,183
550,63	20,800
550,84	20,456
551,04	18,527
551,25	16,931
551,45	15,850
551,65	13,697
551,86	12,206
552,06	10,918
552,27	9,871
552,47	9,134
552,68	8,290
552,88	7,696
553,08	6,882
553,29	6,207
553,49	5,967
553,70	5,726
553,90	5,204
554,11	4,779
554,31	4,022
554,51	4,087
554,72	3,185
554,92	2,940
555,13	2,491
555,33	1,976
555,53	1,921
555,74	1,421
555,94	1,213
556,15	0,961
556,35	0,827
556,56	0,689
556,76	0,579
556,96	0,444
557,17	0,582
557,37	0,555
557,58	0,122
557,78	0,341
557,98	0,278
558,19	0,293
558,39	0,393
558,59	0,425
558,80	0,273
559,00	0,231
559,21	0,534
559,41	0,277
559,61	0,300
559,82	0,338
560,02	0,248
560,23	0,234
560,43	0,237
560,63	0,126
560,84	0,287
561,04	0,404
561,24	0,290
561,45	0,316
561,65	0,244
561,85	0,252
562,06	0,088
562,26	0,156
562,47	0,349
562,67	0,257
562,87	0,038
563,08	0,315
563,28	0,225
563,48	0,205
563,69	0,216
563,89	0,294
564,09	0,248
564,30	0,190
564,50	0,186
564,70	0,197
564,91	0,285
565,11	0,139
565,31	0,224
565,52	0,046
565,72	0,373
565,92	0,171
566,13	0,064
566,33	0,196
566,53	0,106
566,74	0,064
566,94	0,140
567,14	0,249
567,35	0,135
567,55	0,335
567,75	0,354
567,96	0,167
568,16	0,237
568,36	0,257
568,57	0,211
568,77	0,254
568,97	0,217
569,18	0,197
569,38	0,126
569,58	0,135
569,79	0,112
569,99	0,278
570,19	0,075
570,39	0,163
570,60	0,164
570,80	0,074
571,00	0,219
571,21	0,145
571,41	0,409
571,61	0,204
571,82	0,236
572,02	0,107
572,22	-0,056
572,42	0,252
572,63	0,081
572,83	0,177
573,03	-0,004
573,24	0,048
573,44	0,300
573,64	0,185
573,84	0,045
574,05	0,092
574,25	0,052
574,45	0,074
574,66	0,172
574,86	0,252
575,06	0,189
575,26	0,209
575,47	0,200
575,67	0,119
575,87	0,248
576,07	0,144
576,28	0,210
576,48	0,167
576,68	0,255
576,88	0,202
577,09	0,052
577,29	0,375
577,49	0,086
577,69	0,007
577,90	0,179
578,10	-0,088
578,30	0,261
578,50	0,026
578,71	0,240
578,91	0,122
579,11	0,228
579,31	0,339
579,52	0,122
579,72	0,103
579,92	0,052
580,12	0,154
580,33	0,248
580,53	0,153
580,73	0,108
580,93	0,074
581,13	0,238
581,34	0,040
581,54	0,129
581,74	0,129
581,94	0,125
582,15	0,174
582,35	0,071
582,55	0,156
582,75	0,198
582,95	0,250
583,16	0,180
583,36	-0,037
583,56	0,225
583,76	0,070
583,96	0,066
584,17	0,115
584,37	0,033
584,57	0,145
584,77	0,007
584,97	0,081
585,18	0,251
585,38	0,066
585,58	0,165
585,78	0,159
585,98	0,141
586,19	0,110
586,39	0,255
586,59	0,148
586,79	0,190
586,99	0,099
587,20	0,120
587,40	0,348
587,60	0,099
587,80	0,055
588,00	0,125
588,20	0,222
588,41	0,099
588,61	0,252
588,81	0,026
589,01	0,210
589,21	0,289
589,41	0,080
589,62	0,190
589,82	-0,040
590,02	0,135
590,22	0,219
590,42	0,277
590,62	0,099
590,83	0,139
591,03	0,120
591,23	0,131
591,43	0,313
591,63	0,172
591,83	0,130
592,03	0,328
592,24	0,239
592,44	0,055
592,64	0,043
592,84	0,229
593,04	0,123
593,24	0,102
593,44	0,112
593,65	0,047
593,85	0,231
594,05	0,176
594,25	0,196
594,45	0,097
594,65	0,194
594,85	-0,011
595,06	0,135
595,26	0,256
595,46	0,080
595,66	0,133
595,86	0,223
596,06	0,105
596,26	0,192
596,46	0,245
596,66	0,073
596,87	0,152
597,07	0,033
597,27	0,062
597,47	-0,044
597,67	0,094
597,87	0,134
598,07	0,044
598,27	0,176
598,47	0,286
598,67	0,044
598,88	0,253
599,08	0,096
599,28	0,074
599,48	0,037
599,68	0,235
599,88	-0,022
600,08	0,215
600,28	0,347
600,48	0,170
600,68	0,119
600,88	0,164
601,09	0,154
601,29	0,250
601,49	-0,049
601,69	0,199
601,89	0,038
602,09	0,038
602,29	0,226
602,49	0,080
602,69	0,274
602,89	0,076
603,09	0,098
603,29	0,175
603,49	0,226
603,69	0,225
603,90	0,111
604,10	0,186
604,30	0,267
604,50	0,091
604,70	0,096
604,90	0,122
605,10	0,251
605,30	0,073
605,50	0,054
605,70	0,174
605,90	-0,012
606,10	0,042
606,30	0,144
606,50	0,228
606,70	0,004
606,90	-0,062
607,10	0,093
607,30	0,178
607,50	0,050
607,70	0,307
607,90	0,276
608,10	0,238
608,30	0,046
608,50	0,143
608,70	0,286
608,90	0,101
609,11	0,086
609,31	0,179
609,51	0,200
609,71	0,215
609,91	0,097
610,11	0,271
610,31	0,144
610,51	0,256
610,71	0,172
610,91	0,074
611,11	0,051
611,31	0,282
611,51	0,012
611,71	-0,040
611,91	0,221
612,11	0,043
612,31	0,273
612,51	0,161
612,71	0,044
612,91	-0,040
613,11	0,211
613,31	0,040
613,51	0,000
613,71	0,079
613,91	0,254
614,11	0,124
614,31	0,008
614,50	0,275
614,70	0,122
614,90	0,172
615,10	0,083
615,30	0,119
615,50	0,139
615,70	0,151
615,90	0,136
616,10	0,120
616,30	0,262
616,50	0,169
616,70	0,076
616,90	-0,016
617,10	0,143
617,30	0,211
617,50	0,360
617,70	0,000
617,90	0,190
618,10	0,083
618,30	0,087
618,50	0,202
618,70	0,138
618,90	0,052
619,10	0,121
619,30	-0,140
619,49	0,190
619,69	0,119
619,89	0,194
620,09	0,056
620,29	0,213
620,49	0,262
620,69	-0,035
620,89	0,103
621,09	0,172
621,29	0,020
621,49	0,090
621,69	0,082
621,89	0,309
622,09	0,269
622,29	0,094
622,48	0,192
622,68	0,176
622,88	0,144
623,08	0,143
623,28	0,132
623,48	0,101
623,68	0,039
623,88	0,046
624,08	0,140
624,28	0,015
624,48	0,154
624,67	0,267
624,87	0,015
625,07	0,238
625,27	0,081
625,47	0,123
625,67	0,311
625,87	-0,042
626,07	0,050
626,27	-0,030
626,47	0,306
626,66	0,124
626,86	0,015
627,06	0,236
627,26	0,120
627,46	-0,067
627,66	0,241
627,86	0,109
628,06	0,172
628,25	0,126
628,45	0,089
628,65	0,217
628,85	0,235
629,05	0,183
629,25	0,011
629,45	0,278
629,65	0,104
629,84	-0,015
630,04	0,183
630,24	0,230
630,44	0,185
630,64	0,250
630,84	-0,061
631,04	0,255
631,23	0,119
631,43	0,038
631,63	0,032
631,83	0,000
632,03	0,242
632,23	0,197
632,42	0,310
632,62	0,278
632,82	0,000
633,02	0,235
633,22	0,102
633,42	0,068
633,62	-0,022
633,81	0,136
634,01	0,232
634,21	0,192
634,41	0,155
634,61	0,014
634,80	0,270
635,00	0,214
635,20	0,346
635,40	0,038
635,60	0,029
635,80	0,054
635,99	0,382
636,19	0,126
636,39	0,086
636,59	0,242
636,79	0,185
636,98	0,261
637,18	0,201
637,38	0,117
637,58	0,070
637,78	0,178
637,97	0,077
638,17	0,172
638,37	0,272
638,57	0,039
638,77	0,273
638,96	-0,029
639,16	0,110
639,36	0,172
639,56	0,460
639,76	0,218
639,95	0,183
640,15	-0,024
640,35	0,109
640,55	0,121
640,75	0,213
640,94	0,157
641,14	0,450
641,34	0,117
641,54	0,328
641,73	0,056
641,93	0,139
642,13	0,284
642,33	0,228
642,53	0,201
642,72	0,130
642,92	0,358
643,12	-0,033
643,32	0,257
643,51	0,187
643,71	0,207
643,91	0,149
644,11	0,274
644,30	0,151
644,50	0,439
644,70	0,293
644,90	0,647
645,09	-0,057
645,29	0,135
645,49	0,221
645,69	-0,194
645,88	0,281
646,08	0,145
646,28	0,548
646,48	-0,140
646,67	0,233
646,87	0,199
647,07	0,164
647,26	0,440
647,46	0,227
647,66	0,288
647,86	0,408
648,05	0,319
648,25	0,511
648,45	0,186
648,65	0,160
648,84	0,008
649,04	0,516
649,24	0,825
649,43	0,299
649,63	0,124
649,83	0,266
650,03	0,518
650,22	0,282
650,42	0,452
650,62	0,451
650,81	0,395
651,01	0,200
651,21	0,064
651,40	0,484
651,60	0,211
651,80	0,073
652,00	0,480
652,19	0,344
652,39	0,179
652,59	0,601
652,78	0,230
652,98	-0,215
653,18	0,084
653,37	0,485
653,57	0,450
653,77	0,125
653,96	0,356
654,16	0,546
654,36	0,373
654,55	0,219
654,75	0,707
654,95	0,128
655,14	0,336
655,34	0,906
655,54	0,404
655,73	0,113
655,93	0,192
656,13	0,078
656,32	-0,009
656,52	0,318
656,72	0,113
656,91	0,485
657,11	0,319
657,31	0,104
657,50	0,371
657,70	0,417
657,90	0,252
658,09	0,356
658,29	0,623
658,49	0,637
658,68	0,139
658,88	0,453
659,07	0,575
659,27	0,157
659,47	0,235
659,66	0,168
659,86	0,017
660,06	0,043
660,25	-0,097
660,45	0,642
660,64	0,457
660,84	0,288
661,04	0,193
661,23	0,275
661,43	0,360
661,63	0,353
661,82	0,000
662,02	0,539
662,21	0,436
662,41	0,734
662,61	0,513
662,80	0,342
663,00	0,243
663,19	0,690
663,39	0,052
663,59	0,542
663,78	0,370
663,98	0,522
664,17	0,332
664,37	0,043
664,57	0,446
664,76	0,246
664,96	0,298
665,15	0,417
665,35	0,144
665,55	0,128
665,74	0,236
665,94	0,262
666,13	0,025
666,33	0,557
666,53	0,384
666,72	-0,008
666,92	0,223
667,11	0,616
667,31	0,091
667,50	0,058
667,70	0,567
667,90	0,106
668,09	0,271
668,29	0,065
668,48	0,073
668,68	0,187
668,87	0,290
669,07	-0,056
669,26	-0,016
669,46	0,280
669,66	0,317
669,85	0,339
670,05	0,237
670,24	0,296
670,44	0,236
670,63	0,210
670,83	0,148
671,02	0,172
671,22	0,287
671,42	0,425
671,61	0,157
671,81	0,308
672,00	0,386
672,20	0,053
672,39	0,218
672,59	0,150
672,78	-0,075
672,98	0,286
673,17	0,289
673,37	0,135
673,56	0,022
673,76	-0,029
673,95	0,284
674,15	0,477
674,34	0,079
674,54	0,264
674,73	0,092
674,93	0,369
675,13	0,216
675,32	0,266
675,52	0,343
675,71	0,302
675,91	0,177
676,10	0,199
676,30	0,268
676,49	-0,020
676,69	0,214
676,88	0,257
677,08	0,190
677,27	0,169
677,47	0,169
677,66	0,511
677,86	0,384
678,05	-0,026
678,24	0,273
678,44	0,636
678,63	0,143
678,83	0,254
679,02	0,160
679,22	0,346
679,41	0,363
679,61	0,230
679,80	0,047
680,00	0,101
680,19	0,404
680,39	0,313
680,58	0,366
680,78	0,034
680,97	0,017
681,17	0,221
681,36	0,130
681,56	0,213
681,75	-0,067
681,94	0,083
682,14	0,290
682,33	0,206
682,53	0,135
682,72	0,075
682,92	0,608
683,11	0,269
683,31	0,414
683,50	0,136
683,69	0,216
683,89	0,195
684,08	0,278
684,28	-0,148
684,47	0,110
684,67	0,064
684,86	0,153
685,06	0,252
685,25	0,270
685,44	0,193
685,64	0,175
685,83	0,228
686,03	-0,047
686,22	0,274
686,42	0,083
686,61	0,150
686,80	0,178
687,00	0,023
687,19	0,155
687,39	0,124
687,58	0,110
687,77	0,330
687,97	0,235
688,16	0,104
688,36	-0,070
688,55	-0,026
688,74	0,000
688,94	0,047
689,13	0,139
689,33	0,208
689,52	0,214
689,71	-0,025
689,91	-0,044
690,10	0,086
690,30	-0,068
690,49	0,103
690,68	0,298
690,88	0,087
691,07	-0,036
691,27	0,012
691,46	0,134
691,65	0,004
691,85	0,090
692,04	0,150
692,23	-0,067
692,43	0,214
692,62	0,351
692,82	0,212
693,01	0,318
693,20	0,129
693,40	-0,004
693,59	0,154
693,78	0,300
693,98	-0,029
694,17	0,200
694,36	0,245
694,56	-0,063
694,75	0,183
694,94	0,231
695,14	0,087
695,33	0,110
695,53	0,311
695,72	0,320
695,91	0,014
696,11	0,104
696,30	0,058
696,49	0,166
696,69	0,107
696,88	0,097
697,07	0,120
697,27	0,106
697,46	0,258
697,65	-0,062
697,85	-0,018
698,04	0,183
698,23	0,182
698,43	0,293
698,62	-0,167
698,81	0,401
699,01	0,349
699,20	-0,231
699,39	0,187
699,58	0,233
699,78	0,038
699,97	0,275
700,16	0,081
700,36	0,459
700,55	0,207
700,74	0,403
700,94	-0,036
701,13	0,190
701,32	-0,068
701,52	0,269
701,71	0,491
701,90	0,609
702,09	0,748
702,29	0,459
702,48	0,034
702,67	0,464
702,87	0,739
703,06	0,776
703,25	0,636
703,44	0,013
703,64	0,415
703,83	0,702
704,02	0,908
704,22	0,089
704,41	-0,217
704,60	0,639
704,79	0,673
704,99	1,390
705,18	1,016
705,37	0,379
705,56	-0,235
705,76	1,210
705,95	1,103
706,14	1,026
706,33	0,572
706,53	0,487
706,72	0,230
706,91	1,177
707,11	0,215
707,30	-0,337
707,49	0,753
707,68	0,477
707,88	1,213
708,07	0,219
708,26	1,019
708,45	1,038
708,64	1,480
708,84	0,377
709,03	1,217
709,22	0,613
709,41	2,153
709,61	1,218
709,80	1,572
709,99	1,442
710,18	2,128
710,38	0,723
710,57	-0,445
710,76	-0,590
710,95	1,352
711,14	1,258
711,34	1,239
711,53	3,675
711,72	1,142
711,91	0,923
712,11	2,238
712,30	0,077
712,49	0,842
712,68	0,237
712,87	1,796
713,07	1,847
713,26	1,166
713,45	-0,042
713,64	1,397
713,83	1,143
714,03	0,582
714,22	1,538
714,41	2,142
714,60	1,519
714,79	-1,248
714,99	0,142
715,18	3,612
715,37	2,723
715,56	2,197
715,75	1,051
715,94	2,608
716,14	4,042
716,33	1,561
716,52	3,040
716,71	3,029
716,90	1,998
717,10	0,612
717,29	1,632
717,48	1,168
717,67	1,692
717,86	0,058
718,05	1,991
718,24	1,902
718,44	0,872
718,63	-0,426
718,82	3,560
719,01	1,868
719,20	0,952
719,39	4,641
719,59	1,758
719,78	1,937
719,97	4,552
720,16	3,226
720,35	0,551
720,54	-2,166
720,73	2,799
720,93	0,795
721,12	0,503
721,31	2,041
721,50	3,273
721,69	1,933
721,88	5,453
722,07	1,125
722,27	2,108
722,46	1,799
722,65	-0,318
722,84	-0,161
723,03	5,628
723,22	2,337
723,41	2,409
723,60	1,145
723,79	5,446
723,99	3,353
724,18	4,818
724,37	-1,726
724,56	3,918
724,75	3,652
724,94	8,277
725,13	2,403
725,32	5,671
725,51	1,395
725,71	1,863
725,90	6,238
726,09	0,365
726,28	0,000
726,47	0,296
726,66	2,888
726,85	2,085
727,04	0,408
727,23	4,680
727,42	5,458
727,61	3,086
727,81	-1,405
728,00	4,782
728,19	5,742
728,38	0,873
728,57	3,333
728,76	3,112
728,95	7,812
729,14	1,190
729,33	4,409
729,52	3,487
729,71	5,315
729,90	5,934
730,09	6,674
730,28	7,455
730,48	6,546
730,67	5,804
730,86	4,374
731,05	0,817
731,24	-0,366
731,43	5,575
731,62	2,176
731,81	0,795
732,00	8,862
732,19	6,250
732,38	5,128
732,57	3,912
732,76	0,410
732,95	0,901
733,14	-1,722
733,33	-1,587
733,52	7,865
733,71	6,600
733,90	-1,412
734,09	3,243
734,28	4,068
734,47	1,944
734,66	1,070
734,85	3,000
735,04	2,282
735,23	7,703
735,42	6,148
735,61	1,895
735,81	3,698
736,00	5,271
736,19	1,672
736,38	3,443
736,57	11,385
736,76	7,737
736,95	3,185
737,14	5,104
737,33	6,223
737,52	1,538
737,71	-0,492
737,90	8,037
738,09	8,371
738,28	3,139
738,47	5,839
738,66	2,244
738,85	9,009
739,04	1,544
739,22	5,351
739,41	4,779
739,60	4,608
739,79	-3,597
739,98	0,000
740,17	10,239
740,36	12,297
740,55	12,420
740,74	7,033
740,93	3,633
741,12	1,964
741,31	9,155
741,50	-0,378
741,69	4,425
741,88	-4,743
742,07	5,616
742,26	11,048
742,45	8,811
742,64	8,775
742,83	9,735
743,02	-3,368
743,21	15,162
743,40	-3,727
743,59	8,456
743,78	9,393
743,97	12,308
744,16	10,236
744,34	-0,699
744,53	12,990
744,72	10,021
744,91	2,101
745,10	9,224
745,29	9,476
745,48	5,909
745,67	15,262
745,86	8,830
746,05	10,190
746,24	6,392
746,43	4,497
746,62	6,250
746,81	11,461
747,00	8,534
747,18	6,536
747,37	18,947
747,56	12,471
747,75	6,650
747,94	17,961
748,13	22,148
748,32	6,905
748,51	14,721
748,70	14,317
748,89	3,513
749,08	-5,233
749,26	13,877
749,45	10,992
749,64	9,572
749,83	17,079
750,02	11,413
750,21	12,977
750,40	13,968
750,59	6,702
750,78	8,479
750,96	9,945
751,15	10,981
751,34	1,420
751,53	-1,366
751,72	5,070
751,91	17,098
752,10	4,450
752,29	9,333
752,47	-3,152
752,66	13,333
752,85	22,951
753,04	0,559
753,23	10,836
753,42	6,469
753,61	15,361
753,80	6,873
753,98	18,687
754,17	2,432
754,36	-0,968
754,55	10,542
754,74	9,740
754,93	24,793
755,12	10,979
755,30	13,636
755,49	6,105
755,68	17,485
755,87	5,621
756,06	-3,125
756,25	8,511
756,43	-9,060
756,62	10,248
756,81	8,609
757,00	23,026
757,19	11,458
757,38	0,000
757,56	-12,800
757,75	15,700
757,94	-4,563
758,13	6,849
758,32	13,947
758,51	3,367
758,69	3,089
758,88	1,010
759,07	14,671
759,26	-0,353
759,45	7,368
759,63	12,987
759,82	20,000
760,01	13,187
760,20	20,126
760,39	9,148
760,57	13,240
760,76	21,254
760,95	14,236
761,14	19,343
761,33	3,871
761,51	10,000
761,70	24,535
761,89	5,333
762,08	26,394
762,27	9,747
762,45	12,319
762,64	15,578
762,83	17,530
763,02	8,696
763,21	1,000
763,39	10,490
763,58	2,602
763,77	11,392
763,96	10,757
764,14	0,417
764,33	11,429
764,52	10,714
764,71	22,295
764,89	16,071
765,08	-4,926
765,27	6,809
765,46	18,386
765,65	26,667
765,83	37,557
766,02	-13,333
766,21	32,240
766,40	22,179
766,58	20,106
766,77	15,138
766,96	5,285
767,15	36,134
767,33	29,952
767,52	23,581
767,71	23,246
767,90	19,095
768,08	12,575
768,27	16,667
768,46	28,947
768,64	4,630
768,83	35,784
769,02	2,463
769,21	20,312
769,39	24,286
769,58	28,571
769,77	28,191
769,96	7,207
770,14	29,508
770,33	14,019
770,52	25,180
770,70	10,811
770,89	39,459
771,08	-9,036
771,27	32,105
771,45	-4,118
771,64	23,030
771,83	31,863
772,01	35,567
772,20	3,980
772,39	3,797
772,57	25,871
772,76	14,189
772,95	27,586
773,14	36,054
773,32	11,864
773,51	1,190
773,70	34,532
773,88	0,000
774,07	15,228
774,26	-16,129
774,44	29,323
774,63	30,539
774,82	3,247
775,00	24,766
775,19	25,595
775,38	28,191
775,56	32,919
775,75	45,604
775,94	46,667
776,12	24,837
776,31	11,278
776,50	13,699
776,68	16,129
776,87	49,761
777,06	23,270
777,24	36,975
777,43	27,807
777,62	23,034
777,80	29,560
777,99	51,667
778,18	31,034
778,36	33,051
778,55	5,932
778,74	-7,031
778,92	51,852
779,11	14,545
779,29	22,695
779,48	19,858
779,67	61,261
779,85	7,895
780,04	28,986
780,23	8,929
780,41	42,373
780,60	8,725
780,79	44,355
780,97	27,451
781,16	14,362
781,34	28,378
781,53	20,536
781,72	11,712
781,90	35,329
782,09	5,814
782,28	17,007
782,46	47,857
782,65	50,704
782,83	29,560
783,02	34,211
783,21	38,346
783,39	79,832
783,58	15,652
783,76	33,333
783,95	47,887
784,14	-2,632
784,32	23,529
784,51	61,486
784,69	16,406
784,88	21,495
785,06	32,450
785,25	30,496
785,44	-20,968
785,62	40,714
785,81	28,704
785,99	19,549
786,18	11,712
786,37	45,055
786,55	25,000
786,74	45,455
786,92	0,699
787,11	15,972
787,29	38,393
787,48	32,258
787,67	16,038
787,85	55,696
788,04	43,243
788,22	-7,921
788,41	31,496
788,59	34,211
788,78	6,593
788,96	57,025
789,15	34,167
789,34	28,846
789,52	3,226
789,71	49,640
789,89	49,351
790,08	15,000
790,26	33,121
790,45	-22,222
790,63	34,483
790,82	51,538
791,00	29,204
791,19	28,000
791,38	-10,476
791,56	54,545
791,75	27,778
791,93	55,000
792,12	29,565
792,30	45,985
792,49	20,202
792,67	33,824
792,86	24,800
793,04	33,333
793,23	41,053
793,41	39,130
793,60	54,861
793,78	10,476
793,97	43,056
794,15	85,714
794,34	24,000
794,52	-53,763
794,71	31,008
794,89	17,424
795,08	34,400
795,26	12,000
795,45	2,778
795,63	53,226
795,82	53,846
796,00	30,000
796,19	60,976
796,37	25,191
796,56	-2,913
796,74	18,947
796,93	50,000
797,11	56,627
797,30	55,000
797,48	45,313
797,67	26,829
797,85	55,385
798,04	21,186
798,22	30,769
798,41	-9,615
798,59	56,190
798,77	49,398
798,96	27,778
799,14	39,516
799,33	64,220
799,51	26,389
799,70	65,385
799,88	94,495
800,07	50,382
800,25	55,422
800,44	111,111
800,62	55,556
800,80	35,211
800,99	73,973
801,17	16,379
801,36	53,571
801,54	41,000
801,73	10,526
801,91	31,405
802,10	82,353
802,28	54,400
802,46	39,474
802,65	25,180
802,83	60,000
803,02	24,194
803,20	101,205
803,39	56,322
803,57	21,260
803,75	52,033
803,94	45,238
804,12	88,276
804,31	-7,246
804,49	14,400
804,67	37,500
804,86	53,097
805,04	1,205
805,23	40,708
805,41	12,500
805,59	75,342
805,78	44,000
805,96	26,506
806,15	47,525
806,33	93,421
806,51	30,667
806,70	47,368
806,88	17,442
807,07	66,667
807,25	70,330
807,43	42,857
807,62	29,204
807,80	2,857
807,99	51,538
808,17	3,937
808,35	65,000
808,54	14,493
808,72	55,856
808,90	17,808
809,09	29,348
809,27	18,667
809,46	54,945
809,64	78,049
809,82	30,464
810,01	54,688
810,19	72,727
810,37	53,906
810,56	82,222
810,74	14,286
810,92	17,333
811,11	5,263
811,29	50,000
811,48	0,000
811,66	34,831
811,84	36,264
812,03	25,410
812,21	38,596
812,39	22,609
812,58	8,421
812,76	56,115
812,94	36,145
813,13	47,872
813,31	40,000
813,49	48,148
813,68	12,727
813,86	-34,831
814,04	42,149
814,23	11,446
814,41	44,944
814,59	28,155
814,78	43,382
814,96	15,723
815,14	16,822
815,33	26,357
815,51	45,669
815,69	45,714
815,87	6,931
816,06	14,783
816,24	40,373
816,42	47,059
816,61	53,459
816,79	31,034
816,97	62,500
817,16	26,627
817,34	65,873
817,52	28,099
817,70	27,723
817,89	33,333
818,07	19,863
818,25	8,163
818,44	14,103
818,62	23,256
818,80	13,534
818,98	33,758
819,17	22,689
819,35	43,085
819,53	50,746
819,72	60,759
819,90	45,736
820,08	0,000
820,26	33,621
820,45	-0,671
820,63	113,393
820,81	38,400
820,99	20,567
821,18	31,293
821,36	44,304
821,54	59,310
821,73	38,889
821,91	7,018
822,09	20,968
822,27	44,516
822,46	27,941
822,64	16,800
822,82	47,514
823,00	7,182
823,19	32,967
823,37	24,848
823,55	26,136
823,73	37,241
823,91	22,464
824,10	25,806
824,28	58,794
824,46	26,214
824,64	26,316
824,83	45,963
825,01	28,000
825,19	39,516
825,37	55,652
825,56	41,038
825,74	25,000
825,92	38,854
826,10	42,045
826,28	13,095
826,47	26,316
826,65	4,255
826,83	6,897
827,01	36,416
827,19	20,833
827,38	26,543
827,56	33,523
827,74	13,966
827,92	50,581
828,10	14,103
828,29	40,828
828,47	38,618
828,65	23,077
828,83	15,152
829,01	17,391
829,20	14,286
829,38	51,136
829,56	51,087
829,74	26,415
829,92	13,889
830,10	23,563
830,29	32,663
830,47	28,141
830,65	12,195
830,83	29,018
831,01	50,595
831,20	31,068
831,38	5,742
831,56	35,349
831,74	25,118
831,92	50,658
832,10	20,952
832,29	14,865
832,47	-14,607
832,65	23,529
832,83	37,559
833,01	20,500
833,19	22,624
833,37	34,842
833,56	17,722
833,74	19,118
833,92	0,000
834,10	13,693
834,28	32,911
834,46	38,009
834,64	21,759
834,83	25,909
835,01	28,631
835,19	35,600
835,37	12,810
835,55	3,125
835,73	17,734
835,91	35,793
836,09	15,209
836,28	17,343
836,46	10,400
836,64	24,812
836,82	23,982
837,00	18,841
837,18	17,844
837,36	17,131
837,54	25,000
837,72	28,017
837,91	17,910
838,09	5,578
838,27	15,000
838,45	9,929
838,63	4,044
838,81	8,017
838,99	25,403
839,17	20,946
839,35	18,794
839,53	9,474
839,72	6,015
839,90	13,058
840,08	28,615
840,26	6,746
840,44	24,471
840,62	11,034
840,80	23,810
840,98	-5,882
841,16	18,251
841,34	-3,679
841,52	13,761
841,70	14,462
841,89	14,113
842,07	16,928
842,25	28,448
842,43	7,328
842,61	15,088
842,79	11,864
842,97	8,143
843,15	26,733
843,33	13,565
843,51	24,398
843,69	24,217
843,87	-5,597
844,05	12,158
844,23	10,210
844,41	-2,508
844,59	17,003
844,77	8,964
844,95	7,514
845,13	16,615
845,31	3,488
845,50	12,042
845,68	20,257
845,86	7,184
846,04	13,687
846,22	6,267
846,40	15,860
846,58	13,960
846,76	10,753
846,94	23,691
847,12	15,544
847,30	6,186
847,48	19,195
847,66	14,778
847,84	3,825
848,02	19,807
848,20	8,269
848,38	10,826
848,56	21,875
848,74	11,456
848,92	7,731
849,10	1,500
849,28	9,514
849,46	13,867
849,64	13,164
849,82	2,469
850,00	14,019
850,18	11,702
850,36	9,934
850,54	11,278
850,72	6,170
850,90	23,478
851,08	10,941
851,26	6,127
851,44	11,283
851,62	11,163
851,80	12,775
851,98	9,890
852,16	14,421
852,34	14,639
852,52	6,027
852,70	11,390
852,87	8,219
853,05	9,357
853,23	5,567
853,41	7,937
853,59	10,788
853,77	7,937
853,95	13,080
854,13	1,549
854,31	9,651
854,49	10,978
854,67	4,104
854,85	7,660
855,03	19,038
855,21	15,579
855,39	2,817
855,57	6,989
855,75	16,971
855,93	2,353
856,11	14,507
856,28	7,934
856,46	12,633
856,64	14,857
856,82	9,107
857,00	6,288
857,18	9,025
857,36	9,949
857,54	9,689
857,72	2,281
857,90	4,059
858,08	6,275
858,26	4,555
858,44	7,018
858,61	7,317
858,79	11,419
858,97	6,549
859,15	14,241
859,33	7,812
859,51	10,385
859,69	0,894
859,87	7,578
860,05	-5,329
860,23	8,442
860,40	7,829
860,58	11,639
860,76	7,302
860,94	6,667
861,12	9,692
861,30	2,669
861,48	8,143
861,66	3,016
861,84	3,288
862,01	9,720
862,19	-1,525
862,37	10,590
862,55	9,654
862,73	2,632
862,91	4,846
863,09	6,399
863,27	8,190
863,44	3,103
863,62	5,299
863,80	5,345
863,98	0,445
864,16	3,468
864,34	7,779
864,52	0,134
864,69	4,240
864,87	-0,145
865,05	3,129
865,23	3,268
865,41	4,435
865,59	4,845
865,76	9,185
865,94	7,752
866,12	5,548
866,30	2,665
866,48	7,834
866,66	4,032
866,83	7,761
867,01	-0,512
867,19	6,632
867,37	3,493
867,55	4,182
867,73	3,966
867,90	4,790
868,08	2,902
868,26	5,147
868,44	0,469
868,62	2,703
868,79	8,706
868,97	1,511
869,15	4,176
869,33	6,227
869,51	6,736
869,69	7,805
869,86	5,029
870,04	10,000
870,22	7,903
870,40	7,836
870,57	6,459
870,75	6,519
870,93	7,263
871,11	9,091
871,29	0,457
871,46	1,987
871,64	11,088
871,82	5,490
872,00	10,494
872,18	1,688
872,35	11,550
872,53	5,044
872,71	7,653
872,89	6,688
873,06	7,269
873,24	10,281
873,42	6,151
873,60	3,583
873,77	0,613
873,95	1,551
874,13	4,651
874,31	5,057
874,49	0,871
874,66	4,793
874,84	5,115
875,02	8,891
875,20	4,532
875,37	10,169
875,55	5,916
875,73	3,584
875,91	4,368
876,08	0,457
876,26	0,177
876,44	4,431
876,61	5,077
876,79	7,612
876,97	4,471
877,15	6,960
877,32	3,495
877,50	1,325
877,68	2,656
877,86	1,189
878,03	6,948
878,21	5,146
878,39	4,892
878,56	0,496
878,74	4,052
878,92	0,323
879,10	5,150
879,27	4,703
879,45	3,864
879,63	3,416
879,80	3,892
879,98	1,731
880,16	4,876
880,34	8,106
880,51	-0,789
880,69	2,083
880,87	2,266
881,04	3,763
881,22	3,899
881,40	3,359
881,57	3,160
881,75	4,709
881,93	5,316
882,10	4,146
882,28	4,759
882,46	4,452
882,63	2,054
882,81	3,663
882,99	5,150
883,16	3,154
883,34	3,543
883,52	3,353
883,69	5,420
883,87	1,823
884,05	1,949
884,22	2,479
884,40	6,155
884,58	2,708
884,75	2,704
884,93	1,946
885,11	3,335
885,28	3,743
885,46	0,369
885,64	1,363
885,81	3,592
885,99	2,602
886,17	1,572
886,34	2,397
886,52	2,914
886,70	3,717
886,87	2,882
887,05	2,806
887,22	2,269
887,40	3,516
887,58	2,352
887,75	5,275
887,93	2,420
888,11	4,068
888,28	3,397
888,46	3,006
888,63	1,792
888,81	2,970
888,99	3,081
889,16	4,156
889,34	1,938
889,51	1,251
889,69	2,621
889,87	4,722
890,04	2,463
890,22	1,609
890,39	0,844
890,57	4,258
890,75	2,291
890,92	3,295
891,10	3,752
891,27	2,790
891,45	2,360
891,63	4,015
891,80	3,307
891,98	1,839
892,15	2,657
892,33	2,538
892,51	2,395
892,68	2,400
892,86	1,322
893,03	2,517
893,21	2,266
893,38	0,544
893,56	3,633
893,74	2,025
893,91	2,744
894,09	2,335
894,26	3,614
894,44	2,163
894,61	1,276
894,79	1,614
894,96	1,877
895,14	2,542
895,32	4,201
895,49	2,940
895,67	2,111
895,84	2,539
896,02	1,890
896,19	0,633
896,37	2,495
896,54	0,619
896,72	1,502
896,89	3,761
897,07	2,251
897,25	3,260
897,42	1,511
897,60	4,325
897,77	3,097
897,95	1,922
898,12	3,786
898,30	1,577
898,47	2,174
898,65	0,744
898,82	2,681
899,00	-0,039
899,17	3,783
899,35	0,433
899,52	3,526
899,70	3,434
899,87	-0,382
900,05	0,837
900,22	2,095
900,40	1,135
900,57	2,189
900,75	-0,411
900,92	0,816
901,10	1,861
901,27	1,517
901,45	2,820
901,62	1,349
901,80	1,828
901,97	2,770
902,15	1,512
902,32	2,300
902,50	0,466
902,67	2,904
902,85	0,998
903,02	2,185
903,20	1,142
903,37	2,384
903,54	1,329
903,72	4,246
903,89	2,212
904,07	-0,178
904,24	2,208
904,42	2,289
904,59	0,286
904,77	1,981
904,94	0,925
905,12	1,382
905,29	0,492
905,47	1,464
905,64	2,058
905,81	0,696
905,99	0,035
906,16	-0,035
906,34	1,575
906,51	1,865
906,69	2,208
906,86	1,374
907,03	1,514
907,21	1,826
907,38	1,702
907,56	1,939
907,73	0,669
907,91	0,934
908,08	2,407
908,25	4,454
908,43	1,678
908,60	1,133
908,78	1,443
908,95	1,614
909,13	2,995
909,30	3,746
909,47	1,175
909,65	2,553
909,82	1,936
910,00	1,672
910,17	2,013
910,34	2,063
910,52	1,308
910,69	1,199
910,87	3,164
911,04	1,423
911,21	2,756
911,39	0,912
911,56	1,961
911,73	0,721
911,91	1,539
912,08	3,097
912,26	1,480
912,43	3,285
912,60	1,314
912,78	1,683
912,95	2,010
913,13	0,606
913,30	3,292
913,47	2,143
913,65	2,775
913,82	1,613
913,99	1,949
914,17	1,873
914,34	0,919
914,51	2,715
914,69	1,923
914,86	3,795
915,03	2,160
915,21	2,038
915,38	2,949
915,56	3,445
915,73	2,189
915,90	3,706
916,08	2,631
916,25	2,649
916,42	3,156
916,60	3,891
916,77	2,758
916,94	2,531
917,12	3,322
917,29	4,081
917,46	4,283
917,64	3,811
917,81	4,737
917,98	3,139
918,16	3,345
918,33	5,613
918,50	5,381
918,67	5,317
918,85	5,190
919,02	5,284
919,19	5,551
919,37	6,103
919,54	6,344
919,71	7,253
919,89	6,668
920,06	7,326
920,23	7,982
920,41	8,953
920,58	8,188
920,75	8,864
920,92	8,496
921,10	9,600
921,27	9,948
921,44	11,420
921,62	11,517
921,79	11,243
921,96	10,253
922,13	11,386
922,31	11,962
922,48	12,003
922,65	13,129
922,82	13,687
923,00	14,003
923,17	13,053
923,34	15,203
923,52	13,691
923,69	14,768
923,86	17,076
924,03	15,145
924,21	16,041
924,38	17,667
924,55	16,106
924,72	16,722
924,90	18,076
925,07	17,986
925,24	18,415
925,41	18,024
925,59	18,109
925,76	18,448
925,93	19,487
926,10	21,048
926,28	18,629
926,45	19,877
926,62	19,702
926,79	22,341
926,96	23,250
927,14	21,819
927,31	22,776
927,48	23,180
927,65	23,741
927,83	24,162
928,00	23,821
928,17	24,071
928,34	25,705
928,51	26,561
928,69	25,235
928,86	26,798
929,03	27,229
929,20	25,893
929,37	27,781
929,55	28,366
929,72	29,124
929,89	28,880
930,06	26,461
930,23	28,498
930,41	28,997
930,58	29,329
930,75	29,072
930,92	30,203
931,09	30,473
931,27	27,714
931,44	30,135
931,61	29,635
931,78	28,470
931,95	29,163
932,12	29,940
932,30	29,937
932,47	28,574
932,64	29,233
932,81	28,580
932,98	30,004
933,16	28,571
933,33	27,882
933,50	28,379
933,67	27,642
933,84	29,058
934,01	26,797
934,18	27,349
934,36	28,262
934,53	27,948
934,70	27,212
934,87	26,655
935,04	24,686
935,21	25,587
935,38	26,027
935,56	25,436
935,73	24,631
935,90	26,205
936,07	25,658
936,24	25,098
936,41	23,881
936,58	23,700
936,76	24,563
936,93	21,835
937,10	23,557
937,27	24,194
937,44	22,744
937,61	23,674
937,78	23,194
937,95	23,019
938,13	21,896
938,30	23,074
938,47	22,989
938,64	21,804
938,81	21,904
938,98	21,260
939,15	21,637
939,32	21,796
939,49	20,884
939,66	20,199
939,84	20,093
940,01	20,648
940,18	20,040
940,35	19,190
940,52	20,834
940,69	18,414
940,86	19,204
941,03	19,064
941,20	17,966
941,37	16,726
941,54	17,980
941,71	18,954
941,89	17,813
942,06	16,265
942,23	17,574
942,40	15,071
942,57	15,037
942,74	14,881
942,91	16,692
943,08	14,805
943,25	15,402
943,42	13,902
943,59	15,566
943,76	14,115
943,93	13,879
944,10	13,344
944,27	12,489
944,44	13,894
944,61	13,385
944,79	12,839
944,96	14,468
945,13	12,884
945,30	14,129
945,47	13,272
945,64	13,395
945,81	13,770
945,98	12,857
946,15	12,553
946,32	12,207
946,49	12,859
946,66	13,918
946,83	12,611
947,00	13,612
947,17	13,071
947,34	13,398
947,51	14,066
947,68	14,321
947,85	11,656
948,02	14,168
948,19	12,899
948,36	13,076
948,53	12,635
948,70	11,923
948,87	15,499
949,04	14,857
949,21	13,924
949,38	14,767
949,55	14,974
949,72	12,886
949,89	14,660
950,06	13,393
950,23	14,161
950,40	14,106
950,57	12,436
950,74	13,510
950,91	13,096
951,08	13,728
951,25	13,333
951,42	12,849
951,59	13,640
951,76	11,301
951,93	13,404
952,10	14,510
952,27	12,674
952,44	14,501
952,61	13,565
952,77	14,448
952,94	14,351
953,11	14,272
953,28	14,351
953,45	15,005
953,62	13,951
953,79	14,716
953,96	15,068
954,13	15,803
954,30	16,247
954,47	16,497
954,64	13,208
954,81	17,749
954,98	13,876
955,15	11,608
955,32	16,019
955,49	15,212
955,65	15,911
955,82	14,259
955,99	17,647
956,16	18,096
956,33	13,800
956,50	14,897
956,67	18,010
956,84	15,336
957,01	16,119
957,18	15,361
957,35	18,069
957,52	18,657
957,68	18,564
957,85	18,313
958,02	17,998
958,19	17,151
958,36	19,497
958,53	15,770
958,70	16,651
958,87	14,371
959,04	12,679
959,21	16,783
959,37	16,785
959,54	14,450
959,71	17,525
959,88	13,488
960,05	16,182
960,22	14,214
960,39	11,055
960,56	11,765
960,72	17,036
960,89	15,570
961,06	14,958
961,23	9,021
961,40	12,628
961,57	14,696
961,74	4,455
961,90	12,772
962,07	16,592
962,24	6,260
962,41	19,138
962,58	17,391
962,75	14,872
962,92	10,702
963,08	16,875
963,25	6,175
963,42	17,068
963,59	11,910
963,76	5,765
963,93	11,609
964,10	10,407
964,26	13,333
964,43	12,093
964,60	5,568
964,77	21,029
964,94	10,370
965,10	12,535
965,27	1,117
965,44	-1,270
965,61	7,192
965,78	13,665
965,95	20,149
966,11	16,364
966,28	8,939
966,45	16,993
966,62	4,878
966,79	8,532
966,95	16,014
967,12	19,048
967,29	20,062
967,46	24,555
967,63	18,431
967,79	44,295
967,96	22,018
968,13	23,333
968,30	32,922
968,47	5,000
968,63	23,529
968,80	29,502
968,97	28,324
969,14	21,469
969,31	43,367
969,47	28,804
969,64	0,000
969,81	29,677
969,98	21,579
970,14	3,763
970,31	21,384
970,48	14,094
970,65	35,537
970,81	13,287
970,98	36,458
971,15	44,848
971,32	49,242
971,48	50,595
971,65	15,894
971,82	63,636
971,99	49,367
972,15	-1,163
972,32	41,667
972,49	45,902
972,66	50,413
972,82	28,767
972,99	-27,500
973,16	66,887
973,33	25,185
973,49	36,585
973,66	41,905
973,83	23,457
974,00	16,456
974,16	34,545
974,33	61,333
974,50	65,657
974,67	34,524
974,83	48,980
975,00	89,091
975,17	106,452
975,33	78,161
975,50	73,770
975,67	86,538
975,84	103,659
976,00	101,316
976,17	58,696
976,34	25,882
976,50	0,000
976,67	58,333
976,84	175,000
977,00	52,564
977,17	71,111
977,34	115,385
977,50	50,000
977,67	63,529
977,84	128,814
978,01	75,676
978,17	51,724
978,34	137,037
978,51	180,000
978,67	85,714
978,84	85,455
979,01	0,000
979,17	35,714
979,34	141,304
979,51	79,545
979,67	300,000
979,84	132,203
980,01	65,385
980,17	100,000
980,34	60,274
980,51	488,889
980,67	31,111
980,84	25,714
981,01	91,176
981,17	141,176
981,34	42,857
981,50	123,158
981,67	61,905
981,84	114,286
982,00	2600,000
982,17	132,813
982,34	163,415
982,50	0,000
982,67	-485,714
982,84	395,000
983,00	120,370
983,17	-357,143
983,33	666,667
983,50	43,902
983,67	78,261
983,83	214,286
984,00	178,261
984,17	622,222
984,33	-364,286
984,50	97,297
984,66	156,250
984,83	312,500
985,00	38,462
985,16	119,355
985,33	3200,000
985,49	80,233
985,66	52,500
985,83	-1466,667
985,99	388,889
986,16	184,211
986,32	39,726
986,49	-80,000
986,66	540,000
986,82	109,091
986,99	-680,000
987,15	215,152
987,32	258,824
987,49	171,429
987,65	-121,739
987,82	-25,000
987,98	90,909
988,15	600,000
988,31	62,857
988,48	186,275
988,65	560,000
988,81	80,000
988,98	243,243
989,14	270,000
989,31	101,695
989,47	57,143
989,64	372,222
989,80	74,468
989,97	156,364
990,14	485,714
990,30	-562,500
990,47	-29,167
990,63	171,053
990,80	1266,667
990,96	633,333
991,13	136,667
991,29	92,157
991,46	83,333
991,62	0,000
991,79	-200,000
991,95	276,471
992,12	850,000
992,29	-219,048
992,45	221,429
992,62	-178,571
992,78	-600,000
992,95	229,032
993,11	575,000
993,28	-4200,000
993,44	-51,724
993,61	126,316
993,77	0,000
993,94	92,308
994,10	571,429
994,27	-44,737
994,43	243,750
994,60	514,286
994,76	251,515
994,93	-340,000
995,09	-187,500
995,26	358,333
995,42	162,500
995,59	26,667
995,75	-225,000
995,92	-528,571
996,08	-940,000
996,25	109,091
996,41	1000,000
996,58	388,000
996,74	30,000
996,91	100,000
997,07	140,000
997,23	129,412
997,40	683,333
997,56	-1333,333
997,73	352,174
997,89	1280,000
998,06	91,228
998,22	200,000
998,39	97,959
998,55	457,895
998,72	-6000,000
998,88	90,000
999,05	473,333
999,21	158,824
999,37	127,907
999,54	158,065
999,70	333,333
999,87	616,667
1000,03	263,333
1000,20	78,571
1000,36	-400,000
1000,52	1300,000
1000,69	396,000
1000,85	-258,333
1001,02	190,476
1001,18	920,000
1001,35	0,000
1001,51	235,714
1001,67	265,000
1001,84	114,634
1002,00	-409,091
1002,17	825,000
1002,33	-475,000
1002,50	558,333
1002,66	1125,000
1002,82	126,829
1002,99	-122,727
1003,15	-3800,000
1003,32	-114,286
1003,48	-2433,333
1003,64	243,478
1003,81	-126,316
1003,97	175,362
1004,14	-81,818
1004,30	245,455
1004,46	-4700,000
1004,63	-438,462
1004,79	102,703
1004,95	-560,000
1005,12	-284,615
1005,28	177,778
1005,45	-566,667
1005,61	361,538
1005,77	-514,286
1005,94	141,304
1006,10	-450,000
1006,26	-107,407
1006,43	121,212
1006,59	238,710
1006,76	-140,000
1006,92	100,000
1007,08	80,303
1007,25	113,889
1007,41	36,364
1007,57	-158,824
1007,74	100,000
1007,90	-171,429
1008,06	-13,333
1008,23	-294,737
1008,39	125,000
1008,55	105,882
1008,72	-1062,500
1008,88	-17,143
1009,04	-733,333
1009,21	190,625
1009,37	309,677
1009,53	-230,000
1009,70	21,212
1009,86	378,947
1010,02	143,182
1010,19	780,000
1010,35	7300,000
1010,51	231,429
1010,68	163,636
1010,84	370,000
1011,00	107,143
1011,17	2033,333
1011,33	226,923
1011,49	181,250
1011,66	184,375
1011,82	-766,667
1011,98	460,000
1012,14	92,308
1012,31	154,545
1012,47	-942,857
1012,63	5100,000
1012,80	355,556
1012,96	75,000
1013,12	-48,148
1013,29	212,500
1013,45	-26,471
1013,61	-540,000
1013,77	-200,000
1013,94	283,333
1014,10	2400,000
1014,26	-35,294
1014,43	284,211
1014,59	0,000
1014,75	660,000
1014,91	177,143
1015,08	192,308
1015,24	253,333
1015,40	500,000
1015,56	394,118
1015,73	134,694
1015,89	611,111
1016,05	113,514
1016,21	392,593
1016,38	168,421
1016,54	-260,000
1016,70	447,368
1016,86	-261,538
1017,03	0,000
1017,19	800,000
1017,35	233,333
1017,51	700,000
1017,68	857,143
1017,84	268,421
1018,00	214,286
1018,16	-462,500
1018,33	409,091
1018,49	300,000
1018,65	-300,000
1018,81	9,756
1018,97	546,154
1019,14	-757,143
1019,30	366,667
1019,46	161,538
1019,62	1800,000
1019,79	-214,286
1019,95	-1700,000
1020,11	260,000
1020,27	110,000
1020,43	-550,000
1020,60	0,000
1020,76	123,529
1020,92	6900,000
1021,08	-88,889
1021,24	-1500,000
1021,41	248,485
1021,57	-308,333
1021,73	0,000
1021,89	-231,818
1022,05	137,143
1022,21	-169,231
1022,38	105,263
1022,54	780,000
1022,70	222,222
1022,86	-450,000
1023,02	500,000
1023,19	-250,000
1023,35	79,245
1023,51	138,710
1023,67	150,000
1023,83	590,909
1023,99	265,714
1024,16	29,231
1024,32	218,750
1024,48	259,184
1024,64	-340,000
1024,80	541,667
1024,96	353,846
1025,12	1333,333
1025,29	-600,000
1025,45	216,667
1025,61	3266,667
1025,77	147,619
1025,93	-230,769
1026,09	3600,000
1026,26	-1042,857
1026,42	-1100,000
1026,58	144,231
1026,74	500,000
1026,90	305,263
1027,06	-280,000
1027,22	-441,667
1027,38	455,556
1027,55	-112,000
1027,71	337,500
1027,87	90,000
1028,03	119,697
1028,19	-21,212
1028,35	83,784
1028,51	24,194
1028,67	-200,000
1028,83	138,095
1029,00	264,286
1029,16	-426,667
1029,32	129,412
1029,48	3450,000
1029,64	657,143
1029,80	1250,000
1029,96	182,353
1030,12	-87,500
1030,28	1300,000
1030,44	-600,000
1030,61	225,000
1030,77	-230,435
1030,93	206,977
1031,09	-235,714
1031,25	-388,889
1031,41	-750,000
1031,57	52,632
1031,73	381,818
1031,89	-154,545
1032,05	1128,571
1032,21	460,000
1032,37	-23,529
1032,53	-65,000
1032,69	-3400,000
1032,86	1583,333
1033,02	187,500
1033,18	-553,846
1033,34	-223,077
1033,50	135,484
1033,66	-400,000
1033,82	228,571
1033,98	-435,294
1034,14	844,444
1034,30	-290,909
1034,46	400,000
1034,62	494,444
1034,78	100,000
1034,94	-38,710
1035,10	-200,000
1035,26	-388,889
1035,42	57,143
1035,58	880,000
1035,74	-106,667
1035,90	-375,000
1036,06	152,830
1036,22	-160,000
1036,38	593,333
1036,54	190,000
1036,70	-2800,000
1036,86	-178,571
1037,02	-2150,000
1037,18	-50,000
1037,34	230,435
1037,50	-306,667
1037,66	-2033,333
1037,82	-352,941
1037,98	95,238
1038,14	-3,448
1038,30	57,692
1038,46	143,750
1038,62	93,548
1038,78	88,095
1038,94	-47,368
1039,10	-166,667
1039,26	-152,632
1039,42	-114,286
1039,58	171,698
1039,74	43,750
1039,90	-171,795
1040,06	400,000
>>>>>End Processed Spectral Data<<<<<
