SpectraSuite Data File
++++++++++++++++++++++++++++++++++++
Date: Thu Feb 02 17:24:50 EET 2017
User: optolab
Dark Spectrum Present: Yes
Reference Spectrum Present: Yes
Number of Sampled Component Spectra: 1
Spectrometers: USB4C02475
Integration Time (usec): 100000 (USB4C02475)
Spectra Averaged: 1 (USB4C02475)
Boxcar Smoothing: 0 (USB4C02475)
Correct for Electrical Dark: No (USB4C02475)
Strobe/Lamp Enabled: No (USB4C02475)
Correct for Detector Non-linearity: No (USB4C02475)
Correct for Stray Light: No (USB4C02475)
Number of Pixels in Processed Spectrum: 3648
>>>>>Begin Processed Spectral Data<<<<<
344,91	-650,000
345,13	-650,000
345,35	-650,000
345,57	-70,588
345,79	13,043
346,00	-155,882
346,22	-1042,857
346,44	-33,333
346,66	270,213
346,87	139,130
347,09	461,538
347,31	5200,000
347,53	-1325,000
347,74	-188,372
347,96	-857,143
348,18	244,118
348,40	335,294
348,61	-187,179
348,83	6300,000
349,05	220,513
349,27	305,882
349,48	-4500,000
349,70	457,143
349,92	252,381
350,14	162,162
350,35	-223,077
350,57	-227,778
350,79	12,821
351,01	-300,000
351,22	730,000
351,44	541,667
351,66	211,111
351,87	583,333
352,09	88,158
352,31	137,500
352,53	265,714
352,74	-414,286
352,96	136,842
353,18	103,125
353,40	-437,500
353,61	413,333
353,83	72,917
354,05	287,500
354,26	307,143
354,48	-1320,000
354,70	257,143
354,92	255,556
355,13	-97,674
355,35	159,259
355,57	182,812
355,78	0,000
356,00	129,787
356,22	172,727
356,44	176,744
356,65	307,143
356,87	88,889
357,09	251,429
357,30	61,364
357,52	-350,000
357,74	290,323
357,95	174,286
358,17	2,899
358,39	72,000
358,60	194,444
358,82	195,455
359,04	187,179
359,26	61,364
359,47	-223,077
359,69	285,714
359,91	316,000
360,12	195,000
360,34	52,778
360,56	-1550,000
360,77	844,444
360,99	433,333
361,21	273,913
361,42	-1225,000
361,64	-185,185
361,86	131,343
362,07	406,667
362,29	177,500
362,51	170,270
362,72	500,000
362,94	288,889
363,16	121,429
363,37	700,000
363,59	-4700,000
363,81	662,500
364,02	40,000
364,24	213,636
364,46	390,476
364,67	157,143
364,89	300,000
365,11	135,135
365,32	192,593
365,54	50,000
365,76	145,455
365,97	134,146
366,19	85,965
366,41	650,000
366,62	128,000
366,84	508,333
367,05	80,392
367,27	520,000
367,49	233,333
367,70	344,444
367,92	95,833
368,14	-84,615
368,35	164,706
368,57	203,030
368,79	134,615
369,00	137,179
369,22	272,222
369,43	436,842
369,65	-82,759
369,87	-347,059
370,08	255,000
370,30	364,286
370,51	463,636
370,73	222,222
370,95	290,000
371,16	92,982
371,38	247,170
371,60	160,000
371,81	110,870
372,03	-1550,000
372,24	-96,875
372,46	2133,333
372,68	82,353
372,89	56,881
373,11	123,256
373,32	98,319
373,54	418,182
373,76	138,889
373,97	257,576
374,19	-89,474
374,40	74,286
374,62	576,471
374,84	279,167
375,05	138,462
375,27	183,784
375,48	108,642
375,70	111,765
375,92	103,571
376,13	463,158
376,35	166,667
376,56	265,000
376,78	57,143
376,99	242,424
377,21	181,250
377,43	133,333
377,64	108,000
377,86	343,750
378,07	100,000
378,29	130,556
378,51	82,143
378,72	-177,273
378,94	30,435
379,15	118,182
379,37	450,000
379,58	100,000
379,80	97,727
380,01	64,000
380,23	191,304
380,45	122,917
380,66	104,167
380,88	83,784
381,09	200,000
381,31	241,026
381,52	186,957
381,74	128,571
381,95	67,857
382,17	56,000
382,39	83,871
382,60	370,588
382,82	200,000
383,03	1500,000
383,25	106,173
383,46	466,667
383,68	214,894
383,89	300,000
384,11	124,658
384,32	247,368
384,54	-742,857
384,76	179,412
384,97	185,000
385,19	105,263
385,40	262,500
385,62	193,548
385,83	163,830
386,05	957,143
386,26	284,615
386,48	623,077
386,69	188,889
386,91	200,000
387,12	107,692
387,34	113,559
387,55	114,286
387,77	200,000
387,98	155,102
388,20	201,408
388,41	85,714
388,63	124,286
388,84	180,000
389,06	190,698
389,27	75,000
389,49	54,217
389,70	127,119
389,92	118,182
390,13	182,051
390,35	63,542
390,56	107,812
390,78	140,909
390,99	86,667
391,21	119,318
391,42	76,087
391,64	-270,000
391,85	151,724
392,07	57,143
392,28	103,846
392,50	1120,000
392,71	1800,000
392,93	104,839
393,14	226,087
393,36	135,897
393,57	250,000
393,79	98,413
394,00	61,644
394,22	104,000
394,43	103,571
394,65	125,000
394,86	140,625
395,08	-537,500
395,29	70,213
395,50	-3200,000
395,72	871,429
395,93	200,000
396,15	7,143
396,36	166,667
396,58	-309,524
396,79	106,977
397,01	245,238
397,22	88,406
397,44	223,404
397,65	101,351
397,87	121,429
398,08	223,077
398,29	0,000
398,51	104,878
398,72	117,391
398,94	218,605
399,15	76,667
399,37	80,435
399,58	93,651
399,80	40,000
400,01	147,059
400,22	328,571
400,44	323,810
400,65	68,493
400,87	2300,000
401,08	76,404
401,30	72,000
401,51	87,273
401,72	88,710
401,94	170,732
402,15	67,347
402,37	9,091
402,58	95,349
402,80	450,000
403,01	8,333
403,22	34,940
403,44	216,667
403,65	63,265
403,87	125,333
404,08	132,692
404,30	215,625
404,51	78,571
404,72	536,364
404,94	73,494
405,15	89,552
405,37	80,220
405,58	77,419
405,79	350,000
406,01	48,148
406,22	72,619
406,44	28,070
406,65	28,571
406,86	94,000
407,08	33,333
407,29	49,333
407,51	46,154
407,72	59,406
407,93	70,886
408,15	56,818
408,36	157,143
408,58	36,667
408,79	68,992
409,00	31,915
409,22	29,412
409,43	-3,604
409,64	25,641
409,86	61,364
410,07	32,174
410,29	37,333
410,50	17,460
410,71	36,290
410,93	42,574
411,14	25,234
411,35	43,056
411,57	18,056
411,78	19,853
412,00	34,000
412,21	21,239
412,42	19,024
412,64	33,333
412,85	11,399
413,06	27,679
413,28	35,686
413,49	13,953
413,70	25,322
413,92	27,619
414,13	15,415
414,34	7,435
414,56	17,447
414,77	13,653
414,98	21,201
415,20	18,996
415,41	12,013
415,63	22,507
415,84	27,701
416,05	13,554
416,27	17,827
416,48	23,697
416,69	10,174
416,91	17,867
417,12	4,751
417,33	8,352
417,55	17,600
417,76	-0,846
417,97	12,921
418,19	6,067
418,40	-2,345
418,61	9,605
418,83	14,965
419,04	5,116
419,25	6,858
419,46	14,286
419,68	8,260
419,89	7,246
420,10	8,871
420,32	5,695
420,53	8,831
420,74	5,974
420,96	8,531
421,17	8,666
421,38	5,327
421,60	5,038
421,81	2,803
422,02	2,846
422,23	5,709
422,45	2,967
422,66	4,013
422,87	0,848
423,09	3,691
423,30	0,081
423,51	5,204
423,73	5,008
423,94	5,126
424,15	0,839
424,36	2,107
424,58	2,288
424,79	0,000
425,00	4,218
425,22	2,529
425,43	1,278
425,64	2,299
425,85	0,902
426,07	2,315
426,28	2,883
426,49	3,154
426,71	2,505
426,92	3,311
427,13	0,668
427,34	1,110
427,56	3,345
427,77	-1,532
427,98	1,825
428,19	0,000
428,41	1,393
428,62	3,428
428,83	0,342
429,04	2,500
429,26	1,227
429,47	2,649
429,68	0,622
429,89	1,743
430,11	1,823
430,32	2,067
430,53	0,889
430,74	3,350
430,96	1,402
431,17	1,738
431,38	1,441
431,59	0,756
431,81	1,483
432,02	1,289
432,23	1,095
432,44	0,927
432,66	1,538
432,87	0,803
433,08	1,373
433,29	1,498
433,51	1,727
433,72	1,407
433,93	0,742
434,14	0,943
434,35	0,787
434,57	0,371
434,78	0,963
434,99	0,900
435,20	1,709
435,42	1,449
435,63	1,058
435,84	2,159
436,05	1,003
436,26	0,291
436,48	1,441
436,69	1,297
436,90	0,684
437,11	1,333
437,32	1,021
437,54	0,676
437,75	0,863
437,96	0,820
438,17	0,717
438,38	0,699
438,60	1,034
438,81	0,253
439,02	0,813
439,23	0,752
439,44	0,817
439,66	0,569
439,87	0,392
440,08	0,395
440,29	0,687
440,50	0,685
440,72	0,672
440,93	0,581
441,14	0,472
441,35	0,197
441,56	0,882
441,77	0,430
441,99	0,507
442,20	0,621
442,41	0,369
442,62	0,388
442,83	0,711
443,04	0,639
443,26	0,550
443,47	1,007
443,68	0,788
443,89	0,830
444,10	0,994
444,31	1,274
444,53	1,021
444,74	0,947
444,95	1,125
445,16	1,226
445,37	2,003
445,58	2,084
445,80	2,726
446,01	3,759
446,22	4,343
446,43	4,908
446,64	5,331
446,85	6,214
447,06	7,396
447,28	8,220
447,49	9,231
447,70	10,180
447,91	11,497
448,12	11,882
448,33	12,831
448,54	14,335
448,76	14,769
448,97	15,569
449,18	15,453
449,39	16,042
449,60	16,148
449,81	16,575
450,02	16,939
450,23	17,399
450,45	17,843
450,66	19,043
450,87	18,925
451,08	20,324
451,29	21,760
451,50	23,225
451,71	24,563
451,92	25,907
452,13	28,779
452,35	29,504
452,56	31,610
452,77	33,647
452,98	36,726
453,19	38,656
453,40	40,792
453,61	41,850
453,82	44,614
454,03	47,635
454,25	49,564
454,46	51,353
454,67	52,950
454,88	56,164
455,09	58,926
455,30	59,838
455,51	62,505
455,72	65,401
455,93	65,566
456,14	68,871
456,35	69,136
456,56	70,838
456,78	72,307
456,99	73,284
457,20	73,020
457,41	74,302
457,62	74,675
457,83	73,777
458,04	74,826
458,25	73,364
458,46	72,685
458,67	71,134
458,88	70,762
459,09	68,358
459,30	67,042
459,51	64,684
459,73	62,434
459,94	61,950
460,15	60,203
460,36	58,670
460,57	57,141
460,78	56,565
460,99	55,458
461,20	54,848
461,41	53,556
461,62	53,187
461,83	53,232
462,04	51,878
462,25	52,375
462,46	50,344
462,67	49,823
462,88	48,838
463,09	49,140
463,30	48,022
463,51	46,810
463,72	45,946
463,93	46,032
464,15	44,485
464,36	43,050
464,57	42,503
464,78	41,391
464,99	39,940
465,20	38,731
465,41	37,474
465,62	35,455
465,83	34,794
466,04	33,835
466,25	32,402
466,46	31,160
466,67	30,085
466,88	30,403
467,09	29,368
467,30	29,142
467,51	28,594
467,72	28,399
467,93	29,175
468,14	28,621
468,35	29,068
468,56	28,329
468,77	27,843
468,98	27,346
469,19	27,047
469,40	26,380
469,61	25,096
469,82	24,556
470,03	23,045
470,24	21,858
470,45	20,280
470,66	19,563
470,87	18,383
471,08	17,054
471,29	15,714
471,50	14,227
471,71	12,896
471,92	11,529
472,13	10,518
472,34	9,023
472,55	7,923
472,76	6,952
472,97	5,839
473,18	4,626
473,39	4,253
473,60	3,080
473,81	2,478
474,01	2,190
474,22	1,763
474,43	1,479
474,64	1,342
474,85	1,158
475,06	0,853
475,27	1,113
475,48	0,714
475,69	0,822
475,90	0,735
476,11	0,869
476,32	0,630
476,53	0,740
476,74	0,570
476,95	0,643
477,16	0,516
477,37	0,446
477,58	0,452
477,79	0,377
478,00	0,273
478,21	0,578
478,41	0,204
478,62	0,362
478,83	0,399
479,04	0,507
479,25	0,511
479,46	0,253
479,67	0,206
479,88	0,410
480,09	0,392
480,30	0,307
480,51	0,551
480,72	0,289
480,93	0,386
481,14	0,187
481,34	0,498
481,55	0,316
481,76	0,366
481,97	0,271
482,18	0,266
482,39	0,223
482,60	0,451
482,81	0,340
483,02	0,259
483,23	0,463
483,44	0,423
483,65	0,210
483,85	0,252
484,06	0,700
484,27	0,406
484,48	0,227
484,69	0,549
484,90	0,319
485,11	0,337
485,32	0,348
485,53	0,305
485,73	0,367
485,94	0,398
486,15	0,469
486,36	0,387
486,57	0,272
486,78	0,542
486,99	0,445
487,20	0,426
487,41	0,366
487,61	0,318
487,82	0,248
488,03	0,293
488,24	0,447
488,45	0,351
488,66	0,588
488,87	0,376
489,08	0,321
489,28	0,239
489,49	0,405
489,70	0,277
489,91	0,399
490,12	0,180
490,33	0,331
490,54	0,395
490,74	0,494
490,95	0,356
491,16	0,298
491,37	0,338
491,58	0,315
491,79	0,296
492,00	0,203
492,20	0,294
492,41	0,303
492,62	0,295
492,83	0,016
493,04	0,458
493,25	0,383
493,45	0,307
493,66	0,265
493,87	0,307
494,08	0,232
494,29	0,248
494,50	0,171
494,70	0,401
494,91	0,332
495,12	0,321
495,33	0,410
495,54	0,290
495,75	0,233
495,95	0,311
496,16	0,224
496,37	0,287
496,58	0,343
496,79	0,168
496,99	0,237
497,20	0,202
497,41	0,440
497,62	0,452
497,83	0,407
498,04	0,357
498,24	0,217
498,45	0,185
498,66	0,254
498,87	0,196
499,08	0,277
499,28	0,245
499,49	0,362
499,70	0,276
499,91	0,113
500,12	0,319
500,32	0,263
500,53	0,222
500,74	0,466
500,95	0,265
501,15	0,347
501,36	0,345
501,57	0,500
501,78	0,408
501,99	0,276
502,19	0,442
502,40	0,458
502,61	0,372
502,82	0,337
503,02	0,399
503,23	0,376
503,44	0,582
503,65	0,655
503,86	0,494
504,06	0,557
504,27	0,630
504,48	0,811
504,69	1,025
504,89	0,791
505,10	1,101
505,31	1,355
505,52	1,492
505,72	1,944
505,93	2,100
506,14	1,902
506,35	2,498
506,55	2,819
506,76	2,916
506,97	3,527
507,18	3,897
507,38	4,296
507,59	4,688
507,80	4,816
508,01	5,433
508,21	5,804
508,42	6,102
508,63	6,525
508,84	7,601
509,04	7,761
509,25	8,034
509,46	8,482
509,67	9,064
509,87	9,645
510,08	10,017
510,29	9,817
510,49	10,324
510,70	10,670
510,91	11,020
511,12	10,709
511,32	11,392
511,53	11,432
511,74	11,058
511,94	11,422
512,15	11,625
512,36	11,552
512,57	12,151
512,77	11,921
512,98	12,362
513,19	12,870
513,39	13,632
513,60	14,506
513,81	15,399
514,01	16,118
514,22	17,260
514,43	18,262
514,64	19,677
514,84	20,946
515,05	22,527
515,26	23,524
515,46	24,639
515,67	26,159
515,88	27,497
516,08	28,220
516,29	29,662
516,50	30,803
516,70	32,007
516,91	32,423
517,12	33,456
517,32	34,172
517,53	34,187
517,74	34,508
517,95	35,721
518,15	35,996
518,36	35,748
518,57	36,191
518,77	35,983
518,98	36,608
519,19	35,732
519,39	36,402
519,60	36,099
519,80	35,319
520,01	35,665
520,22	35,732
520,42	35,068
520,63	35,539
520,84	35,614
521,04	35,315
521,25	36,199
521,46	35,164
521,66	35,251
521,87	36,640
522,08	36,367
522,28	36,087
522,49	36,286
522,70	36,826
522,90	36,885
523,11	37,161
523,31	37,518
523,52	37,399
523,73	37,823
523,93	38,079
524,14	38,014
524,35	36,996
524,55	38,302
524,76	37,923
524,97	37,486
525,17	37,422
525,38	37,568
525,58	37,388
525,79	37,943
526,00	36,411
526,20	36,462
526,41	36,420
526,61	36,814
526,82	36,231
527,03	36,317
527,23	36,899
527,44	37,061
527,64	36,718
527,85	37,328
528,06	36,817
528,26	36,623
528,47	37,271
528,68	37,422
528,88	37,157
529,09	37,609
529,29	37,155
529,50	36,873
529,70	37,156
529,91	37,006
530,12	36,831
530,32	36,140
530,53	36,190
530,73	35,032
530,94	34,239
531,15	33,281
531,35	32,873
531,56	31,801
531,76	30,195
531,97	29,145
532,17	27,485
532,38	25,840
532,59	23,820
532,79	23,151
533,00	21,487
533,20	20,148
533,41	18,607
533,61	17,663
533,82	16,226
534,03	15,364
534,23	14,451
534,44	14,075
534,64	13,075
534,85	12,622
535,05	12,198
535,26	11,053
535,46	10,679
535,67	9,677
535,88	9,286
536,08	8,584
536,29	7,715
536,49	6,923
536,70	6,534
536,90	5,971
537,11	5,009
537,31	4,477
537,52	4,261
537,72	3,670
537,93	3,363
538,13	2,976
538,34	2,804
538,55	2,731
538,75	2,371
538,96	2,414
539,16	2,297
539,37	2,288
539,57	2,234
539,78	2,221
539,98	2,207
540,19	2,065
540,39	1,883
540,60	1,825
540,80	1,537
541,01	1,789
541,21	1,540
541,42	1,367
541,62	1,348
541,83	1,077
542,03	1,204
542,24	1,141
542,44	0,803
542,65	0,917
542,85	1,043
543,06	0,995
543,26	0,943
543,47	1,120
543,67	1,037
543,88	1,026
544,08	0,885
544,29	1,008
544,49	0,906
544,70	0,722
544,90	0,845
545,11	0,862
545,31	0,882
545,52	0,941
545,72	1,087
545,93	1,169
546,13	1,191
546,34	1,006
546,54	0,851
546,75	0,726
546,95	0,663
547,15	0,601
547,36	0,562
547,56	0,375
547,77	0,495
547,97	0,293
548,18	0,360
548,38	0,270
548,59	0,333
548,79	0,643
549,00	0,333
549,20	0,384
549,41	0,441
549,61	0,356
549,81	0,364
550,02	0,314
550,22	0,278
550,43	0,255
550,63	0,342
550,84	0,326
551,04	0,442
551,25	0,334
551,45	0,533
551,65	0,244
551,86	0,260
552,06	0,284
552,27	0,238
552,47	0,290
552,68	0,342
552,88	0,433
553,08	0,300
553,29	0,349
553,49	0,246
553,70	0,495
553,90	0,208
554,11	0,320
554,31	0,195
554,51	0,399
554,72	0,190
554,92	0,346
555,13	0,152
555,33	0,116
555,53	0,186
555,74	0,230
555,94	0,146
556,15	0,270
556,35	0,077
556,56	0,120
556,76	0,180
556,96	0,161
557,17	0,374
557,37	0,289
557,58	0,008
557,78	0,284
557,98	0,382
558,19	0,035
558,39	0,042
558,59	0,100
558,80	0,173
559,00	0,134
559,21	0,329
559,41	0,182
559,61	0,155
559,82	0,265
560,02	0,168
560,23	0,222
560,43	0,294
560,63	-0,092
560,84	0,226
561,04	0,183
561,24	0,206
561,45	0,170
561,65	0,240
561,85	0,130
562,06	0,167
562,26	0,087
562,47	0,180
562,67	0,208
562,87	0,038
563,08	0,129
563,28	0,329
563,48	0,179
563,69	0,152
563,89	0,362
564,09	0,168
564,30	0,133
564,50	0,117
564,70	0,194
564,91	0,122
565,11	0,011
565,31	0,246
565,52	0,046
565,72	0,241
565,92	0,202
566,13	0,041
566,33	0,128
566,53	0,121
566,74	0,022
566,94	0,087
567,14	0,091
567,35	0,240
567,55	0,049
567,75	0,354
567,96	0,337
568,16	0,248
568,36	0,037
568,57	0,196
568,77	0,026
568,97	0,243
569,18	0,354
569,38	-0,037
569,58	0,101
569,79	0,090
569,99	0,163
570,19	-0,041
570,39	0,111
570,60	0,131
570,80	0,107
571,00	0,052
571,21	0,179
571,41	0,249
571,61	0,207
571,82	0,188
572,02	0,037
572,22	-0,033
572,42	0,096
572,63	0,121
572,83	0,199
573,03	0,164
573,24	0,089
573,44	0,251
573,64	0,252
573,84	-0,116
574,05	0,114
574,25	0,104
574,45	0,221
574,66	0,250
574,86	0,052
575,06	0,297
575,26	0,067
575,47	0,318
575,67	0,163
575,87	0,263
576,07	0,155
576,28	0,232
576,48	0,096
576,68	0,307
576,88	0,202
577,09	0,225
577,29	0,353
577,49	0,141
577,69	0,000
577,90	0,090
578,10	0,059
578,30	0,210
578,50	0,179
578,71	0,173
578,91	0,266
579,11	0,383
579,31	0,365
579,52	0,226
579,72	0,177
579,92	0,409
580,12	0,224
580,33	0,255
580,53	0,281
580,73	0,301
580,93	0,255
581,13	0,156
581,34	0,132
581,54	0,214
581,74	0,296
581,94	0,213
582,15	0,465
582,35	0,120
582,55	0,304
582,75	0,296
582,95	0,320
583,16	0,324
583,36	0,170
583,56	0,303
583,76	0,199
583,96	0,154
584,17	0,178
584,37	0,187
584,57	0,316
584,77	0,085
584,97	0,194
585,18	0,265
585,38	0,199
585,58	0,338
585,78	0,252
585,98	0,155
586,19	0,350
586,39	0,331
586,59	0,140
586,79	0,425
586,99	0,143
587,20	0,321
587,40	0,308
587,60	0,235
587,80	0,186
588,00	0,330
588,20	0,292
588,41	0,307
588,61	0,424
588,81	0,336
589,01	0,229
589,21	0,483
589,41	0,203
589,62	0,219
589,82	0,274
590,02	0,186
590,22	0,270
590,42	0,332
590,62	0,099
590,83	0,219
591,03	0,116
591,23	0,160
591,43	0,302
591,63	0,161
591,83	0,311
592,03	0,102
592,24	0,228
592,44	0,164
592,64	0,238
592,84	0,287
593,04	0,253
593,24	0,170
593,44	0,156
593,65	0,235
593,85	0,285
594,05	0,108
594,25	-0,007
594,45	0,209
594,65	0,018
594,85	0,101
595,06	0,171
595,26	0,206
595,46	0,167
595,66	0,155
595,86	0,014
596,06	0,097
596,26	0,189
596,46	0,281
596,66	0,087
596,87	0,268
597,07	0,130
597,27	0,054
597,47	0,230
597,67	0,134
597,87	0,058
598,07	0,150
598,27	0,180
598,47	0,253
598,67	0,092
598,88	0,157
599,08	0,258
599,28	0,325
599,48	0,074
599,68	0,280
599,88	0,074
600,08	0,230
600,28	0,313
600,48	0,196
600,68	0,153
600,88	0,385
601,09	0,191
601,29	0,299
601,49	0,139
601,69	0,248
601,89	0,151
602,09	0,174
602,29	0,121
602,49	-0,045
602,69	0,038
602,89	0,099
603,09	0,132
603,29	0,118
603,49	0,180
603,69	0,232
603,90	-0,084
604,10	0,224
604,30	0,244
604,50	0,110
604,70	0,115
604,90	0,103
605,10	0,156
605,30	0,238
605,50	0,057
605,70	0,201
605,90	-0,038
606,10	0,142
606,30	0,136
606,50	0,278
606,70	0,035
606,90	0,043
607,10	0,147
607,30	0,206
607,50	0,108
607,70	0,206
607,90	0,207
608,10	0,355
608,30	0,174
608,50	0,200
608,70	0,336
608,90	0,210
609,11	0,195
609,31	0,346
609,51	0,254
609,71	0,258
609,91	0,230
610,11	0,680
610,31	0,472
610,51	0,765
610,71	0,810
610,91	0,956
611,11	1,002
611,31	1,092
611,51	0,994
611,71	0,963
611,91	1,199
612,11	1,056
612,31	0,909
612,51	0,719
612,71	0,606
612,91	0,511
613,11	0,461
613,31	0,510
613,51	0,530
613,71	0,457
613,91	0,508
614,11	0,566
614,31	0,371
614,50	0,554
614,70	0,437
614,90	0,283
615,10	0,295
615,30	0,421
615,50	0,242
615,70	0,496
615,90	0,392
616,10	0,411
616,30	0,175
616,50	0,173
616,70	0,220
616,90	0,178
617,10	0,318
617,30	-0,060
617,50	0,210
617,70	0,176
617,90	0,254
618,10	0,277
618,30	0,087
618,50	0,337
618,70	0,126
618,90	0,171
619,10	0,219
619,30	-0,032
619,49	0,253
619,69	0,210
619,89	0,265
620,09	0,163
620,29	0,249
620,49	0,345
620,69	0,079
620,89	0,155
621,09	0,203
621,29	0,185
621,49	0,168
621,69	0,301
621,89	0,360
622,09	0,281
622,29	0,199
622,48	0,282
622,68	0,078
622,88	0,378
623,08	0,163
623,28	0,252
623,48	0,117
623,68	0,196
623,88	0,271
624,08	0,055
624,28	0,186
624,48	0,332
624,67	0,194
624,87	0,249
625,07	0,337
625,27	0,204
625,47	0,189
625,67	0,373
625,87	0,225
626,07	0,095
626,27	0,221
626,47	0,404
626,66	0,210
626,86	0,268
627,06	0,209
627,26	0,067
627,46	0,037
627,66	0,109
627,86	0,206
628,06	0,281
628,25	0,266
628,45	0,212
628,65	0,217
628,85	0,104
629,05	0,235
629,25	0,201
629,45	0,214
629,65	0,026
629,84	0,116
630,04	0,236
630,24	0,343
630,44	0,117
630,64	0,337
630,84	0,276
631,04	0,427
631,23	0,288
631,43	0,258
631,63	0,067
631,83	0,290
632,03	0,362
632,23	0,277
632,42	0,240
632,62	0,376
632,82	0,170
633,02	0,261
633,22	0,127
633,42	0,188
633,62	0,026
633,81	0,009
634,01	0,313
634,21	0,268
634,41	0,182
634,61	0,156
634,80	0,335
635,00	0,223
635,20	0,342
635,40	0,048
635,60	-0,078
635,80	0,290
635,99	0,337
636,19	0,010
636,39	0,060
636,59	0,211
636,79	0,139
636,98	0,251
637,18	0,317
637,38	0,239
637,58	-0,011
637,78	0,232
637,97	0,193
638,17	0,144
638,37	0,188
638,57	0,118
638,77	0,250
638,96	0,143
639,16	0,208
639,36	0,178
639,56	0,308
639,76	0,006
639,95	0,266
640,15	0,089
640,35	0,061
640,55	0,212
640,75	0,183
640,94	0,042
641,14	0,240
641,34	0,315
641,54	0,069
641,73	0,081
641,93	0,063
642,13	0,135
642,33	0,150
642,53	0,227
642,72	0,305
642,92	0,156
643,12	0,133
643,32	0,204
643,51	0,514
643,71	0,013
643,91	0,244
644,11	0,390
644,30	0,014
644,50	0,502
644,70	0,230
644,90	0,295
645,09	0,205
645,29	0,255
645,49	0,321
645,69	0,172
645,88	0,403
646,08	-0,058
646,28	0,431
646,48	0,302
646,67	0,124
646,87	0,266
647,07	0,172
647,26	0,485
647,46	0,219
647,66	0,273
647,86	0,257
648,05	0,478
648,25	0,465
648,45	-0,054
648,65	0,489
648,84	-0,169
649,04	0,446
649,24	0,663
649,43	0,228
649,63	0,210
649,83	0,446
650,03	0,291
650,22	0,345
650,42	0,222
650,62	0,617
650,81	0,298
651,01	0,096
651,21	0,238
651,40	0,460
651,60	-0,300
651,80	0,237
652,00	0,520
652,19	0,426
652,39	0,464
652,59	0,601
652,78	0,131
652,98	0,108
653,18	0,201
653,37	0,418
653,57	0,750
653,77	0,335
653,96	0,364
654,16	0,437
654,36	0,331
654,55	-0,160
654,75	0,233
654,95	0,392
655,14	-0,009
655,34	0,897
655,54	0,766
655,73	0,460
655,93	0,079
656,13	0,070
656,32	-0,211
656,52	0,574
656,72	0,287
656,91	0,450
657,11	0,138
657,31	-0,009
657,50	0,457
657,70	0,469
657,90	0,487
658,09	0,599
658,29	0,450
658,49	0,175
658,68	0,426
658,88	0,026
659,07	0,375
659,27	0,009
659,47	-0,009
659,66	0,168
659,86	0,314
660,06	-0,017
660,25	-0,133
660,45	0,286
660,64	0,097
660,84	0,453
661,04	0,088
661,23	0,550
661,43	0,246
661,63	0,284
661,82	0,026
662,02	0,434
662,21	0,497
662,41	0,437
662,61	0,777
662,80	0,492
663,00	0,156
663,19	0,699
663,39	-0,086
663,59	0,611
663,78	0,455
663,98	0,462
664,17	0,571
664,37	0,405
664,57	0,120
664,76	0,255
664,96	-0,026
665,15	0,119
665,35	0,381
665,55	0,137
665,74	0,641
665,94	0,574
666,13	0,266
666,33	0,346
666,53	0,601
666,72	0,329
666,92	0,355
667,11	0,349
667,31	-0,050
667,50	0,000
667,70	0,468
667,90	0,000
668,09	0,361
668,29	0,180
668,48	0,463
668,68	0,374
668,87	0,226
669,07	-0,040
669,26	0,673
669,46	0,497
669,66	0,190
669,85	0,292
670,05	0,410
670,24	0,416
670,44	0,244
670,63	0,062
670,83	0,289
671,02	0,172
671,22	0,411
671,42	0,317
671,61	0,291
671,81	0,339
672,00	0,310
672,20	0,038
672,39	0,315
672,59	-0,075
672,78	0,098
672,98	0,316
673,17	0,282
673,37	0,007
673,56	0,501
673,76	-0,051
673,95	0,051
674,15	0,339
674,34	0,307
674,54	0,271
674,73	0,270
674,93	0,376
675,13	0,411
675,32	0,140
675,52	0,357
675,71	0,261
675,91	0,340
676,10	0,275
676,30	0,343
676,49	0,014
676,69	0,288
676,88	0,257
677,08	0,275
677,27	0,163
677,47	-0,013
677,66	0,524
677,86	0,519
678,05	0,000
678,24	0,254
678,44	0,500
678,63	0,305
678,83	0,130
679,02	0,098
679,22	0,222
679,41	0,280
679,61	0,152
679,80	0,296
680,00	0,006
680,19	0,445
680,39	0,180
680,58	0,110
680,78	-0,075
680,97	0,199
681,17	0,277
681,36	0,023
681,56	0,140
681,75	-0,039
681,94	0,033
682,14	0,389
682,33	0,423
682,53	0,054
682,72	0,124
682,92	0,581
683,11	0,042
683,31	0,309
683,50	0,104
683,69	0,206
683,89	0,242
684,08	0,152
684,28	-0,143
684,47	0,150
684,67	0,025
684,86	0,143
685,06	0,153
685,25	0,116
685,44	0,155
685,64	0,100
685,83	0,109
686,03	0,005
686,22	0,242
686,42	0,305
686,61	0,077
686,80	-0,009
687,00	0,144
687,19	0,133
687,39	0,173
687,58	0,230
687,77	0,278
687,97	0,100
688,16	0,339
688,36	-0,052
688,55	0,078
688,74	0,017
688,94	0,026
689,13	0,088
689,33	0,050
689,52	0,058
689,71	0,108
689,91	-0,032
690,10	0,126
690,30	-0,036
690,49	-0,107
690,68	0,389
690,88	0,087
691,07	0,111
691,27	0,141
691,46	0,308
691,65	0,055
691,85	0,020
692,04	-0,012
692,23	-0,115
692,43	0,123
692,62	0,164
692,82	0,104
693,01	-0,024
693,20	0,262
693,40	0,008
693,59	0,041
693,78	0,136
693,98	-0,057
694,17	0,012
694,36	0,332
694,56	-0,021
694,75	0,055
694,94	0,248
695,14	0,179
695,33	0,352
695,53	0,198
695,72	0,261
695,91	-0,046
696,11	0,122
696,30	0,163
696,49	0,152
696,69	0,046
696,88	0,112
697,07	0,229
697,27	0,239
697,46	0,159
697,65	0,017
697,85	0,059
698,04	0,272
698,23	0,322
698,43	0,137
698,62	0,116
698,81	0,105
699,01	0,349
699,20	0,119
699,39	0,159
699,58	0,165
699,78	0,000
699,97	0,079
700,16	-0,291
700,36	0,267
700,55	0,199
700,74	0,622
700,94	0,063
701,13	0,085
701,32	-0,097
701,52	0,100
701,71	0,573
701,90	0,459
702,09	0,488
702,29	0,303
702,48	0,410
702,67	0,797
702,87	0,874
703,06	0,413
703,25	0,753
703,44	0,712
703,64	0,608
703,83	0,544
704,02	1,153
704,22	0,458
704,41	-0,356
704,60	0,685
704,79	0,657
704,99	1,191
705,18	1,507
705,37	1,431
705,56	0,688
705,76	1,283
705,95	1,459
706,14	1,006
706,33	0,513
706,53	0,527
706,72	0,209
706,91	1,324
707,11	1,161
707,30	1,415
707,49	1,209
707,68	1,432
707,88	1,456
708,07	-0,098
708,26	1,243
708,45	0,208
708,64	1,506
708,84	0,270
709,03	2,487
709,22	0,780
709,41	3,019
709,61	0,899
709,80	1,661
709,99	1,833
710,18	1,018
710,38	0,598
710,57	0,413
710,76	-0,459
710,95	1,961
711,14	1,589
711,34	2,168
711,53	2,590
711,72	1,749
711,91	1,439
712,11	2,022
712,30	1,193
712,49	0,689
712,68	1,148
712,87	0,653
713,07	3,733
713,26	1,208
713,45	0,749
713,64	0,524
713,83	0,792
714,03	1,164
714,22	1,584
714,41	2,654
714,60	2,468
714,79	0,528
714,99	1,942
715,18	1,611
715,37	1,577
715,56	1,298
715,75	2,451
715,94	2,461
716,14	4,447
716,33	3,902
716,52	4,193
716,71	2,816
716,90	2,164
717,10	1,058
717,29	2,195
717,48	1,057
717,67	1,861
717,86	1,672
718,05	2,400
718,24	3,448
718,44	2,305
718,63	-0,547
718,82	0,874
719,01	1,494
719,20	0,698
719,39	2,026
719,59	1,823
719,78	1,002
719,97	1,004
720,16	2,352
720,35	0,964
720,54	0,070
720,73	3,891
720,93	2,169
721,12	0,575
721,31	2,915
721,50	5,673
721,69	0,520
721,88	3,072
722,07	3,826
722,27	2,342
722,46	0,375
722,65	-3,415
722,84	2,258
723,03	2,082
723,22	4,835
723,41	4,153
723,60	3,598
723,79	4,785
723,99	3,604
724,18	4,142
724,37	-2,997
724,56	2,896
724,75	0,522
724,94	4,392
725,13	-3,605
725,32	7,651
725,51	3,442
725,71	2,751
725,90	5,104
726,09	0,731
726,28	3,337
726,47	2,367
726,66	5,866
726,85	4,645
727,04	0,612
727,23	4,776
727,42	6,900
727,61	3,395
727,81	-3,351
728,00	0,208
728,19	1,842
728,38	0,109
728,57	4,375
728,76	4,721
728,95	7,708
729,14	5,628
729,33	7,204
729,52	-0,112
729,71	3,254
729,90	8,022
730,09	1,288
730,28	4,260
730,48	3,725
730,67	5,022
730,86	5,319
731,05	-1,050
731,24	0,610
731,43	6,039
731,62	3,207
731,81	1,930
732,00	8,862
732,19	0,000
732,38	9,359
732,57	5,257
732,76	1,915
732,95	1,030
733,14	-3,874
733,33	-0,265
733,52	4,916
733,71	2,009
733,90	-2,119
734,09	5,541
734,28	0,919
734,47	9,028
734,66	0,802
734,85	3,286
735,04	3,566
735,23	5,322
735,42	2,459
735,61	7,434
735,81	7,692
736,00	-1,994
736,19	1,064
736,38	2,395
736,57	9,328
736,76	6,861
736,95	0,318
737,14	5,582
737,33	9,477
737,52	-1,231
737,71	3,279
737,90	9,583
738,09	5,784
738,28	14,350
738,47	-1,642
738,66	4,327
738,85	8,108
739,04	8,405
739,22	5,518
739,41	-0,368
739,60	-7,338
739,79	3,777
739,98	-1,792
740,17	9,386
740,36	5,244
740,55	10,828
740,74	12,693
740,93	7,839
741,12	5,179
741,31	3,873
741,50	3,214
741,69	11,150
741,88	0,593
742,07	8,877
742,26	7,238
742,45	13,525
742,64	2,559
742,83	10,265
743,02	-6,737
743,21	10,108
743,40	-3,520
743,59	9,007
743,78	7,241
743,97	5,000
744,16	4,921
744,34	2,098
744,53	10,722
744,72	4,593
744,91	2,101
745,10	11,950
745,29	6,250
745,48	8,409
745,67	2,050
745,86	11,921
746,05	-0,948
746,24	12,784
746,43	-1,499
746,62	15,086
746,81	4,045
747,00	10,503
747,18	10,675
747,37	13,474
747,56	6,118
747,75	4,926
747,94	9,951
748,13	15,884
748,32	6,429
748,51	13,452
748,70	9,471
748,89	11,944
749,08	-13,953
749,26	6,167
749,45	-2,681
749,64	12,343
749,83	17,753
750,02	5,978
750,21	3,053
750,40	15,182
750,59	-2,681
750,78	11,721
750,96	7,735
751,15	2,804
751,34	-3,409
751,53	13,115
751,72	3,099
751,91	14,767
752,10	15,707
752,29	0,000
752,47	-1,433
752,66	7,937
752,85	19,945
753,04	13,408
753,23	-0,619
753,42	13,477
753,61	2,821
753,80	16,495
753,98	18,182
754,17	5,775
754,36	4,839
754,55	4,819
754,74	3,571
754,93	22,039
755,12	-0,593
755,30	5,844
755,49	10,174
755,68	16,564
755,87	5,325
756,06	12,500
756,25	8,815
756,43	8,054
756,62	3,106
756,81	5,960
757,00	12,829
757,19	0,694
757,38	-1,544
757,56	-1,600
757,75	11,263
757,94	1,901
758,13	3,767
758,32	5,045
758,51	-0,673
758,69	5,792
758,88	2,357
759,07	14,371
759,26	7,420
759,45	9,474
759,63	3,030
759,82	20,000
760,01	10,623
760,20	21,069
760,39	17,035
760,57	-0,348
760,76	19,512
760,95	16,667
761,14	6,934
761,33	18,710
761,51	24,286
761,70	20,446
761,89	8,444
762,08	13,011
762,27	11,552
762,45	16,304
762,64	20,603
762,83	24,701
763,02	15,652
763,21	-7,500
763,39	12,937
763,58	-0,743
763,77	0,422
763,96	29,482
764,14	16,250
764,33	20,476
764,52	19,196
764,71	10,820
764,89	33,929
765,08	8,374
765,27	19,149
765,46	10,314
765,65	20,784
765,83	25,339
766,02	-11,429
766,21	2,186
766,40	21,401
766,58	14,286
766,77	23,853
766,96	21,138
767,15	25,210
767,33	20,290
767,52	14,410
767,71	3,947
767,90	18,090
768,08	5,988
768,27	14,634
768,46	31,579
768,64	8,333
768,83	17,157
769,02	3,941
769,21	16,667
769,39	8,571
769,58	23,810
769,77	3,191
769,96	9,910
770,14	14,208
770,33	14,486
770,52	32,374
770,70	15,676
770,89	17,297
771,08	22,892
771,27	16,316
771,45	22,941
771,64	24,848
771,83	-2,941
772,01	53,608
772,20	30,348
772,39	10,759
772,57	21,891
772,76	11,486
772,95	25,862
773,14	27,211
773,32	15,819
773,51	13,690
773,70	43,165
773,88	5,161
774,07	13,706
774,26	-24,194
774,44	25,564
774,63	34,132
774,82	35,714
775,00	17,290
775,19	10,714
775,38	36,702
775,56	13,043
775,75	22,527
775,94	-19,167
776,12	39,869
776,31	24,060
776,50	3,425
776,68	19,892
776,87	33,014
777,06	42,767
777,24	23,529
777,43	33,155
777,62	29,775
777,80	23,899
777,99	26,667
778,18	11,494
778,36	16,102
778,55	-1,695
778,74	25,000
778,92	47,531
779,11	38,182
779,29	-19,149
779,48	54,610
779,67	50,450
779,85	-10,526
780,04	38,406
780,23	23,810
780,41	37,288
780,60	27,517
780,79	27,419
780,97	2,614
781,16	20,745
781,34	42,568
781,53	49,107
781,72	-21,622
781,90	34,132
782,09	11,628
782,28	19,048
782,46	17,857
782,65	52,113
782,83	10,692
783,02	47,368
783,21	46,617
783,39	47,899
783,58	33,043
783,76	34,694
783,95	56,338
784,14	39,474
784,32	-34,118
784,51	43,919
784,69	20,312
784,88	27,103
785,06	35,762
785,25	24,113
785,44	40,323
785,62	44,286
785,81	43,519
785,99	30,827
786,18	46,847
786,37	2,198
786,55	56,944
786,74	41,818
786,92	32,168
787,11	29,167
787,29	19,643
787,48	35,484
787,67	50,000
787,85	53,165
788,04	11,712
788,22	66,337
788,41	45,669
788,59	48,026
788,78	54,945
788,96	33,884
789,15	60,000
789,34	20,192
789,52	-11,290
789,71	35,971
789,89	15,584
790,08	23,750
790,26	42,038
790,45	38,889
790,63	20,690
790,82	37,692
791,00	30,088
791,19	24,800
791,38	16,190
791,56	47,273
791,75	-16,667
791,93	101,000
792,12	45,217
792,30	35,766
792,49	43,434
792,67	10,294
792,86	56,000
793,04	40,741
793,23	54,737
793,41	63,043
793,60	14,583
793,78	35,238
793,97	31,250
794,15	72,932
794,34	52,000
794,52	26,882
794,71	51,163
794,89	28,788
795,08	32,000
795,26	-12,000
795,45	65,278
795,63	75,000
795,82	7,692
796,00	67,000
796,19	56,098
796,37	30,534
796,56	11,650
796,74	6,316
796,93	0,000
797,11	61,446
797,30	43,889
797,48	26,563
797,67	32,520
797,85	26,923
798,04	16,949
798,22	65,385
798,41	8,654
798,59	10,476
798,77	1,205
798,96	42,593
799,14	54,839
799,33	50,459
799,51	31,944
799,70	56,154
799,88	56,881
800,07	29,008
800,25	43,373
800,44	100,000
800,62	23,611
800,80	40,141
800,99	80,822
801,17	56,897
801,36	61,429
801,54	50,000
801,73	29,474
801,91	61,983
802,10	48,235
802,28	72,000
802,46	9,211
802,65	38,129
802,83	58,667
803,02	39,516
803,20	57,831
803,39	57,471
803,57	37,795
803,75	52,033
803,94	39,683
804,12	44,828
804,31	23,188
804,49	42,400
804,67	40,441
804,86	49,558
805,04	1,205
805,23	27,434
805,41	37,500
805,59	33,562
805,78	68,000
805,96	34,940
806,15	51,485
806,33	64,474
806,51	28,000
806,70	36,090
806,88	79,070
807,07	70,270
807,25	39,560
807,43	37,500
807,62	46,903
807,80	8,571
807,99	46,923
808,17	26,772
808,35	-18,000
808,54	54,348
808,72	55,856
808,90	58,904
809,09	44,565
809,27	69,333
809,46	72,527
809,64	89,024
809,82	31,788
810,01	54,688
810,19	33,333
810,37	10,938
810,56	84,444
810,74	119,481
810,92	16,000
811,11	35,965
811,29	63,208
811,48	37,692
811,66	28,090
811,84	34,066
812,03	26,230
812,21	28,947
812,39	27,826
812,58	44,211
812,76	30,216
812,94	66,265
813,13	28,723
813,31	45,000
813,49	26,852
813,68	39,091
813,86	-8,989
814,04	28,926
814,23	35,542
814,41	52,809
814,59	58,252
814,78	29,412
814,96	19,497
815,14	42,991
815,33	15,504
815,51	11,811
815,69	19,048
815,87	35,644
816,06	55,652
816,24	37,267
816,42	38,235
816,61	45,912
816,79	8,621
816,97	20,455
817,16	43,195
817,34	46,825
817,52	49,587
817,70	37,624
817,89	34,074
818,07	26,027
818,25	11,224
818,44	32,051
818,62	3,101
818,80	11,278
818,98	42,038
819,17	35,294
819,35	39,362
819,53	27,612
819,72	48,734
819,90	8,527
820,08	-6,838
820,26	5,172
820,45	-8,054
820,63	33,036
820,81	45,600
820,99	32,624
821,18	17,687
821,36	20,253
821,54	62,759
821,73	43,889
821,91	13,158
822,09	23,387
822,27	32,903
822,46	36,029
822,64	12,800
822,82	50,829
823,00	13,812
823,19	26,923
823,37	48,485
823,55	14,205
823,73	31,034
823,91	35,507
824,10	30,108
824,28	63,819
824,46	-1,942
824,64	38,816
824,83	21,739
825,01	12,667
825,19	18,548
825,37	20,870
825,56	25,943
825,74	34,694
825,92	43,312
826,10	46,591
826,28	30,952
826,47	34,737
826,65	40,426
826,83	3,448
827,01	31,792
827,19	32,143
827,38	30,864
827,56	21,591
827,74	28,492
827,92	20,930
828,10	33,974
828,29	52,071
828,47	34,553
828,65	20,000
828,83	-12,121
829,01	22,283
829,20	29,121
829,38	36,932
829,56	25,543
829,74	28,931
829,92	27,381
830,10	28,161
830,29	26,131
830,47	26,131
830,65	1,220
830,83	34,375
831,01	30,357
831,20	23,786
831,38	31,100
831,56	37,209
831,74	46,445
831,92	30,921
832,10	27,619
832,29	36,486
832,47	11,798
832,65	21,078
832,83	33,333
833,01	14,000
833,19	14,027
833,37	47,059
833,56	21,941
833,74	34,804
833,92	41,667
834,10	37,344
834,28	23,629
834,46	26,697
834,64	19,907
834,83	24,545
835,01	39,834
835,19	34,000
835,37	19,835
835,55	-2,083
835,73	25,616
835,91	25,830
836,09	16,350
836,28	17,343
836,46	21,200
836,64	31,579
836,82	2,715
837,00	18,841
837,18	7,807
837,36	16,733
837,54	25,000
837,72	12,931
837,91	18,284
838,09	19,124
838,27	20,333
838,45	19,149
838,63	6,985
838,81	8,017
838,99	20,968
839,17	19,932
839,35	10,993
839,53	20,702
839,72	16,541
839,90	26,460
840,08	32,000
840,26	15,079
840,44	23,867
840,62	20,000
840,80	10,884
840,98	14,510
841,16	10,646
841,34	8,027
841,52	12,844
841,70	19,692
841,89	26,613
842,07	9,718
842,25	22,126
842,43	-1,724
842,61	17,895
842,79	16,102
842,97	20,847
843,15	24,422
843,33	14,826
843,51	18,976
843,69	32,194
843,87	9,328
844,05	8,207
844,23	12,913
844,41	11,599
844,59	12,104
844,77	8,123
844,95	21,387
845,13	12,923
845,31	4,070
845,50	17,539
845,68	10,611
845,86	20,402
846,04	20,670
846,22	14,441
846,40	10,484
846,58	12,821
846,76	15,860
846,94	12,718
847,12	20,466
847,30	6,186
847,48	1,548
847,66	16,256
847,84	7,104
848,02	15,700
848,20	8,269
848,38	-3,704
848,56	20,455
848,74	25,776
848,92	9,975
849,10	16,750
849,28	18,623
849,46	4,267
849,64	16,166
849,82	3,086
850,00	20,327
850,18	17,447
850,36	10,155
850,54	14,286
850,72	13,111
850,90	15,000
851,08	5,908
851,26	12,910
851,44	3,319
851,62	14,186
851,80	11,233
851,98	14,505
852,16	17,258
852,34	4,330
852,52	8,036
852,70	5,923
852,87	8,219
853,05	-1,170
853,23	5,361
853,41	12,018
853,59	4,772
853,77	17,063
853,95	17,722
854,13	8,628
854,31	15,811
854,49	3,393
854,67	7,559
854,85	18,841
855,03	17,635
855,21	10,737
855,39	7,445
855,57	2,867
855,75	18,066
855,93	10,784
856,11	20,116
856,28	15,867
856,46	6,584
856,64	13,714
856,82	11,512
857,00	9,331
857,18	8,845
857,36	11,130
857,54	16,263
857,72	10,000
857,90	7,011
858,08	12,549
858,26	11,180
858,44	10,721
858,61	8,188
858,79	11,765
858,97	5,487
859,15	12,384
859,33	8,906
859,51	9,045
859,69	2,326
859,87	10,708
860,05	-0,355
860,23	6,331
860,40	5,694
860,58	8,197
860,76	5,714
860,94	7,967
861,12	13,538
861,30	7,378
861,48	5,286
861,66	6,508
861,84	4,335
862,01	10,309
862,19	1,186
862,37	6,808
862,55	6,340
862,73	6,966
862,91	3,671
863,09	12,054
863,27	5,747
863,44	2,257
863,62	6,793
863,80	4,219
863,98	9,496
864,16	1,590
864,34	8,345
864,52	9,920
864,69	9,795
864,87	0,579
865,05	7,483
865,23	7,320
865,41	10,349
865,59	7,672
865,76	8,409
865,94	6,977
866,12	6,968
866,30	1,823
866,48	9,914
866,66	6,989
866,83	9,796
867,01	7,928
867,19	5,072
867,37	4,916
867,55	4,062
867,73	6,971
867,90	4,671
868,08	6,409
868,26	7,108
868,44	5,275
868,62	10,934
868,79	6,186
868,97	5,290
869,15	-0,232
869,33	10,745
869,51	3,020
869,69	7,073
869,86	5,731
870,04	6,667
870,22	10,432
870,40	5,146
870,57	4,037
870,75	4,088
870,93	7,895
871,11	4,221
871,29	6,963
871,46	3,422
871,64	6,590
871,82	3,445
872,00	8,951
872,18	1,477
872,35	10,822
872,53	7,346
872,71	6,633
872,89	10,403
873,06	8,930
873,24	11,348
873,42	7,738
873,60	5,796
873,77	6,646
873,95	1,241
874,13	-0,634
874,31	8,978
874,49	3,485
874,66	4,323
874,84	6,520
875,02	7,424
875,20	5,517
875,37	5,085
875,55	7,634
875,73	4,108
875,91	6,227
876,08	3,931
876,26	0,442
876,44	4,257
876,61	8,139
876,79	5,337
876,97	0,456
877,15	3,877
877,32	3,922
877,50	5,215
877,68	3,770
877,86	1,105
878,03	7,527
878,21	3,325
878,39	7,217
878,56	1,488
878,74	8,180
878,92	3,551
879,10	2,690
879,27	8,096
879,45	8,655
879,63	6,211
879,80	7,111
879,98	3,085
880,16	3,857
880,34	7,811
880,51	4,653
880,69	3,125
880,87	3,683
881,04	5,065
881,22	7,456
881,40	5,528
881,57	4,846
881,75	5,402
881,93	7,201
882,10	4,076
882,28	6,621
882,46	5,479
882,63	1,590
882,81	7,063
882,99	6,584
883,16	6,505
883,34	2,941
883,52	6,439
883,69	5,948
883,87	5,664
884,05	7,004
884,22	6,784
884,40	8,410
884,58	6,512
884,75	6,490
884,93	5,535
885,11	7,520
885,28	6,301
885,46	6,212
885,64	5,335
885,81	7,656
885,99	9,046
886,17	8,731
886,34	9,309
886,52	8,100
886,70	11,672
886,87	11,963
887,05	11,279
887,22	11,566
887,40	13,571
887,58	11,331
887,75	14,366
887,93	11,826
888,11	15,584
888,28	13,163
888,46	16,825
888,63	15,003
888,81	15,789
888,99	16,515
889,16	16,320
889,34	13,519
889,51	15,008
889,69	15,423
889,87	18,489
890,04	15,813
890,22	17,357
890,39	18,412
890,57	18,257
890,75	16,223
890,92	19,341
891,10	18,011
891,27	18,061
891,45	20,151
891,63	19,566
891,80	20,579
891,98	22,759
892,15	21,438
892,33	22,197
892,51	22,358
892,68	21,830
892,86	22,937
893,03	23,936
893,21	25,555
893,38	23,684
893,56	23,183
893,74	23,582
893,91	26,244
894,09	25,940
894,26	27,193
894,44	27,163
894,61	26,840
894,79	25,053
894,96	26,536
895,14	28,729
895,32	27,371
895,49	29,101
895,67	32,137
895,84	31,401
896,02	30,756
896,19	29,772
896,37	30,395
896,54	31,299
896,72	28,977
896,89	32,794
897,07	31,273
897,25	31,377
897,42	32,763
897,60	34,682
897,77	33,870
897,95	32,666
898,12	31,499
898,30	32,137
898,47	30,629
898,65	31,049
898,82	31,857
899,00	29,689
899,17	33,649
899,35	31,521
899,52	34,778
899,70	34,033
899,87	31,348
900,05	31,317
900,22	32,686
900,40	29,841
900,57	31,651
900,75	28,726
900,92	31,405
901,10	33,495
901,27	30,237
901,45	29,882
901,62	30,573
901,80	31,381
901,97	29,748
902,15	28,667
902,32	32,052
902,50	28,776
902,67	30,477
902,85	29,340
903,02	30,197
903,20	30,289
903,37	27,651
903,54	28,197
903,72	28,892
903,89	29,810
904,07	27,843
904,24	27,916
904,42	27,148
904,59	27,036
904,77	28,475
904,94	25,788
905,12	25,726
905,29	25,325
905,47	25,305
905,64	25,427
905,81	26,653
905,99	25,516
906,16	23,933
906,34	24,615
906,51	21,693
906,69	24,776
906,86	22,446
907,03	21,931
907,21	21,282
907,38	22,430
907,56	20,407
907,73	21,932
907,91	18,653
908,08	20,361
908,25	19,270
908,43	19,698
908,60	16,181
908,78	18,098
908,95	17,565
909,13	18,068
909,30	17,227
909,47	18,075
909,65	17,358
909,82	15,614
910,00	16,259
910,17	15,213
910,34	15,152
910,52	14,388
910,69	15,142
910,87	15,508
911,04	13,810
911,21	13,628
911,39	14,316
911,56	14,944
911,73	13,191
911,91	12,462
912,08	13,192
912,26	13,168
912,43	14,146
912,60	12,784
912,78	12,478
912,95	13,647
913,13	13,251
913,30	13,523
913,47	14,944
913,65	14,368
913,82	15,010
913,99	13,180
914,17	14,034
914,34	14,958
914,51	15,919
914,69	14,347
914,86	15,578
915,03	14,430
915,21	16,102
915,38	15,120
915,56	16,060
915,73	16,458
915,90	17,526
916,08	16,238
916,25	16,258
916,42	16,793
916,60	16,787
916,77	17,347
916,94	17,575
917,12	15,907
917,29	16,019
917,46	17,463
917,64	16,885
917,81	16,429
917,98	15,693
918,16	17,046
918,33	15,383
918,50	17,622
918,67	16,869
918,85	16,902
919,02	16,421
919,19	15,950
919,37	16,370
919,54	17,162
919,71	17,008
919,89	16,150
920,06	17,059
920,23	16,296
920,41	13,815
920,58	18,092
920,75	16,439
920,92	14,862
921,10	14,502
921,27	15,796
921,44	15,850
921,62	15,682
921,79	14,942
921,96	14,668
922,13	15,691
922,31	14,393
922,48	15,366
922,65	14,904
922,82	13,711
923,00	14,437
923,17	13,664
923,34	15,061
923,52	13,293
923,69	14,416
923,86	15,392
924,03	14,060
924,21	12,662
924,38	13,185
924,55	12,295
924,72	12,470
924,90	13,440
925,07	13,165
925,24	11,577
925,41	13,082
925,59	11,213
925,76	10,436
925,93	10,765
926,10	10,932
926,28	10,211
926,45	9,735
926,62	9,491
926,79	10,112
926,96	8,832
927,14	9,709
927,31	7,769
927,48	7,712
927,65	7,546
927,83	6,884
928,00	6,698
928,17	6,300
928,34	6,876
928,51	5,676
928,69	5,427
928,86	5,617
929,03	5,687
929,20	5,489
929,37	4,829
929,55	5,690
929,72	5,013
929,89	5,298
930,06	4,508
930,23	5,070
930,41	4,184
930,58	5,281
930,75	4,316
930,92	5,102
931,09	4,383
931,27	4,024
931,44	3,908
931,61	4,458
931,78	4,505
931,95	3,837
932,12	4,970
932,30	3,986
932,47	3,549
932,64	3,837
932,81	3,671
932,98	3,267
933,16	4,010
933,33	3,891
933,50	3,746
933,67	3,900
933,84	5,230
934,01	4,168
934,18	3,514
934,36	3,687
934,53	4,326
934,70	3,640
934,87	2,591
935,04	3,769
935,21	3,018
935,38	3,586
935,56	3,855
935,73	2,914
935,90	2,976
936,07	3,180
936,24	3,429
936,41	2,800
936,58	2,056
936,76	3,164
936,93	2,363
937,10	3,033
937,27	3,710
937,44	2,948
937,61	3,617
937,78	3,190
937,95	3,387
938,13	2,409
938,30	3,110
938,47	2,688
938,64	2,981
938,81	2,644
938,98	2,154
939,15	2,735
939,32	3,170
939,49	3,026
939,66	3,618
939,84	2,080
940,01	3,181
940,18	3,016
940,35	2,055
940,52	2,835
940,69	2,185
940,86	4,019
941,03	3,669
941,20	2,248
941,37	2,512
941,54	2,966
941,71	4,226
941,89	3,163
942,06	2,683
942,23	3,227
942,40	3,241
942,57	3,828
942,74	2,657
942,91	3,519
943,08	3,589
943,25	3,484
943,42	2,687
943,59	3,546
943,76	3,219
943,93	2,534
944,10	2,115
944,27	2,269
944,44	1,959
944,61	2,875
944,79	2,804
944,96	3,611
945,13	3,069
945,30	3,088
945,47	3,668
945,64	2,960
945,81	2,900
945,98	3,103
946,15	3,836
946,32	3,385
946,49	3,868
946,66	4,257
946,83	2,106
947,00	3,068
947,17	1,467
947,34	2,944
947,51	2,754
947,68	3,128
947,85	2,728
948,02	2,658
948,19	0,899
948,36	2,967
948,53	-0,087
948,70	2,160
948,87	2,964
949,04	3,910
949,21	0,977
949,38	2,519
949,55	2,427
949,72	2,115
949,89	3,107
950,06	1,595
950,23	1,547
950,40	1,933
950,57	2,112
950,74	1,775
950,91	1,871
951,08	2,944
951,25	3,799
951,42	2,562
951,59	1,862
951,76	1,035
951,93	2,306
952,10	2,217
952,27	2,197
952,44	3,269
952,61	2,853
952,77	3,012
952,94	3,772
953,11	2,285
953,28	3,827
953,45	2,842
953,62	1,966
953,79	0,395
953,96	0,653
954,13	3,775
954,30	3,407
954,47	3,063
954,64	2,230
954,81	3,863
954,98	0,899
955,15	3,567
955,32	1,451
955,49	0,642
955,65	3,003
955,82	4,795
955,99	2,644
956,16	5,132
956,33	2,566
956,50	0,516
956,67	1,888
956,84	5,442
957,01	1,418
957,18	1,901
957,35	1,898
957,52	3,400
957,68	4,868
957,85	4,259
958,02	3,161
958,19	0,562
958,36	7,106
958,53	1,794
958,70	5,209
958,87	1,198
959,04	5,828
959,21	5,495
959,37	7,121
959,54	4,503
959,71	8,324
959,88	4,186
960,05	6,985
960,22	5,409
960,39	4,271
960,56	6,010
960,72	8,449
960,89	6,980
961,06	1,939
961,23	0,459
961,40	2,643
961,57	2,236
961,74	7,834
961,90	4,209
962,07	4,484
962,24	2,729
962,41	7,586
962,58	5,351
962,75	6,325
962,92	7,544
963,08	2,083
963,25	1,992
963,42	12,651
963,59	8,008
963,76	7,356
963,93	13,238
964,10	-1,810
964,26	15,952
964,43	6,977
964,60	1,624
964,77	14,318
964,94	3,457
965,10	3,900
965,27	7,542
965,44	14,286
965,61	13,356
965,78	7,764
965,95	17,164
966,11	18,788
966,28	3,631
966,45	18,627
966,62	1,394
966,79	5,461
966,95	22,064
967,12	25,714
967,29	18,210
967,46	28,470
967,63	23,529
967,79	31,544
967,96	10,550
968,13	12,857
968,30	18,930
968,47	24,615
968,63	15,686
968,80	26,437
968,97	20,809
969,14	16,949
969,31	31,122
969,47	26,630
969,64	35,165
969,81	-6,452
969,98	5,263
970,14	-8,602
970,31	24,528
970,48	12,752
970,65	-1,653
970,81	29,371
970,98	41,146
971,15	52,121
971,32	50,758
971,48	67,857
971,65	25,828
971,82	60,909
971,99	43,038
972,15	22,093
972,32	23,611
972,49	91,803
972,66	33,884
972,82	29,452
972,99	37,500
973,16	66,225
973,33	37,037
973,49	43,902
973,66	49,524
973,83	24,691
974,00	65,823
974,16	69,091
974,33	81,333
974,50	78,788
974,67	47,619
974,83	61,224
975,00	125,455
975,17	90,323
975,33	39,080
975,50	86,885
975,67	107,692
975,84	74,390
976,00	82,895
976,17	95,652
976,34	69,412
976,50	27,473
976,67	60,714
976,84	185,417
977,00	82,051
977,17	128,889
977,34	161,538
977,50	110,714
977,67	101,176
977,84	22,034
978,01	74,324
978,17	100,000
978,34	66,667
978,51	204,000
978,67	100,000
978,84	78,182
979,01	7,895
979,17	37,143
979,34	19,565
979,51	143,182
979,67	141,667
979,84	103,390
980,01	19,231
980,17	214,706
980,34	91,781
980,51	455,556
980,67	13,333
980,84	68,571
981,01	141,176
981,17	98,529
981,34	45,714
981,50	104,211
981,67	159,524
981,84	110,714
982,00	3300,000
982,17	125,000
982,34	207,317
982,50	0,000
982,67	-185,714
982,84	215,000
983,00	138,889
983,17	-185,714
983,33	344,444
983,50	107,317
983,67	113,043
983,83	71,429
984,00	182,609
984,17	611,111
984,33	-57,143
984,50	89,189
984,66	418,750
984,83	225,000
985,00	-100,000
985,16	116,129
985,33	2900,000
985,49	94,186
985,66	135,000
985,83	-2933,333
985,99	333,333
986,16	321,053
986,32	86,301
986,49	-600,000
986,66	380,000
986,82	100,000
986,99	-600,000
987,15	169,697
987,32	358,824
987,49	171,429
987,65	-73,913
987,82	-55,000
987,98	92,424
988,15	257,143
988,31	197,143
988,48	109,804
988,65	440,000
988,81	56,364
988,98	251,351
989,14	570,000
989,31	84,746
989,47	-89,286
989,64	272,222
989,80	81,915
989,97	112,727
990,14	285,714
990,30	-662,500
990,47	-95,833
990,63	202,632
990,80	1733,333
990,96	766,667
991,13	136,667
991,29	135,294
991,46	97,917
991,62	0,000
991,79	-90,000
991,95	382,353
992,12	1133,333
992,29	-176,190
992,45	259,524
992,62	-89,286
992,78	-333,333
992,95	219,355
993,11	587,500
993,28	-3100,000
993,44	-96,552
993,61	184,211
993,77	0,000
993,94	156,410
994,10	1257,143
994,27	28,947
994,43	215,625
994,60	892,857
994,76	103,030
994,93	-350,000
995,09	-293,750
995,26	312,500
995,42	150,000
995,59	40,000
995,75	-366,667
995,92	-671,429
996,08	-580,000
996,25	233,333
996,41	1460,000
996,58	192,000
996,74	-120,000
996,91	106,452
997,07	216,000
997,23	13,725
997,40	1733,333
997,56	-1466,667
997,73	234,783
997,89	1960,000
998,06	201,754
998,22	127,660
998,39	153,061
998,55	421,053
998,72	-6500,000
998,88	128,000
999,05	340,000
999,21	305,882
999,37	151,163
999,54	251,613
999,70	233,333
999,87	916,667
1000,03	263,333
1000,20	85,714
1000,36	-350,000
1000,52	50,000
1000,69	412,000
1000,85	-325,000
1001,02	128,571
1001,18	940,000
1001,35	0,000
1001,51	335,714
1001,67	205,000
1001,84	146,341
1002,00	-300,000
1002,17	-350,000
1002,33	-0,000
1002,50	416,667
1002,66	375,000
1002,82	165,854
1002,99	-377,273
1003,15	-800,000
1003,32	-321,429
1003,48	-1200,000
1003,64	221,739
1003,81	100,000
1003,97	144,928
1004,14	-29,091
1004,30	227,273
1004,46	-8400,000
1004,63	-284,615
1004,79	97,297
1004,95	-220,000
1005,12	-146,154
1005,28	213,889
1005,45	-1100,000
1005,61	507,692
1005,77	-257,143
1005,94	193,478
1006,10	-380,000
1006,26	22,222
1006,43	233,333
1006,59	332,258
1006,76	-208,000
1006,92	321,739
1007,08	84,848
1007,25	227,778
1007,41	95,455
1007,57	-405,882
1007,74	4,348
1007,90	-157,143
1008,06	-300,000
1008,23	-105,263
1008,39	163,889
1008,55	78,824
1008,72	-1012,500
1008,88	-111,429
1009,04	-566,667
1009,21	125,000
1009,37	283,871
1009,53	-395,000
1009,70	-31,818
1009,86	357,895
1010,02	113,636
1010,19	560,000
1010,35	7000,000
1010,51	294,286
1010,68	363,636
1010,84	200,000
1011,00	564,286
1011,17	1800,000
1011,33	0,000
1011,49	493,750
1011,66	296,875
1011,82	-958,333
1011,98	486,667
1012,14	69,231
1012,31	215,909
1012,47	-528,571
1012,63	4700,000
1012,80	272,222
1012,96	80,556
1013,12	-85,185
1013,29	404,167
1013,45	-226,471
1013,61	-1240,000
1013,77	-533,333
1013,94	212,500
1014,10	3700,000
1014,26	-14,706
1014,43	273,684
1014,59	0,000
1014,75	700,000
1014,91	231,429
1015,08	230,769
1015,24	153,333
1015,40	466,667
1015,56	529,412
1015,73	130,612
1015,89	788,889
1016,05	208,108
1016,21	148,148
1016,38	155,263
1016,54	-140,000
1016,70	289,474
1016,86	-307,692
1017,03	0,000
1017,19	950,000
1017,35	233,333
1017,51	333,333
1017,68	914,286
1017,84	405,263
1018,00	52,381
1018,16	-393,750
1018,33	200,000
1018,49	185,714
1018,65	-336,364
1018,81	-17,073
1018,97	584,615
1019,14	-628,571
1019,30	309,524
1019,46	153,846
1019,62	2600,000
1019,79	-985,714
1019,95	-1200,000
1020,11	560,000
1020,27	75,000
1020,43	-725,000
1020,60	0,000
1020,76	102,941
1020,92	6300,000
1021,08	-93,333
1021,24	-2500,000
1021,41	290,909
1021,57	-191,667
1021,73	0,000
1021,89	-27,273
1022,05	128,571
1022,21	-400,000
1022,38	347,368
1022,54	1460,000
1022,70	114,815
1022,86	-2400,000
1023,02	388,889
1023,19	-320,000
1023,35	100,000
1023,51	193,548
1023,67	139,474
1023,83	236,364
1023,99	148,571
1024,16	3,077
1024,32	462,500
1024,48	263,265
1024,64	-100,000
1024,80	600,000
1024,96	376,923
1025,12	2600,000
1025,29	-1250,000
1025,45	150,000
1025,61	1433,333
1025,77	204,762
1025,93	-269,231
1026,09	3200,000
1026,26	-571,429
1026,42	-625,000
1026,58	121,154
1026,74	414,286
1026,90	426,316
1027,06	-370,000
1027,22	-441,667
1027,38	622,222
1027,55	-296,000
1027,71	162,500
1027,87	182,500
1028,03	113,636
1028,19	-93,939
1028,35	24,324
1028,51	6,452
1028,67	-520,000
1028,83	145,238
1029,00	550,000
1029,16	-426,667
1029,32	323,529
1029,48	3750,000
1029,64	242,857
1029,80	750,000
1029,96	190,196
1030,12	112,500
1030,28	1550,000
1030,44	-1050,000
1030,61	262,500
1030,77	-260,870
1030,93	193,023
1031,09	-207,143
1031,25	-666,667
1031,41	-500,000
1031,57	89,474
1031,73	563,636
1031,89	-103,030
1032,05	1085,714
1032,21	720,000
1032,37	-138,235
1032,53	-95,000
1032,69	-4500,000
1032,86	1433,333
1033,02	312,500
1033,18	-576,923
1033,34	-0,000
1033,50	248,387
1033,66	-77,778
1033,82	228,571
1033,98	-364,706
1034,14	788,889
1034,30	-127,273
1034,46	250,000
1034,62	316,667
1034,78	87,302
1034,94	-70,968
1035,10	-336,364
1035,26	-466,667
1035,42	128,571
1035,58	1100,000
1035,74	-33,333
1035,90	-191,667
1036,06	196,226
1036,22	-156,000
1036,38	806,667
1036,54	640,000
1036,70	-2750,000
1036,86	-307,143
1037,02	-2650,000
1037,18	-92,857
1037,34	252,174
1037,50	-166,667
1037,66	-2666,667
1037,82	-135,294
1037,98	242,857
1038,14	-79,310
1038,30	48,077
1038,46	97,917
1038,62	206,452
1038,78	207,143
1038,94	-147,368
1039,10	-62,500
1039,26	-247,368
1039,42	-328,571
1039,58	132,075
1039,74	159,375
1039,90	38,462
1040,06	352,941
>>>>>End Processed Spectral Data<<<<<
