SpectraSuite Data File
++++++++++++++++++++++++++++++++++++
Date: Thu Feb 02 17:25:23 EET 2017
User: optolab
Dark Spectrum Present: Yes
Reference Spectrum Present: Yes
Number of Sampled Component Spectra: 1
Spectrometers: USB4C02475
Integration Time (usec): 100000 (USB4C02475)
Spectra Averaged: 1 (USB4C02475)
Boxcar Smoothing: 0 (USB4C02475)
Correct for Electrical Dark: No (USB4C02475)
Strobe/Lamp Enabled: No (USB4C02475)
Correct for Detector Non-linearity: No (USB4C02475)
Correct for Stray Light: No (USB4C02475)
Number of Pixels in Processed Spectrum: 3648
>>>>>Begin Processed Spectral Data<<<<<
344,91	-1100,000
345,13	-1100,000
345,35	-1100,000
345,57	-88,235
345,79	8,696
346,00	-100,000
346,22	-1057,143
346,44	-75,758
346,66	240,426
346,87	286,957
347,09	423,077
347,31	7500,000
347,53	-200,000
347,74	-97,674
347,96	-914,286
348,18	250,000
348,40	541,176
348,61	-130,769
348,83	5500,000
349,05	169,231
349,27	452,941
349,48	-2900,000
349,70	478,571
349,92	404,762
350,14	137,838
350,35	100,000
350,57	-305,556
350,79	97,436
351,01	-213,333
351,22	490,000
351,44	400,000
351,66	166,667
351,87	766,667
352,09	90,789
352,31	153,571
352,53	160,000
352,74	-785,714
352,96	189,474
353,18	128,125
353,40	-762,500
353,61	413,333
353,83	133,333
354,05	221,875
354,26	178,571
354,48	-620,000
354,70	161,905
354,92	272,222
355,13	-44,186
355,35	122,222
355,57	204,688
355,78	150,000
356,00	144,681
356,22	140,909
356,44	139,535
356,65	342,857
356,87	238,889
357,09	208,571
357,30	195,455
357,52	-950,000
357,74	251,613
357,95	248,571
358,17	55,072
358,39	200,000
358,60	125,000
358,82	190,909
359,04	171,795
359,26	81,818
359,47	-92,308
359,69	225,000
359,91	332,000
360,12	90,000
360,34	144,444
360,56	-800,000
360,77	455,556
360,99	304,167
361,21	147,826
361,42	-1425,000
361,64	-200,000
361,86	61,194
362,07	520,000
362,29	302,500
362,51	132,432
362,72	-600,000
362,94	188,889
363,16	102,857
363,37	654,545
363,59	-4500,000
363,81	887,500
364,02	118,667
364,24	195,455
364,46	290,476
364,67	161,905
364,89	388,235
365,11	291,892
365,32	233,333
365,54	256,250
365,76	186,364
365,97	73,171
366,19	108,772
366,41	480,000
366,62	138,000
366,84	183,333
367,05	100,000
367,27	1320,000
367,49	235,897
367,70	322,222
367,92	143,750
368,14	-323,077
368,35	132,353
368,57	133,333
368,79	180,769
369,00	115,385
369,22	144,444
369,43	347,368
369,65	-120,690
369,87	-276,471
370,08	245,000
370,30	392,857
370,51	290,909
370,73	222,222
370,95	300,000
371,16	126,316
371,38	192,453
371,60	150,000
371,81	102,174
372,03	-750,000
372,24	-31,250
372,46	1866,667
372,68	155,882
372,89	100,917
373,11	141,860
373,32	107,563
373,54	154,545
373,76	327,778
373,97	69,697
374,19	-115,789
374,40	84,286
374,62	229,412
374,84	341,667
375,05	155,769
375,27	294,595
375,48	74,074
375,70	329,412
375,92	151,786
376,13	400,000
376,35	275,000
376,56	210,000
376,78	71,429
376,99	69,697
377,21	200,000
377,43	100,000
377,64	118,000
377,86	87,500
378,07	86,364
378,29	144,444
378,51	120,238
378,72	-190,909
378,94	60,870
379,15	102,273
379,37	275,000
379,58	36,667
379,80	109,091
380,01	184,000
380,23	282,609
380,45	245,833
380,66	113,889
380,88	116,216
381,09	378,261
381,31	207,692
381,52	160,870
381,74	71,429
381,95	289,286
382,17	304,000
382,39	109,677
382,60	394,118
382,82	186,207
383,03	633,333
383,25	96,296
383,46	408,333
383,68	229,787
383,89	318,182
384,11	89,041
384,32	147,368
384,54	-728,571
384,76	294,118
384,97	180,000
385,19	173,684
385,40	259,375
385,62	80,645
385,83	189,362
386,05	285,714
386,26	261,538
386,48	523,077
386,69	230,556
386,91	-120,000
387,12	210,256
387,34	62,712
387,55	168,571
387,77	284,000
387,98	112,245
388,20	91,549
388,41	109,524
388,63	92,857
388,84	175,000
389,06	100,000
389,27	187,500
389,49	78,313
389,70	123,729
389,92	113,636
390,13	164,103
390,35	53,125
390,56	117,187
390,78	140,909
390,99	111,111
391,21	73,864
391,42	56,522
391,64	-250,000
391,85	62,069
392,07	-85,714
392,28	219,231
392,50	780,000
392,71	1800,000
392,93	54,839
393,14	184,783
393,36	129,487
393,57	220,833
393,79	117,460
394,00	60,274
394,22	72,000
394,43	85,714
394,65	207,143
394,86	193,750
395,08	-375,000
395,29	134,043
395,50	-5300,000
395,72	642,857
395,93	320,000
396,15	157,143
396,36	56,667
396,58	-57,143
396,79	97,674
397,01	221,429
397,22	104,348
397,44	108,511
397,65	83,784
397,87	105,714
398,08	169,231
398,29	175,000
398,51	160,976
398,72	58,696
398,94	69,767
399,15	145,000
399,37	147,826
399,58	58,730
399,80	166,667
400,01	185,294
400,22	221,429
400,44	319,048
400,65	104,110
400,87	5100,000
401,08	76,404
401,30	86,667
401,51	27,273
401,72	111,290
401,94	160,976
402,15	65,306
402,37	100,000
402,58	102,326
402,80	331,250
403,01	88,889
403,22	98,795
403,44	177,778
403,65	36,735
403,87	82,667
404,08	63,462
404,30	65,625
404,51	27,143
404,72	245,455
404,94	49,398
405,15	77,612
405,37	113,187
405,58	74,194
405,79	221,429
406,01	77,778
406,22	90,476
406,44	82,456
406,65	59,524
406,86	73,000
407,08	22,222
407,29	73,333
407,51	43,269
407,72	33,663
407,93	129,114
408,15	73,864
408,36	162,857
408,58	66,667
408,79	31,008
409,00	68,794
409,22	26,471
409,43	24,324
409,64	23,718
409,86	-4,545
410,07	22,609
410,29	0,000
410,50	16,667
410,71	28,226
410,93	25,743
411,14	34,579
411,35	34,028
411,57	20,139
411,78	13,235
412,00	17,333
412,21	10,619
412,42	28,780
412,64	36,667
412,85	8,808
413,06	37,054
413,28	24,314
413,49	35,349
413,70	28,326
413,92	35,714
414,13	5,534
414,34	6,691
414,56	34,468
414,77	20,295
414,98	14,841
415,20	32,258
415,41	10,065
415,63	23,932
415,84	12,742
416,05	5,422
416,27	16,992
416,48	22,275
416,69	2,616
416,91	10,933
417,12	7,919
417,33	6,998
417,55	20,000
417,76	12,896
417,97	14,981
418,19	-4,184
418,40	-1,919
418,61	9,949
418,83	8,451
419,04	7,597
419,25	5,263
419,46	8,989
419,68	2,950
419,89	6,324
420,10	4,570
420,32	5,033
420,53	6,444
420,74	5,735
420,96	2,370
421,17	4,903
421,38	2,886
421,60	8,789
421,81	3,303
422,02	1,865
422,23	6,375
422,45	5,263
422,66	4,013
422,87	2,629
423,09	2,747
423,30	4,754
423,51	4,238
423,73	4,476
423,94	4,116
424,15	0,420
424,36	4,215
424,58	1,480
424,79	0,716
425,00	0,620
425,22	3,059
425,43	3,777
425,64	0,242
425,85	1,747
426,07	0,894
426,28	2,883
426,49	1,068
426,71	2,365
426,92	0,984
427,13	1,604
427,34	1,494
427,56	3,218
427,77	0,083
427,98	1,666
428,19	-0,078
428,41	1,432
428,62	1,532
428,83	0,377
429,04	2,911
429,26	1,388
429,47	3,489
429,68	0,218
429,89	0,642
430,11	1,013
430,32	1,653
430,53	1,416
430,74	2,049
430,96	1,799
431,17	1,685
431,38	1,158
431,59	1,269
431,81	1,483
432,02	1,151
432,23	1,810
432,44	0,949
432,66	1,517
432,87	1,036
433,08	0,984
433,29	1,124
433,51	1,099
433,72	1,100
433,93	0,894
434,14	1,566
434,35	0,717
434,57	0,354
434,78	1,175
434,99	0,370
435,20	0,902
435,42	1,358
435,63	0,656
435,84	1,675
436,05	1,017
436,26	0,208
436,48	1,226
436,69	1,258
436,90	0,735
437,11	1,504
437,32	1,441
437,54	1,489
437,75	2,089
437,96	2,526
438,17	2,977
438,38	3,071
438,60	4,114
438,81	4,363
439,02	5,181
439,23	5,903
439,44	6,935
439,66	7,641
439,87	8,249
440,08	9,184
440,29	10,330
440,50	11,243
440,72	12,330
440,93	12,596
441,14	12,619
441,35	13,433
441,56	12,896
441,77	13,063
441,99	12,663
442,20	12,746
442,41	11,922
442,62	12,088
442,83	12,481
443,04	12,206
443,26	13,368
443,47	14,095
443,68	14,141
443,89	15,486
444,10	16,771
444,31	17,439
444,53	18,295
444,74	19,566
444,95	20,691
445,16	22,322
445,37	23,567
445,58	25,745
445,80	27,104
446,01	28,801
446,22	31,273
446,43	32,764
446,64	33,792
446,85	36,408
447,06	37,492
447,28	39,060
447,49	41,378
447,70	42,471
447,91	44,531
448,12	45,647
448,33	47,053
448,54	49,741
448,76	51,440
448,97	53,275
449,18	54,814
449,39	55,685
449,60	57,232
449,81	55,954
450,02	57,228
450,23	57,201
450,45	57,541
450,66	56,564
450,87	55,676
451,08	54,441
451,29	54,387
451,50	53,463
451,71	52,089
451,92	49,694
452,13	48,214
452,35	46,040
452,56	45,231
452,77	43,078
452,98	42,369
453,19	41,005
453,40	39,727
453,61	38,334
453,82	36,847
454,03	37,268
454,25	36,906
454,46	37,812
454,67	37,147
454,88	37,087
455,09	37,440
455,30	36,860
455,51	36,449
455,72	36,574
455,93	35,476
456,14	35,043
456,35	33,875
456,56	33,432
456,78	32,700
456,99	31,022
457,20	29,190
457,41	27,658
457,62	26,180
457,83	25,693
458,04	24,046
458,25	21,902
458,46	21,217
458,67	20,367
458,88	19,654
459,09	18,693
459,30	17,973
459,51	18,500
459,73	17,928
459,94	18,748
460,15	18,775
460,36	19,083
460,57	19,456
460,78	20,311
460,99	21,217
461,20	20,606
461,41	21,224
461,62	21,308
461,83	21,290
462,04	20,359
462,25	20,669
462,46	20,074
462,67	18,638
462,88	17,628
463,09	16,609
463,30	15,432
463,51	14,131
463,72	12,944
463,93	11,364
464,15	10,082
464,36	8,785
464,57	6,976
464,78	5,937
464,99	4,994
465,20	3,791
465,41	3,090
465,62	2,309
465,83	1,876
466,04	1,732
466,25	1,204
466,46	1,254
466,67	0,898
466,88	0,714
467,09	0,779
467,30	0,691
467,51	0,654
467,72	0,521
467,93	0,498
468,14	0,494
468,35	0,650
468,56	0,317
468,77	0,289
468,98	0,446
469,19	0,326
469,40	0,465
469,61	0,315
469,82	0,357
470,03	0,157
470,24	0,293
470,45	0,390
470,66	0,555
470,87	0,513
471,08	0,429
471,29	0,262
471,50	0,401
471,71	0,264
471,92	0,282
472,13	0,315
472,34	0,072
472,55	0,393
472,76	0,440
472,97	0,310
473,18	0,311
473,39	0,251
473,60	0,034
473,81	0,094
474,01	0,364
474,22	0,324
474,43	0,463
474,64	0,523
474,85	0,155
475,06	0,335
475,27	0,234
475,48	0,323
475,69	0,174
475,90	0,174
476,11	0,285
476,32	0,222
476,53	0,466
476,74	0,264
476,95	0,277
477,16	0,447
477,37	0,296
477,58	0,166
477,79	0,253
478,00	0,094
478,21	0,564
478,41	0,242
478,62	0,386
478,83	0,332
479,04	0,368
479,25	-0,028
479,46	0,220
479,67	0,177
479,88	0,277
480,09	0,392
480,30	0,237
480,51	0,499
480,72	0,161
480,93	0,324
481,14	0,247
481,34	0,300
481,55	0,245
481,76	0,417
481,97	0,033
482,18	0,184
482,39	0,465
482,60	0,340
482,81	0,033
483,02	0,264
483,23	0,422
483,44	0,364
483,65	0,324
483,85	0,252
484,06	0,341
484,27	0,375
484,48	0,286
484,69	0,429
484,90	0,121
485,11	0,346
485,32	0,406
485,53	0,133
485,73	0,345
485,94	0,105
486,15	0,261
486,36	0,365
486,57	0,332
486,78	0,256
486,99	0,220
487,20	0,211
487,41	0,344
487,61	0,131
487,82	0,060
488,03	0,408
488,24	0,332
488,45	0,381
488,66	0,298
488,87	0,325
489,08	0,371
489,28	0,197
489,49	0,417
489,70	0,306
489,91	0,255
490,12	0,261
490,33	0,106
490,54	0,251
490,74	0,401
490,95	0,275
491,16	0,258
491,37	0,419
491,58	0,231
491,79	0,208
492,00	0,179
492,20	0,207
492,41	0,191
492,62	0,291
492,83	0,150
493,04	0,466
493,25	0,524
493,45	0,429
493,66	0,406
493,87	0,362
494,08	0,302
494,29	0,453
494,50	0,440
494,70	0,490
494,91	0,741
495,12	0,534
495,33	0,674
495,54	0,716
495,75	0,866
495,95	1,208
496,16	1,198
496,37	1,298
496,58	1,566
496,79	1,779
496,99	1,956
497,20	2,223
497,41	2,506
497,62	2,583
497,83	2,856
498,04	3,070
498,24	3,475
498,45	3,714
498,66	3,935
498,87	4,040
499,08	4,193
499,28	4,701
499,49	5,295
499,70	5,458
499,91	5,786
500,12	6,115
500,32	6,464
500,53	6,615
500,74	6,877
500,95	6,882
501,15	6,969
501,36	6,697
501,57	6,672
501,78	6,620
501,99	6,392
502,19	6,044
502,40	6,036
502,61	6,089
502,82	5,937
503,02	6,214
503,23	5,999
503,44	6,657
503,65	6,922
503,86	7,662
504,06	8,438
504,27	9,247
504,48	9,952
504,69	11,078
504,89	11,595
505,10	12,979
505,31	13,964
505,52	15,309
505,72	16,687
505,93	17,165
506,14	18,101
506,35	19,574
506,55	20,726
506,76	21,593
506,97	22,624
507,18	23,310
507,38	24,407
507,59	25,120
507,80	25,634
508,01	25,602
508,21	25,499
508,42	26,003
508,63	26,142
508,84	26,093
509,04	25,530
509,25	25,688
509,46	25,370
509,67	24,737
509,87	24,694
510,08	24,692
510,29	24,267
510,49	23,730
510,70	23,403
510,91	23,506
511,12	23,339
511,32	23,849
511,53	24,007
511,74	23,694
511,94	23,284
512,15	23,415
512,36	23,929
512,57	24,669
512,77	24,479
512,98	24,971
513,19	25,695
513,39	26,080
513,60	26,513
513,81	27,526
514,01	28,297
514,22	28,632
514,43	29,222
514,64	29,631
514,84	30,342
515,05	30,248
515,26	30,757
515,46	31,153
515,67	30,742
515,88	30,710
516,08	30,485
516,29	30,652
516,50	30,545
516,70	29,853
516,91	29,590
517,12	29,322
517,32	29,005
517,53	28,624
517,74	28,322
517,95	29,022
518,15	28,461
518,36	28,667
518,57	28,653
518,77	28,719
518,98	28,672
519,19	28,331
519,39	29,257
519,60	28,834
519,80	29,131
520,01	29,242
520,22	29,126
520,42	28,477
520,63	29,611
520,84	28,967
521,04	29,346
521,25	28,892
521,46	28,692
521,66	28,480
521,87	27,911
522,08	27,405
522,28	27,220
522,49	26,633
522,70	26,127
522,90	25,243
523,11	24,307
523,31	23,508
523,52	22,354
523,73	21,216
523,93	19,984
524,14	18,400
524,35	16,879
524,55	15,650
524,76	14,053
524,97	12,630
525,17	11,416
525,38	10,471
525,58	9,368
525,79	9,285
526,00	8,227
526,20	7,970
526,41	7,597
526,61	7,774
526,82	7,436
527,03	7,239
527,23	6,856
527,44	7,083
527,64	6,382
527,85	5,965
528,06	5,655
528,26	5,117
528,47	4,433
528,68	4,017
528,88	3,221
529,09	2,634
529,29	2,685
529,50	1,784
529,70	1,802
529,91	1,532
530,12	1,264
530,32	1,157
530,53	1,292
530,73	1,045
530,94	1,074
531,15	0,940
531,35	1,255
531,56	1,353
531,76	1,227
531,97	1,199
532,17	1,233
532,38	1,371
532,59	1,311
532,79	1,394
533,00	1,228
533,20	1,032
533,41	1,008
533,61	0,638
533,82	0,537
534,03	0,607
534,23	0,246
534,44	0,417
534,64	0,506
534,85	0,202
535,05	0,113
535,26	0,267
535,46	0,219
535,67	0,062
535,88	0,273
536,08	0,255
536,29	0,239
536,49	0,120
536,70	0,244
536,90	0,276
537,11	0,296
537,31	0,363
537,52	0,296
537,72	0,292
537,93	0,098
538,13	0,211
538,34	0,297
538,55	0,119
538,75	0,073
538,96	0,081
539,16	0,196
539,37	0,289
539,57	0,297
539,78	0,309
539,98	0,069
540,19	0,279
540,39	0,202
540,60	0,139
540,80	0,183
541,01	0,376
541,21	0,358
541,42	0,324
541,62	0,280
541,83	0,118
542,03	0,308
542,24	0,228
542,44	0,220
542,65	0,254
542,85	0,326
543,06	0,316
543,26	0,167
543,47	0,232
543,67	0,384
543,88	0,210
544,08	-0,016
544,29	0,367
544,49	0,044
544,70	-0,008
544,90	0,252
545,11	0,105
545,31	0,041
545,52	0,101
545,72	0,266
545,93	0,182
546,13	0,209
546,34	0,280
546,54	0,020
546,75	0,127
546,95	0,157
547,15	0,088
547,36	0,410
547,56	0,043
547,77	0,051
547,97	0,040
548,18	0,020
548,38	0,187
548,59	0,151
548,79	0,318
549,00	0,321
549,20	0,353
549,41	0,214
549,61	0,127
549,81	0,075
550,02	0,083
550,22	0,157
550,43	0,084
550,63	0,091
550,84	0,258
551,04	0,060
551,25	0,200
551,45	0,237
551,65	0,169
551,86	0,173
552,06	0,253
552,27	0,008
552,47	0,180
552,68	0,264
552,88	0,039
553,08	0,110
553,29	0,224
553,49	0,149
553,70	0,312
553,90	0,161
554,11	0,241
554,31	0,086
554,51	0,395
554,72	0,031
554,92	0,206
555,13	0,218
555,33	0,189
555,53	0,170
555,74	0,327
555,94	0,266
556,15	0,286
556,35	0,069
556,56	0,081
556,76	0,180
556,96	0,153
557,17	0,304
557,37	0,262
557,58	-0,008
557,78	0,211
557,98	0,274
558,19	0,135
558,39	0,270
558,59	0,185
558,80	0,227
559,00	0,161
559,21	0,101
559,41	0,000
559,61	0,095
559,82	0,161
560,02	0,225
560,23	0,134
560,43	0,275
560,63	0,069
560,84	0,233
561,04	0,259
561,24	0,221
561,45	0,203
561,65	0,198
561,85	0,179
562,06	0,038
562,26	0,080
562,47	0,300
562,67	0,174
562,87	-0,038
563,08	0,277
563,28	0,218
563,48	0,167
563,69	0,087
563,89	0,145
564,09	0,088
564,30	0,087
564,50	0,061
564,70	0,190
564,91	0,103
565,11	0,075
565,31	0,239
565,52	0,224
565,72	0,267
565,92	0,210
566,13	0,109
566,33	0,200
566,53	0,136
566,74	0,026
566,94	0,087
567,14	0,181
567,35	0,184
567,55	0,113
567,75	0,361
567,96	0,363
568,16	0,094
568,36	0,115
568,57	0,166
568,77	-0,011
568,97	0,261
569,18	0,145
569,38	0,052
569,58	0,228
569,79	0,198
569,99	0,229
570,19	0,026
570,39	0,141
570,60	0,112
570,80	0,107
571,00	0,152
571,21	0,119
571,41	0,160
571,61	0,237
571,82	0,262
572,02	-0,059
572,22	0,067
572,42	0,215
572,63	0,059
572,83	0,185
573,03	0,116
573,24	0,078
573,44	0,199
573,64	0,252
573,84	-0,026
574,05	-0,029
574,25	0,219
574,45	-0,041
574,66	0,067
574,86	0,130
575,06	0,178
575,26	0,138
575,47	0,159
575,67	0,219
575,87	0,259
576,07	0,158
576,28	0,232
576,48	0,033
576,68	0,151
576,88	0,228
577,09	0,129
577,29	0,279
577,49	0,041
577,69	-0,007
577,90	0,318
578,10	-0,118
578,30	0,342
578,50	0,058
578,71	0,125
578,91	0,044
579,11	0,202
579,31	0,137
579,52	0,122
579,72	0,066
579,92	0,199
580,12	0,092
580,33	0,085
580,53	0,124
580,73	0,167
580,93	0,203
581,13	0,126
581,34	0,106
581,54	0,273
581,74	0,200
581,94	0,166
582,15	0,247
582,35	0,083
582,55	0,212
582,75	0,099
582,95	0,140
583,16	0,173
583,36	0,133
583,56	0,174
583,76	0,162
583,96	0,110
584,17	-0,007
584,37	0,140
584,57	0,264
584,77	0,063
584,97	-0,051
585,18	0,147
585,38	0,007
585,58	0,165
585,78	0,070
585,98	0,163
586,19	0,066
586,39	0,167
586,59	0,144
586,79	0,158
586,99	0,176
587,20	-0,080
587,40	0,212
587,60	0,121
587,80	0,073
588,00	0,267
588,20	0,208
588,41	0,304
588,61	0,245
588,81	0,150
589,01	0,048
589,21	0,249
589,41	0,058
589,62	0,077
589,82	0,110
590,02	0,186
590,22	0,113
590,42	0,183
590,62	0,132
590,83	0,084
591,03	0,022
591,23	0,171
591,43	0,346
591,63	0,157
591,83	0,192
592,03	0,153
592,24	0,076
592,44	0,142
592,64	0,123
592,84	0,175
593,04	0,022
593,24	0,239
593,44	0,036
593,65	0,036
593,85	0,184
594,05	0,245
594,25	0,124
594,45	0,000
594,65	0,148
594,85	0,018
595,06	0,120
595,26	0,162
595,46	-0,073
595,66	0,054
595,86	-0,079
596,06	0,014
596,26	0,112
596,46	0,205
596,66	0,105
596,87	0,108
597,07	0,065
597,27	0,022
597,47	0,018
597,67	0,217
597,87	0,025
598,07	0,051
598,27	0,103
598,47	0,264
598,67	-0,040
598,88	0,121
599,08	0,114
599,28	0,177
599,48	0,078
599,68	0,157
599,88	0,056
600,08	0,155
600,28	0,184
600,48	0,130
600,68	0,093
600,88	0,202
601,09	0,120
601,29	0,168
601,49	0,034
601,69	0,166
601,89	0,226
602,09	0,196
602,29	0,026
602,49	0,136
602,69	0,099
602,89	0,099
603,09	0,114
603,29	0,102
603,49	0,176
603,69	0,240
603,90	0,019
604,10	0,121
604,30	0,189
604,50	0,125
604,70	-0,035
604,90	0,004
605,10	0,133
605,30	0,238
605,50	0,073
605,70	0,290
605,90	0,000
606,10	0,111
606,30	0,101
606,50	0,321
606,70	0,216
606,90	-0,070
607,10	0,069
607,30	0,221
607,50	0,085
607,70	0,326
607,90	0,261
608,10	0,262
608,30	0,112
608,50	0,266
608,70	0,278
608,90	0,124
609,11	0,097
609,31	0,074
609,51	0,281
609,71	0,110
609,91	0,101
610,11	0,282
610,31	0,023
610,51	0,171
610,71	0,094
610,91	0,074
611,11	0,121
611,31	0,235
611,51	-0,066
611,71	-0,008
611,91	0,193
612,11	0,134
612,31	0,150
612,51	0,255
612,71	0,108
612,91	0,091
613,11	0,099
613,31	0,091
613,51	0,143
613,71	0,008
613,91	0,222
614,11	0,120
614,31	0,008
614,50	0,163
614,70	0,114
614,90	0,040
615,10	0,083
615,30	0,215
615,50	-0,004
615,70	0,258
615,90	0,224
616,10	0,124
616,30	0,214
616,50	0,149
616,70	0,124
616,90	0,111
617,10	0,334
617,30	0,251
617,50	0,095
617,70	0,048
617,90	0,270
618,10	0,166
618,30	-0,055
618,50	0,285
618,70	0,173
618,90	0,036
619,10	0,121
619,30	-0,112
619,49	0,166
619,69	-0,016
619,89	0,138
620,09	-0,036
620,29	0,138
620,49	0,420
620,69	0,110
620,89	0,004
621,09	0,117
621,29	0,177
621,49	0,106
621,69	0,117
621,89	0,170
622,09	0,195
622,29	0,117
622,48	0,176
622,68	0,078
622,88	0,140
623,08	0,112
623,28	-0,031
623,48	0,097
623,68	0,180
623,88	0,139
624,08	0,215
624,28	0,186
624,48	0,301
624,67	0,089
624,87	0,157
625,07	0,245
625,27	-0,004
625,47	0,239
625,67	0,238
625,87	-0,069
626,07	0,134
626,27	0,046
626,47	0,230
626,66	0,169
626,86	0,249
627,06	0,135
627,26	0,127
627,46	0,186
627,66	0,147
627,86	0,109
628,06	0,217
628,25	0,203
628,45	0,178
628,65	0,108
628,85	0,227
629,05	0,280
629,25	0,074
629,45	0,083
629,65	0,130
629,84	0,068
630,04	0,288
630,24	0,158
630,44	-0,011
630,64	0,155
630,84	0,011
631,04	0,232
631,23	0,084
631,43	0,062
631,63	0,166
631,83	0,082
632,03	0,274
632,23	0,185
632,42	0,179
632,62	0,180
632,82	0,079
633,02	0,269
633,22	0,140
633,42	0,103
633,62	0,035
633,81	0,127
634,01	0,201
634,21	0,067
634,41	0,159
634,61	0,101
634,80	0,251
635,00	0,396
635,20	0,351
635,40	-0,111
635,60	0,103
635,80	0,084
635,99	0,427
636,19	0,161
636,39	0,307
636,59	0,159
636,79	0,082
636,98	0,104
637,18	0,132
637,38	0,191
637,58	0,253
637,78	0,286
637,97	0,132
638,17	0,244
638,37	0,355
638,57	-0,006
638,77	0,244
638,96	0,143
639,16	0,329
639,36	0,103
639,56	0,326
639,76	0,130
639,95	0,355
640,15	0,245
640,35	0,212
640,55	0,302
640,75	0,469
640,94	0,133
641,14	0,388
641,34	0,216
641,54	0,057
641,73	0,400
641,93	0,253
642,13	0,290
642,33	0,117
642,53	0,311
642,72	0,292
642,92	0,403
643,12	-0,086
643,32	0,317
643,51	0,347
643,71	0,094
643,91	0,413
644,11	0,486
644,30	0,048
644,50	0,426
644,70	0,118
644,90	0,542
645,09	0,333
645,29	0,213
645,49	0,520
645,69	0,050
645,88	0,389
646,08	0,246
646,28	0,482
646,48	-0,177
646,67	0,153
646,87	0,229
647,07	0,552
647,26	0,716
647,46	0,197
647,66	0,281
647,86	0,552
648,05	0,228
648,25	0,778
648,45	0,124
648,65	-0,008
648,84	0,077
649,04	0,477
649,24	0,316
649,43	0,307
649,63	0,427
649,83	0,337
650,03	0,448
650,22	0,180
650,42	0,302
650,62	0,348
650,81	0,306
651,01	0,272
651,21	0,048
651,40	0,428
651,60	0,406
651,80	0,367
652,00	0,350
652,19	0,238
652,39	0,439
652,59	0,370
652,78	0,337
652,98	-0,306
653,18	0,159
653,37	0,276
653,57	0,317
653,77	0,719
653,96	0,017
654,16	0,504
654,36	0,271
654,55	-0,067
654,75	0,336
654,95	0,340
655,14	0,078
655,34	0,572
655,54	0,542
655,73	0,304
655,93	0,262
656,13	0,209
656,32	0,009
656,52	0,468
656,72	0,408
656,91	0,723
657,11	0,354
657,31	0,270
657,50	0,474
657,70	0,460
657,90	0,469
658,09	0,460
658,29	0,173
658,49	-0,113
658,68	0,139
658,88	0,253
659,07	0,575
659,27	-0,061
659,47	0,183
659,66	0,495
659,86	-0,201
660,06	0,052
660,25	-0,080
660,45	0,469
660,64	0,053
660,84	0,235
661,04	0,175
661,23	0,283
661,43	0,378
661,63	0,275
661,82	0,199
662,02	0,556
662,21	0,122
662,41	0,839
662,61	0,350
662,80	0,000
663,00	-0,061
663,19	0,541
663,39	0,371
663,59	0,293
663,78	0,395
663,98	0,598
664,17	0,596
664,37	0,715
664,57	0,180
664,76	0,212
664,96	0,094
665,15	0,417
665,35	0,559
665,55	0,162
665,74	0,413
665,94	0,169
666,13	0,374
666,33	0,321
666,53	0,459
666,72	0,202
666,92	0,355
667,11	0,408
667,31	-0,058
667,50	0,025
667,70	0,386
667,90	-0,082
668,09	0,394
668,29	0,180
668,48	0,260
668,68	0,162
668,87	0,467
669,07	0,032
669,26	0,401
669,46	0,553
669,66	0,356
669,85	0,197
670,05	0,197
670,24	0,328
670,44	0,047
670,63	0,016
670,83	0,109
671,02	0,290
671,22	0,325
671,42	0,425
671,61	0,369
671,81	0,446
672,00	0,288
672,20	0,175
672,39	0,015
672,59	0,045
672,78	0,143
672,98	0,151
673,17	0,237
673,37	0,082
673,56	0,435
673,76	0,087
673,95	0,139
674,15	0,440
674,34	0,071
674,54	0,335
674,73	0,299
674,93	0,390
675,13	0,105
675,32	0,231
675,52	0,602
675,71	0,199
675,91	0,204
676,10	0,199
676,30	0,213
676,49	-0,061
676,69	0,274
676,88	0,138
677,08	0,098
677,27	0,150
677,47	0,208
677,66	0,465
677,86	0,365
678,05	0,058
678,24	0,146
678,44	0,370
678,63	0,212
678,83	0,167
679,02	0,234
679,22	0,296
679,41	0,196
679,61	0,055
679,80	0,243
680,00	-0,089
680,19	0,252
680,39	0,046
680,58	0,494
680,78	0,115
680,97	0,228
681,17	0,311
681,36	-0,147
681,56	0,028
681,75	-0,017
681,94	0,077
682,14	0,328
682,33	0,211
682,53	0,043
682,72	0,081
682,92	0,437
683,11	0,042
683,31	0,241
683,50	0,162
683,69	0,046
683,89	0,144
684,08	0,395
684,28	0,041
684,47	0,216
684,67	0,010
684,86	0,030
685,06	0,148
685,25	0,010
685,44	0,179
685,64	0,251
685,83	0,057
686,03	-0,080
686,22	0,246
686,42	0,273
686,61	0,241
686,80	0,128
687,00	0,122
687,19	0,182
687,39	0,138
687,58	0,252
687,77	0,387
687,97	0,230
688,16	0,165
688,36	0,039
688,55	-0,004
688,74	0,009
688,94	0,141
689,13	-0,046
689,33	0,092
689,52	0,305
689,71	0,232
689,91	0,004
690,10	0,261
690,30	0,048
690,49	0,175
690,68	0,274
690,88	0,151
691,07	0,242
691,27	0,078
691,46	0,245
691,65	0,142
691,85	0,130
692,04	0,087
692,23	0,032
692,43	0,230
692,62	0,299
692,82	0,313
693,01	0,183
693,20	0,109
693,40	0,048
693,59	0,065
693,78	0,353
693,98	-0,069
694,17	0,125
694,36	0,485
694,56	0,265
694,75	0,358
694,94	0,098
695,14	0,284
695,33	0,281
695,53	0,433
695,72	0,206
695,91	-0,139
696,11	0,254
696,30	0,235
696,49	0,474
696,69	0,188
696,88	0,137
697,07	0,031
697,27	0,218
697,46	0,275
697,65	0,159
697,85	-0,170
698,04	0,413
698,23	0,219
698,43	0,299
698,62	-0,161
698,81	0,315
699,01	0,390
699,20	0,428
699,39	0,548
699,58	0,511
699,78	0,161
699,97	0,353
700,16	0,267
700,36	0,451
700,55	0,880
700,74	0,884
700,94	0,611
701,13	0,436
701,32	0,379
701,52	0,409
701,71	0,655
701,90	0,512
702,09	1,041
702,29	0,672
702,48	0,615
702,67	0,726
702,87	1,195
703,06	0,701
703,25	0,844
703,44	0,806
703,64	0,691
703,83	0,946
704,02	1,484
704,22	1,019
704,41	0,697
704,60	1,355
704,79	0,625
704,99	1,291
705,18	1,491
705,37	0,741
705,56	1,140
705,76	1,228
705,95	1,141
706,14	1,161
706,33	0,572
706,53	1,440
706,72	0,460
706,91	1,724
707,11	1,268
707,30	0,180
707,49	0,730
707,68	1,068
707,88	1,529
708,07	0,756
708,26	0,472
708,45	0,675
708,64	1,584
708,84	0,108
709,03	1,433
709,22	0,641
709,41	1,510
709,61	0,783
709,80	1,899
709,99	2,825
710,18	2,158
710,38	-0,912
710,57	0,922
710,76	0,754
710,95	1,589
711,14	1,986
711,34	1,893
711,53	1,680
711,72	1,570
711,91	1,107
712,11	2,419
712,30	0,000
712,49	0,651
712,68	0,158
712,87	-0,122
713,07	1,847
713,26	1,166
713,45	0,624
713,64	1,309
713,83	-0,528
714,03	0,000
714,22	1,946
714,41	0,838
714,60	2,610
714,79	-1,200
714,99	2,511
715,18	2,782
715,37	3,966
715,56	0,100
715,75	3,052
715,94	2,362
716,14	4,901
716,33	2,289
716,52	3,721
716,71	3,454
716,90	2,830
717,10	1,002
717,29	2,701
717,48	1,724
717,67	4,456
717,86	1,384
718,05	1,815
718,24	3,270
718,44	3,614
718,63	-1,217
718,82	2,998
719,01	2,055
719,20	2,794
719,39	4,837
719,59	-1,367
719,78	3,206
719,97	1,606
720,16	3,159
720,35	0,413
720,54	-1,398
720,73	2,867
720,93	3,254
721,12	-1,365
721,31	1,603
721,50	5,091
721,69	1,859
721,88	4,685
722,07	1,200
722,27	3,591
722,46	1,874
722,65	-0,238
722,84	3,710
723,03	6,631
723,22	1,531
723,41	1,578
723,60	-0,491
723,79	6,766
723,99	1,174
724,18	4,142
724,37	2,906
724,56	3,918
724,75	1,304
724,94	4,054
725,13	2,403
725,32	5,941
725,51	2,140
725,71	3,283
725,90	6,616
726,09	3,836
726,28	-2,288
726,47	-1,479
726,66	7,220
726,85	2,844
727,04	3,262
727,23	6,781
727,42	3,502
727,61	-0,206
727,81	-3,892
728,00	4,054
728,19	3,250
728,38	1,092
728,57	3,438
728,76	2,253
728,95	7,812
729,14	0,866
729,33	2,151
729,52	0,787
729,71	1,627
729,90	5,495
730,09	3,864
730,28	9,265
730,48	3,950
730,67	6,696
730,86	5,910
731,05	-1,167
731,24	1,829
731,43	6,388
731,62	5,498
731,81	0,227
732,00	13,772
732,19	4,207
732,38	2,051
732,57	7,090
732,76	2,873
732,95	-0,129
733,14	0,861
733,33	2,646
733,52	10,955
733,71	2,582
733,90	1,271
734,09	6,351
734,28	4,462
734,47	5,694
734,66	6,283
734,85	6,000
735,04	-0,285
735,23	4,622
735,42	6,148
735,61	3,499
735,81	5,030
736,00	4,843
736,19	-1,520
736,38	8,982
736,57	9,877
736,76	5,109
736,95	4,140
737,14	9,888
737,33	7,214
737,52	3,692
737,71	-1,475
737,90	7,728
738,09	11,111
738,28	5,830
738,47	-1,277
738,66	2,244
738,85	4,955
739,04	-2,401
739,22	4,181
739,41	-1,838
739,60	2,389
739,79	0,360
739,98	5,018
740,17	9,215
740,36	2,351
740,55	11,783
740,74	12,007
740,93	7,075
741,12	6,429
741,31	4,225
741,50	2,836
741,69	7,257
741,88	-5,534
742,07	18,659
742,26	8,381
742,45	16,393
742,64	6,399
742,83	12,920
743,02	1,684
743,21	12,274
743,40	-4,762
743,59	4,228
743,78	12,720
743,97	11,154
744,16	6,890
744,34	-1,632
744,53	11,340
744,72	6,681
744,91	4,622
745,10	12,788
745,29	9,274
745,48	6,364
745,67	2,961
745,86	4,415
746,05	8,768
746,24	5,567
746,43	3,426
746,62	22,198
746,81	11,685
747,00	4,158
747,18	8,932
747,37	11,789
747,56	11,529
747,75	-0,985
747,94	12,136
748,13	15,884
748,32	10,238
748,51	5,330
748,70	7,048
748,89	7,260
749,08	-0,581
749,26	9,471
749,45	-1,340
749,64	14,610
749,83	12,584
750,02	11,957
750,21	-0,254
750,40	20,648
750,59	2,413
750,78	6,733
750,96	14,088
751,15	14,953
751,34	3,693
751,53	9,836
751,72	14,648
751,91	13,990
752,10	-5,759
752,29	6,133
752,47	0,860
752,66	8,889
752,85	11,749
753,04	7,821
753,23	-2,786
753,42	14,016
753,61	4,389
753,80	12,715
753,98	19,949
754,17	3,951
754,36	0,000
754,55	6,325
754,74	20,130
754,93	13,223
755,12	16,320
755,30	14,935
755,49	9,884
755,68	18,405
755,87	4,734
756,06	12,847
756,25	17,933
756,43	-1,007
756,62	15,528
756,81	16,556
757,00	2,303
757,19	-1,736
757,38	16,602
757,56	6,800
757,75	14,334
757,94	6,084
758,13	3,767
758,32	20,178
758,51	5,051
758,69	0,772
758,88	0,000
759,07	17,665
759,26	10,247
759,45	17,895
759,63	12,987
759,82	22,456
760,01	7,692
760,20	16,038
760,39	17,981
760,57	17,422
760,76	24,042
760,95	13,542
761,14	14,234
761,33	18,387
761,51	8,929
761,70	29,368
761,89	17,778
762,08	23,792
762,27	0,722
762,45	3,623
762,64	-1,005
762,83	35,060
763,02	11,739
763,21	-1,000
763,39	16,084
763,58	15,613
763,77	0,422
763,96	5,976
764,14	12,500
764,33	2,381
764,52	18,750
764,71	18,361
764,89	36,161
765,08	22,660
765,27	-2,979
765,46	13,004
765,65	30,196
765,83	26,697
766,02	0,476
766,21	-11,475
766,40	37,743
766,58	5,820
766,77	8,716
766,96	21,951
767,15	30,672
767,33	16,425
767,52	10,044
767,71	25,000
767,90	9,548
768,08	27,545
768,27	17,073
768,46	20,175
768,64	16,667
768,83	9,314
769,02	6,404
769,21	18,229
769,39	12,857
769,58	23,377
769,77	36,170
769,96	17,568
770,14	14,754
770,33	19,159
770,52	29,496
770,70	3,784
770,89	48,108
771,08	3,012
771,27	24,211
771,45	8,235
771,64	23,636
771,83	25,000
772,01	42,268
772,20	34,826
772,39	17,089
772,57	28,358
772,76	24,324
772,95	11,494
773,14	8,844
773,32	31,073
773,51	20,833
773,70	5,755
773,88	14,839
774,07	23,858
774,26	-37,097
774,44	28,571
774,63	32,934
774,82	-1,948
775,00	28,505
775,19	34,524
775,38	29,255
775,56	50,311
775,75	50,000
775,94	11,667
776,12	31,373
776,31	13,534
776,50	21,233
776,68	20,430
776,87	49,761
777,06	45,283
777,24	21,849
777,43	27,807
777,62	42,697
777,80	38,994
777,99	40,000
778,18	38,506
778,36	40,678
778,55	-2,542
778,74	0,000
778,92	31,481
779,11	53,636
779,29	-23,404
779,48	50,355
779,67	47,748
779,85	23,684
780,04	58,696
780,23	30,952
780,41	66,102
780,60	31,544
780,79	7,258
780,97	15,686
781,16	18,617
781,34	30,405
781,53	25,000
781,72	16,216
781,90	16,766
782,09	17,442
782,28	40,816
782,46	27,857
782,65	43,662
782,83	15,094
783,02	56,140
783,21	63,910
783,39	33,613
783,58	29,565
783,76	33,333
783,95	52,113
784,14	35,526
784,32	3,529
784,51	51,351
784,69	16,406
784,88	40,187
785,06	43,709
785,25	32,624
785,44	45,161
785,62	21,429
785,81	41,667
785,99	34,586
786,18	23,423
786,37	42,857
786,55	40,972
786,74	44,545
786,92	26,573
787,11	-1,389
787,29	29,464
787,48	39,785
787,67	56,604
787,85	59,494
788,04	34,234
788,22	31,683
788,41	48,031
788,59	45,395
788,78	36,264
788,96	34,711
789,15	73,333
789,34	28,846
789,52	50,000
789,71	46,043
789,89	35,065
790,08	105,000
790,26	43,312
790,45	-16,667
790,63	31,034
790,82	43,077
791,00	8,850
791,19	20,800
791,38	-35,238
791,56	32,727
791,75	-13,889
791,93	61,000
792,12	33,913
792,30	29,197
792,49	0,000
792,67	16,912
792,86	40,000
793,04	52,778
793,23	42,105
793,41	39,130
793,60	59,028
793,78	45,714
793,97	43,056
794,15	76,692
794,34	44,000
794,52	-35,484
794,71	26,357
794,89	28,030
795,08	28,000
795,26	44,000
795,45	31,944
795,63	26,613
795,82	28,571
796,00	54,000
796,19	39,024
796,37	19,847
796,56	3,883
796,74	-6,316
796,93	68,182
797,11	26,506
797,30	37,222
797,48	-6,250
797,67	16,260
797,85	40,769
798,04	52,542
798,22	76,923
798,41	3,846
798,59	30,476
798,77	-13,253
798,96	56,173
799,14	52,419
799,33	82,569
799,51	45,833
799,70	65,385
799,88	43,119
800,07	61,069
800,25	26,506
800,44	59,259
800,62	25,000
800,80	22,535
800,99	95,890
801,17	47,414
801,36	45,000
801,54	25,000
801,73	42,105
801,91	85,124
802,10	23,529
802,28	35,200
802,46	-34,211
802,65	30,935
802,83	-14,667
803,02	54,839
803,20	32,530
803,39	52,874
803,57	45,669
803,75	36,585
803,94	32,540
804,12	65,517
804,31	-18,841
804,49	12,000
804,67	18,382
804,86	49,558
805,04	-39,759
805,23	61,062
805,41	20,000
805,59	65,068
805,78	63,200
805,96	46,988
806,15	43,564
806,33	22,368
806,51	28,000
806,70	44,361
806,88	50,000
807,07	58,559
807,25	23,077
807,43	56,250
807,62	30,973
807,80	31,429
807,99	41,538
808,17	20,472
808,35	26,000
808,54	23,913
808,72	60,360
808,90	40,411
809,09	30,435
809,27	69,333
809,46	71,429
809,64	31,707
809,82	21,192
810,01	53,125
810,19	44,444
810,37	36,719
810,56	93,333
810,74	40,260
810,92	28,000
811,11	11,404
811,29	67,925
811,48	27,692
811,66	2,247
811,84	38,462
812,03	44,262
812,21	26,316
812,39	29,565
812,58	87,368
812,76	56,835
812,94	-6,024
813,13	10,638
813,31	60,000
813,49	26,852
813,68	39,091
813,86	16,854
814,04	40,496
814,23	34,337
814,41	13,483
814,59	11,650
814,78	29,412
814,96	18,868
815,14	41,121
815,33	56,589
815,51	81,890
815,69	2,857
815,87	43,564
816,06	40,870
816,24	50,311
816,42	60,294
816,61	63,522
816,79	26,724
816,97	7,955
817,16	27,811
817,34	60,317
817,52	9,917
817,70	9,901
817,89	51,111
818,07	17,123
818,25	8,163
818,44	8,974
818,62	22,481
818,80	6,015
818,98	50,955
819,17	79,832
819,35	36,170
819,53	60,448
819,72	47,468
819,90	34,884
820,08	5,983
820,26	43,966
820,45	27,517
820,63	75,893
820,81	47,200
820,99	34,752
821,18	9,524
821,36	27,848
821,54	47,586
821,73	37,778
821,91	54,386
822,09	16,129
822,27	57,419
822,46	26,471
822,64	54,400
822,82	25,967
823,00	4,420
823,19	17,033
823,37	56,364
823,55	47,727
823,73	43,448
823,91	57,971
824,10	44,086
824,28	39,196
824,46	26,214
824,64	38,158
824,83	44,720
825,01	15,333
825,19	29,839
825,37	46,957
825,56	24,057
825,74	39,796
825,92	33,758
826,10	50,000
826,28	32,738
826,47	25,263
826,65	43,972
826,83	-24,138
827,01	25,434
827,19	44,048
827,38	58,642
827,56	45,455
827,74	-0,559
827,92	28,488
828,10	23,718
828,29	17,751
828,47	40,244
828,65	23,846
828,83	7,879
829,01	48,370
829,20	28,571
829,38	47,159
829,56	26,087
829,74	25,786
829,92	23,810
830,10	44,828
830,29	12,060
830,47	27,136
830,65	3,049
830,83	29,018
831,01	26,190
831,20	30,583
831,38	30,144
831,56	30,233
831,74	35,071
831,92	32,895
832,10	26,190
832,29	35,811
832,47	-8,989
832,65	30,882
832,83	30,047
833,01	8,000
833,19	28,959
833,37	31,674
833,56	32,068
833,74	30,392
833,92	13,889
834,10	18,257
834,28	33,333
834,46	26,697
834,64	22,685
834,83	24,091
835,01	26,556
835,19	30,000
835,37	18,595
835,55	18,229
835,73	23,645
835,91	31,734
836,09	22,433
836,28	23,985
836,46	18,800
836,64	22,556
836,82	9,502
837,00	28,986
837,18	13,011
837,36	33,466
837,54	16,364
837,72	17,672
837,91	15,672
838,09	23,108
838,27	22,000
838,45	6,738
838,63	11,029
838,81	13,924
838,99	8,468
839,17	26,351
839,35	9,929
839,53	21,404
839,72	24,060
839,90	26,460
840,08	29,231
840,26	16,667
840,44	22,961
840,62	11,034
840,80	17,007
840,98	-0,784
841,16	21,293
841,34	8,696
841,52	28,135
841,70	17,538
841,89	10,484
842,07	19,122
842,25	31,034
842,43	11,638
842,61	12,632
842,79	23,446
842,97	7,818
843,15	13,861
843,33	7,571
843,51	14,759
843,69	31,624
843,87	3,731
844,05	17,933
844,23	30,631
844,41	21,630
844,59	13,833
844,77	7,563
844,95	22,254
845,13	12,308
845,31	3,198
845,50	25,131
845,68	8,360
845,86	12,931
846,04	21,788
846,22	12,534
846,40	13,441
846,58	10,541
846,76	17,473
846,94	15,960
847,12	15,285
847,30	9,536
847,48	5,263
847,66	17,734
847,84	13,934
848,02	11,111
848,20	4,651
848,38	13,960
848,56	26,136
848,74	23,628
848,92	10,723
849,10	13,750
849,28	14,777
849,46	16,000
849,64	13,395
849,82	0,309
850,00	29,206
850,18	15,532
850,36	5,960
850,54	8,521
850,72	19,537
850,90	26,957
851,08	15,755
851,26	15,755
851,44	7,301
851,62	9,767
851,80	13,436
851,98	13,407
852,16	19,149
852,34	11,753
852,52	11,161
852,70	-4,784
852,87	7,763
853,05	8,967
853,23	11,753
853,41	13,605
853,59	13,071
853,77	18,849
853,95	22,363
854,13	-1,106
854,31	16,016
854,49	8,782
854,67	19,438
854,85	16,770
855,03	16,232
855,21	11,368
855,39	7,243
855,57	10,394
855,75	10,766
855,93	7,451
856,11	18,569
856,28	7,380
856,46	10,676
856,64	10,667
856,82	13,230
857,00	14,604
857,18	9,928
857,36	12,816
857,54	8,131
857,72	5,965
857,90	7,380
858,08	8,627
858,26	-0,207
858,44	3,899
858,61	5,923
858,79	9,862
858,97	9,381
859,15	16,563
859,33	12,188
859,51	8,040
859,69	3,041
859,87	12,850
860,05	5,329
860,23	9,578
860,40	7,473
860,58	11,311
860,76	3,016
860,94	7,967
861,12	11,077
861,30	9,733
861,48	8,857
861,66	3,810
861,84	4,933
862,01	12,224
862,19	7,119
862,37	8,623
862,55	7,205
862,73	5,263
862,91	-1,322
863,09	13,839
863,27	4,023
863,44	8,039
863,62	7,337
863,80	10,127
863,98	3,858
864,16	1,590
864,34	9,052
864,52	8,177
864,69	7,749
864,87	5,210
865,05	6,395
865,23	9,935
865,41	7,930
865,59	5,922
865,76	16,559
865,94	14,729
866,12	13,935
866,30	10,238
866,48	12,607
866,66	5,108
866,83	10,814
867,01	9,335
867,19	9,883
867,37	7,633
867,55	10,036
867,73	6,130
867,90	9,820
868,08	7,376
868,26	8,333
868,44	11,841
868,62	11,057
868,79	12,027
868,97	11,083
869,15	3,828
869,33	10,745
869,51	6,272
869,69	13,537
869,86	16,608
870,04	18,506
870,22	21,180
870,40	13,099
870,57	12,803
870,75	15,138
870,93	15,263
871,11	16,775
871,29	17,922
871,46	15,342
871,64	18,201
871,82	19,160
872,00	22,634
872,18	14,557
872,35	19,459
872,53	17,763
872,71	20,204
872,89	21,868
873,06	23,157
873,24	22,308
873,42	20,635
873,60	21,602
873,77	19,939
873,95	19,855
874,13	20,190
874,31	23,529
874,49	25,460
874,66	19,079
874,84	27,081
875,02	27,498
875,20	25,714
875,37	24,264
875,55	22,901
875,73	23,601
875,91	24,442
876,08	29,616
876,26	22,703
876,44	26,499
876,61	28,364
876,79	26,159
876,97	22,719
877,15	26,167
877,32	28,986
877,50	28,063
877,68	27,849
877,86	21,835
878,03	29,777
878,21	27,078
878,39	29,030
878,56	26,942
878,74	28,058
878,92	26,634
879,10	29,285
879,27	30,069
879,45	26,584
879,63	28,494
879,80	28,368
879,98	26,862
880,16	29,476
880,34	32,056
880,51	28,864
880,69	29,613
880,87	29,745
881,04	30,535
881,22	30,164
881,40	27,152
881,57	31,039
881,75	26,454
881,93	30,013
882,10	31,061
882,28	29,241
882,46	30,000
882,63	25,514
882,81	28,646
882,99	27,640
883,16	29,304
883,34	28,476
883,52	30,181
883,69	29,874
883,87	28,971
884,05	28,685
884,22	28,637
884,40	26,630
884,58	24,500
884,75	28,005
884,93	28,771
885,11	26,319
885,28	26,326
885,46	26,199
885,64	24,896
885,81	25,972
885,99	26,394
886,17	26,601
886,34	26,644
886,52	25,408
886,70	27,294
886,87	23,491
887,05	26,655
887,22	24,460
887,40	22,967
887,58	19,722
887,75	22,783
887,93	21,892
888,11	25,515
888,28	20,966
888,46	23,734
888,63	18,843
888,81	21,105
888,99	19,949
889,16	22,656
889,34	18,091
889,51	20,060
889,69	18,448
889,87	20,726
890,04	17,389
890,22	17,747
890,39	17,916
890,57	17,327
890,75	15,054
890,92	14,470
891,10	13,696
891,27	14,988
891,45	17,084
891,63	12,967
891,80	14,102
891,98	14,437
892,15	14,750
892,33	14,398
892,51	15,078
892,68	15,851
892,86	10,214
893,03	11,899
893,21	11,735
893,38	12,840
893,56	10,251
893,74	11,296
893,91	12,479
894,09	12,062
894,26	13,530
894,44	12,760
894,61	12,335
894,79	11,125
894,96	11,519
895,14	12,458
895,32	12,729
895,49	11,163
895,67	12,838
895,84	10,749
896,02	11,598
896,19	12,247
896,37	12,058
896,54	12,701
896,72	11,485
896,89	13,263
897,07	14,982
897,25	16,504
897,42	14,036
897,60	15,098
897,77	16,372
897,95	15,004
898,12	15,886
898,30	15,221
898,47	13,548
898,65	14,644
898,82	14,880
899,00	15,533
899,17	16,194
899,35	15,682
899,52	17,077
899,70	16,253
899,87	15,082
900,05	16,476
900,22	15,962
900,40	15,242
900,57	16,215
900,75	16,474
900,92	18,465
901,10	17,306
901,27	16,284
901,45	17,708
901,62	16,973
901,80	17,463
901,97	17,122
902,15	16,391
902,32	17,140
902,50	16,613
902,67	18,716
902,85	16,684
903,02	18,252
903,20	17,481
903,37	15,480
903,54	16,020
903,72	17,294
903,89	16,854
904,07	17,576
904,24	16,287
904,42	15,739
904,59	15,036
904,77	16,059
904,94	12,466
905,12	14,352
905,29	12,996
905,47	14,186
905,64	12,905
905,81	13,083
905,99	12,356
906,16	11,897
906,34	12,667
906,51	11,157
906,69	11,594
906,86	11,022
907,03	9,855
907,21	9,894
907,38	8,237
907,56	9,070
907,73	8,492
907,91	7,539
908,08	8,693
908,25	9,135
908,43	6,242
908,60	5,858
908,78	5,803
908,95	7,846
909,13	6,506
909,30	6,948
909,47	5,775
909,65	6,318
909,82	5,427
910,00	4,676
910,17	4,602
910,34	5,143
910,52	4,173
910,69	3,407
910,87	4,323
911,04	3,210
911,21	4,724
911,39	3,161
911,56	4,265
911,73	3,726
911,91	4,919
912,08	3,544
912,26	1,963
912,43	4,765
912,60	3,524
912,78	4,643
912,95	2,639
913,13	3,782
913,30	4,626
913,47	4,663
913,65	4,019
913,82	4,840
913,99	3,957
914,17	2,460
914,34	3,187
914,51	5,030
914,69	4,620
914,86	4,907
915,03	3,399
915,21	2,583
915,38	3,585
915,56	3,640
915,73	2,189
915,90	3,761
916,08	4,696
916,25	4,155
916,42	3,635
916,60	5,170
916,77	3,861
916,94	4,143
917,12	3,012
917,29	3,336
917,46	3,213
917,64	3,282
917,81	2,903
917,98	3,111
918,16	3,425
918,33	4,448
918,50	4,116
918,67	3,293
918,85	2,174
919,02	4,144
919,19	2,997
919,37	2,724
919,54	4,791
919,71	4,524
919,89	2,761
920,06	4,431
920,23	3,505
920,41	1,895
920,58	2,755
920,75	3,939
920,92	3,221
921,10	2,926
921,27	3,174
921,44	4,159
921,62	3,651
921,79	3,897
921,96	3,507
922,13	3,979
922,31	2,310
922,48	2,995
922,65	3,428
922,82	3,600
923,00	4,080
923,17	2,664
923,34	4,069
923,52	2,481
923,69	4,102
923,86	5,195
924,03	4,152
924,21	3,095
924,38	4,743
924,55	4,395
924,72	3,566
924,90	3,680
925,07	2,458
925,24	3,513
925,41	3,788
925,59	2,466
925,76	2,447
925,93	3,112
926,10	3,742
926,28	2,723
926,45	2,995
926,62	3,472
926,79	2,733
926,96	3,820
927,14	3,369
927,31	2,803
927,48	2,708
927,65	2,897
927,83	3,199
928,00	2,972
928,17	2,976
928,34	3,579
928,51	2,696
928,69	2,885
928,86	2,230
929,03	2,284
929,20	1,959
929,37	1,936
929,55	2,063
929,72	2,136
929,89	2,597
930,06	2,525
930,23	2,546
930,41	1,790
930,58	2,146
930,75	1,453
930,92	1,992
931,09	2,191
931,27	1,630
931,44	1,268
931,61	1,574
931,78	1,826
931,95	1,204
932,12	2,084
932,30	0,691
932,47	0,908
932,64	1,401
932,81	1,075
932,98	2,130
933,16	1,169
933,33	1,033
933,50	1,364
933,67	1,778
933,84	2,645
934,01	1,289
934,18	1,225
934,36	0,527
934,53	1,911
934,70	0,885
934,87	0,324
935,04	1,476
935,21	1,243
935,38	0,681
935,56	1,104
935,73	0,978
935,90	1,309
936,07	1,296
936,24	1,803
936,41	1,183
936,58	0,138
936,76	1,533
936,93	-0,098
937,10	1,604
937,27	1,757
937,44	1,713
937,61	1,829
937,78	1,233
937,95	0,614
938,13	0,602
938,30	1,584
938,47	0,622
938,64	0,400
938,81	0,636
938,98	0,000
939,15	0,905
939,32	1,221
939,49	0,338
939,66	1,312
939,84	0,989
940,01	0,892
940,18	0,243
940,35	0,390
940,52	0,596
940,69	-0,202
940,86	1,360
941,03	1,134
941,20	1,337
941,37	0,021
941,54	1,763
941,71	1,778
941,89	0,977
942,06	0,356
942,23	1,334
942,40	1,031
942,57	0,379
942,74	0,298
942,91	1,845
943,08	1,389
943,25	1,576
943,42	1,044
943,59	1,360
943,76	1,914
943,93	0,717
944,10	0,315
944,27	0,687
944,44	1,244
944,61	1,518
944,79	2,410
944,96	2,171
945,13	0,796
945,30	1,053
945,47	1,134
945,64	1,771
945,81	1,048
945,98	1,837
946,15	1,893
946,32	1,310
946,49	1,332
946,66	1,988
946,83	1,794
947,00	1,882
947,17	1,087
947,34	0,756
947,51	1,998
947,68	1,427
947,85	2,122
948,02	1,864
948,19	1,594
948,36	1,987
948,53	0,291
948,70	1,627
948,87	1,976
949,04	2,827
949,21	0,763
949,38	1,637
949,55	2,746
949,72	0,846
949,89	2,977
950,06	2,493
950,23	1,043
950,40	1,967
950,57	1,942
950,74	2,028
950,91	1,981
951,08	2,024
951,25	2,682
951,42	1,884
951,59	2,508
951,76	2,069
951,93	1,954
952,10	3,466
952,27	2,155
952,44	4,401
952,61	3,731
952,77	3,055
952,94	3,496
953,11	3,685
953,28	4,282
953,45	5,685
953,62	4,588
953,79	4,938
953,96	5,927
954,13	6,341
954,30	5,084
954,47	6,233
954,64	5,718
954,81	6,607
954,98	5,618
955,15	6,832
955,32	4,469
955,49	9,371
955,65	9,010
955,82	7,886
955,99	10,773
956,16	13,910
956,33	4,646
956,50	9,735
956,67	6,391
956,84	10,177
957,01	8,582
957,18	11,559
957,35	9,736
957,52	9,287
957,68	13,119
957,85	12,351
958,02	10,887
958,19	10,309
958,36	10,919
958,53	9,915
958,70	13,116
958,87	11,477
959,04	11,554
959,21	12,887
959,37	15,158
959,54	13,508
959,71	15,882
959,88	11,744
960,05	14,785
960,22	11,321
960,39	6,784
960,56	12,148
960,72	10,665
960,89	14,228
961,06	9,418
961,23	12,385
961,40	8,957
961,57	13,898
961,74	12,289
961,90	14,949
962,07	8,969
962,24	5,778
962,41	20,862
962,58	12,542
962,75	9,060
962,92	10,877
963,08	7,292
963,25	3,984
963,42	24,498
963,59	14,168
963,76	15,308
963,93	21,181
964,10	13,122
964,26	12,381
964,43	14,186
964,60	12,993
964,77	23,490
964,94	15,802
965,10	8,357
965,27	20,391
965,44	16,190
965,61	3,425
965,78	14,596
965,95	29,104
966,11	16,970
966,28	19,832
966,45	15,686
966,62	6,620
966,79	12,628
966,95	17,438
967,12	21,905
967,29	23,765
967,46	21,708
967,63	25,882
967,79	36,913
967,96	19,725
968,13	34,762
968,30	18,930
968,47	21,538
968,63	33,333
968,80	32,567
968,97	25,434
969,14	33,333
969,31	33,163
969,47	37,500
969,64	26,374
969,81	16,774
969,98	24,737
970,14	3,226
970,31	11,950
970,48	36,913
970,65	6,612
970,81	25,175
970,98	47,396
971,15	38,788
971,32	31,061
971,48	40,476
971,65	33,113
971,82	36,364
971,99	45,570
972,15	-1,163
972,32	52,083
972,49	22,951
972,66	23,967
972,82	56,164
972,99	-12,500
973,16	66,225
973,33	17,037
973,49	54,878
973,66	30,476
973,83	54,321
974,00	58,228
974,16	78,182
974,33	81,333
974,50	90,909
974,67	69,048
974,83	69,388
975,00	136,364
975,17	59,677
975,33	73,563
975,50	103,279
975,67	50,000
975,84	43,902
976,00	82,895
976,17	67,391
976,34	108,235
976,50	36,264
976,67	101,190
976,84	114,583
977,00	82,051
977,17	115,556
977,34	163,462
977,50	83,333
977,67	89,412
977,84	86,441
978,01	93,243
978,17	106,897
978,34	125,926
978,51	96,000
978,67	110,204
978,84	92,727
979,01	60,526
979,17	24,286
979,34	123,913
979,51	90,909
979,67	12,500
979,84	122,034
980,01	75,000
980,17	100,000
980,34	49,315
980,51	466,667
980,67	8,889
980,84	85,714
981,01	214,706
981,17	105,882
981,34	94,286
981,50	107,368
981,67	161,905
981,84	-71,429
982,00	2800,000
982,17	165,625
982,34	151,220
982,50	0,000
982,67	-242,857
982,84	355,000
983,00	116,667
983,17	-142,857
983,33	211,111
983,50	151,220
983,67	72,464
983,83	157,143
984,00	286,957
984,17	977,778
984,33	-385,714
984,50	67,568
984,66	368,750
984,83	662,500
985,00	361,538
985,16	70,968
985,33	2100,000
985,49	68,605
985,66	137,500
985,83	-1366,667
985,99	444,444
986,16	-5,263
986,32	73,973
986,49	-880,000
986,66	1100,000
986,82	248,485
986,99	-60,000
987,15	39,394
987,32	288,235
987,49	225,000
987,65	-43,478
987,82	-110,000
987,98	93,939
988,15	-100,000
988,31	122,857
988,48	107,843
988,65	200,000
988,81	78,182
988,98	248,649
989,14	320,000
989,31	132,203
989,47	-60,714
989,64	244,444
989,80	98,936
989,97	170,909
990,14	321,429
990,30	-225,000
990,47	12,500
990,63	207,895
990,80	666,667
990,96	633,333
991,13	110,000
991,29	145,098
991,46	202,083
991,62	0,000
991,79	-360,000
991,95	535,294
992,12	666,667
992,29	-190,476
992,45	173,810
992,62	-132,143
992,78	-450,000
992,95	138,710
993,11	437,500
993,28	-6900,000
993,44	-217,241
993,61	114,035
993,77	0,000
993,94	187,179
994,10	442,857
994,27	-10,526
994,43	265,625
994,60	450,000
994,76	175,758
994,93	-660,000
995,09	-337,500
995,26	91,667
995,42	325,000
995,59	123,333
995,75	-316,667
995,92	-1014,286
996,08	-980,000
996,25	242,424
996,41	740,000
996,58	260,000
996,74	-520,000
996,91	154,839
997,07	144,000
997,23	74,510
997,40	1116,667
997,56	-1366,667
997,73	352,174
997,89	820,000
998,06	138,596
998,22	114,894
998,39	177,551
998,55	452,632
998,72	-5300,000
998,88	180,000
999,05	360,000
999,21	264,706
999,37	181,395
999,54	125,806
999,70	185,714
999,87	983,333
1000,03	230,000
1000,20	514,286
1000,36	-850,000
1000,52	2700,000
1000,69	264,000
1000,85	-491,667
1001,02	290,476
1001,18	1300,000
1001,35	0,000
1001,51	507,143
1001,67	135,000
1001,84	80,488
1002,00	-590,909
1002,17	450,000
1002,33	-450,000
1002,50	216,667
1002,66	1087,500
1002,82	212,195
1002,99	-290,909
1003,15	-2900,000
1003,32	135,714
1003,48	-966,667
1003,64	186,957
1003,81	-89,474
1003,97	127,536
1004,14	-83,636
1004,30	627,273
1004,46	-6900,000
1004,63	-469,231
1004,79	145,946
1004,95	-360,000
1005,12	-246,154
1005,28	197,222
1005,45	-400,000
1005,61	307,692
1005,77	-728,571
1005,94	154,348
1006,10	-370,000
1006,26	-59,259
1006,43	193,939
1006,59	370,968
1006,76	-88,000
1006,92	347,826
1007,08	92,424
1007,25	136,111
1007,41	163,636
1007,57	-300,000
1007,74	186,957
1007,90	-100,000
1008,06	-146,667
1008,23	-173,684
1008,39	161,111
1008,55	49,412
1008,72	-812,500
1008,88	-197,143
1009,04	-500,000
1009,21	156,250
1009,37	293,548
1009,53	-135,000
1009,70	71,212
1009,86	368,421
1010,02	113,636
1010,19	420,000
1010,35	6700,000
1010,51	228,571
1010,68	327,273
1010,84	260,000
1011,00	571,429
1011,17	2066,667
1011,33	219,231
1011,49	587,500
1011,66	356,250
1011,82	-791,667
1011,98	613,333
1012,14	384,615
1012,31	197,727
1012,47	-485,714
1012,63	4800,000
1012,80	361,111
1012,96	75,000
1013,12	37,037
1013,29	262,500
1013,45	-38,235
1013,61	-860,000
1013,77	-266,667
1013,94	233,333
1014,10	5300,000
1014,26	-47,059
1014,43	202,632
1014,59	0,000
1014,75	260,000
1014,91	180,000
1015,08	315,385
1015,24	186,667
1015,40	360,000
1015,56	470,588
1015,73	187,755
1015,89	333,333
1016,05	213,514
1016,21	200,000
1016,38	210,526
1016,54	-280,000
1016,70	494,737
1016,86	-276,923
1017,03	0,000
1017,19	825,000
1017,35	250,000
1017,51	433,333
1017,68	285,714
1017,84	289,474
1018,00	247,619
1018,16	-325,000
1018,33	272,727
1018,49	264,286
1018,65	-263,636
1018,81	-56,098
1018,97	546,154
1019,14	-657,143
1019,30	304,762
1019,46	94,872
1019,62	2250,000
1019,79	-342,857
1019,95	-1450,000
1020,11	140,000
1020,27	125,000
1020,43	-600,000
1020,60	0,000
1020,76	150,000
1020,92	3800,000
1021,08	-80,000
1021,24	-2950,000
1021,41	169,697
1021,57	-204,167
1021,73	0,000
1021,89	-172,727
1022,05	234,286
1022,21	-330,769
1022,38	326,316
1022,54	700,000
1022,70	270,370
1022,86	-1300,000
1023,02	566,667
1023,19	-280,000
1023,35	137,736
1023,51	235,484
1023,67	78,947
1023,83	472,727
1023,99	171,429
1024,16	16,923
1024,32	450,000
1024,48	187,755
1024,64	140,000
1024,80	408,333
1024,96	192,308
1025,12	2100,000
1025,29	-400,000
1025,45	45,833
1025,61	2233,333
1025,77	85,714
1025,93	-107,692
1026,09	2650,000
1026,26	-685,714
1026,42	-525,000
1026,58	209,615
1026,74	614,286
1026,90	268,421
1027,06	-410,000
1027,22	-450,000
1027,38	611,111
1027,55	-224,000
1027,71	437,500
1027,87	117,500
1028,03	115,152
1028,19	-69,697
1028,35	55,405
1028,51	-33,871
1028,67	-120,000
1028,83	200,000
1029,00	400,000
1029,16	-286,667
1029,32	264,706
1029,48	4300,000
1029,64	1257,143
1029,80	916,667
1029,96	137,255
1030,12	237,500
1030,28	1250,000
1030,44	-2700,000
1030,61	190,625
1030,77	-208,696
1030,93	190,698
1031,09	-185,714
1031,25	-411,111
1031,41	-1250,000
1031,57	68,421
1031,73	254,545
1031,89	-142,424
1032,05	1171,429
1032,21	250,000
1032,37	-108,824
1032,53	-95,000
1032,69	-400,000
1032,86	833,333
1033,02	187,500
1033,18	-323,077
1033,34	-315,385
1033,50	138,710
1033,66	-344,444
1033,82	189,286
1033,98	-270,588
1034,14	377,778
1034,30	-168,182
1034,46	254,167
1034,62	388,889
1034,78	112,698
1034,94	-6,452
1035,10	-190,909
1035,26	-455,556
1035,42	91,429
1035,58	1640,000
1035,74	-76,667
1035,90	-350,000
1036,06	139,623
1036,22	-244,000
1036,38	573,333
1036,54	730,000
1036,70	-2750,000
1036,86	-292,857
1037,02	-1900,000
1037,18	-28,571
1037,34	334,783
1037,50	-393,333
1037,66	-2833,333
1037,82	-152,941
1037,98	261,905
1038,14	-86,207
1038,30	38,462
1038,46	100,000
1038,62	119,355
1038,78	166,667
1038,94	-178,947
1039,10	-129,167
1039,26	-142,105
1039,42	-828,571
1039,58	137,736
1039,74	196,875
1039,90	-38,462
1040,06	417,647
>>>>>End Processed Spectral Data<<<<<
