SpectraSuite Data File
++++++++++++++++++++++++++++++++++++
Date: Thu Feb 02 17:16:34 EET 2017
User: optolab
Dark Spectrum Present: Yes
Reference Spectrum Present: Yes
Number of Sampled Component Spectra: 1
Spectrometers: USB4C02475
Integration Time (usec): 100000 (USB4C02475)
Spectra Averaged: 1 (USB4C02475)
Boxcar Smoothing: 0 (USB4C02475)
Correct for Electrical Dark: No (USB4C02475)
Strobe/Lamp Enabled: No (USB4C02475)
Correct for Detector Non-linearity: No (USB4C02475)
Correct for Stray Light: No (USB4C02475)
Number of Pixels in Processed Spectrum: 3648
>>>>>Begin Processed Spectral Data<<<<<
344,91	-1325,000
345,13	-1325,000
345,35	-1325,000
345,57	35,294
345,79	4,348
346,00	-67,647
346,22	-828,571
346,44	51,515
346,66	127,660
346,87	182,609
347,09	461,538
347,31	6100,000
347,53	375,000
347,74	-118,605
347,96	-742,857
348,18	208,824
348,40	417,647
348,61	-97,436
348,83	4300,000
349,05	53,846
349,27	300,000
349,48	-2950,000
349,70	271,429
349,92	100,000
350,14	16,216
350,35	-315,385
350,57	-227,778
350,79	76,923
351,01	-33,333
351,22	450,000
351,44	291,667
351,66	161,111
351,87	783,333
352,09	76,316
352,31	133,929
352,53	180,000
352,74	-285,714
352,96	115,789
353,18	-34,375
353,40	-275,000
353,61	306,667
353,83	164,583
354,05	206,250
354,26	142,857
354,48	-440,000
354,70	295,238
354,92	127,778
355,13	4,651
355,35	109,259
355,57	157,812
355,78	-150,000
356,00	134,043
356,22	-104,545
356,44	151,163
356,65	264,286
356,87	172,222
357,09	151,429
357,30	-31,818
357,52	-466,667
357,74	174,194
357,95	182,857
358,17	42,029
358,39	84,000
358,60	-2,778
358,82	40,909
359,04	151,282
359,26	102,273
359,47	-176,923
359,69	271,429
359,91	340,000
360,12	285,000
360,34	-8,333
360,56	1600,000
360,77	55,556
360,99	333,333
361,21	-52,174
361,42	-975,000
361,64	-70,370
361,86	120,896
362,07	626,667
362,29	175,000
362,51	145,946
362,72	-460,000
362,94	107,407
363,16	105,714
363,37	600,000
363,59	-5600,000
363,81	550,000
364,02	101,333
364,24	156,818
364,46	228,571
364,67	23,810
364,89	258,824
365,11	213,514
365,32	137,037
365,54	131,250
365,76	34,091
365,97	104,878
366,19	98,246
366,41	200,000
366,62	105,000
366,84	558,333
367,05	96,078
367,27	900,000
367,49	135,897
367,70	355,556
367,92	27,083
368,14	-130,769
368,35	52,941
368,57	39,394
368,79	196,154
369,00	62,821
369,22	111,111
369,43	294,737
369,65	-27,586
369,87	-211,765
370,08	220,000
370,30	257,143
370,51	209,091
370,73	141,667
370,95	195,000
371,16	108,772
371,38	160,377
371,60	-20,000
371,81	86,957
372,03	-1200,000
372,24	-53,125
372,46	2133,333
372,68	170,588
372,89	66,055
373,11	113,953
373,32	73,109
373,54	618,182
373,76	322,222
373,97	257,576
374,19	-100,000
374,40	48,571
374,62	241,176
374,84	275,000
375,05	121,154
375,27	132,432
375,48	93,827
375,70	358,824
375,92	148,214
376,13	284,211
376,35	204,167
376,56	0,000
376,78	55,102
376,99	236,364
377,21	184,375
377,43	60,606
377,64	92,000
377,86	356,250
378,07	13,636
378,29	61,111
378,51	57,143
378,72	-218,182
378,94	52,174
379,15	86,364
379,37	350,000
379,58	36,667
379,80	-20,455
380,01	164,000
380,23	173,913
380,45	152,083
380,66	41,667
380,88	178,378
381,09	321,739
381,31	166,667
381,52	330,435
381,74	162,500
381,95	164,286
382,17	136,000
382,39	69,355
382,60	435,294
382,82	144,828
383,03	733,333
383,25	75,309
383,46	458,333
383,68	200,000
383,89	163,636
384,11	126,027
384,32	73,684
384,54	-414,286
384,76	188,235
384,97	-130,000
385,19	126,316
385,40	231,250
385,62	67,742
385,83	93,617
386,05	757,143
386,26	334,615
386,48	330,769
386,69	130,556
386,91	80,000
387,12	151,282
387,34	108,475
387,55	65,714
387,77	240,000
387,98	173,469
388,20	66,197
388,41	30,159
388,63	120,000
388,84	190,000
389,06	88,372
389,27	50,000
389,49	37,349
389,70	145,763
389,92	127,273
390,13	125,641
390,35	53,125
390,56	125,000
390,78	118,182
390,99	71,111
391,21	57,955
391,42	-15,217
391,64	-80,000
391,85	8,621
392,07	-64,286
392,28	180,769
392,50	400,000
392,71	3000,000
392,93	53,226
393,14	121,739
393,36	76,923
393,57	133,333
393,79	98,413
394,00	89,041
394,22	124,000
394,43	171,429
394,65	-39,286
394,86	125,000
395,08	-312,500
395,29	68,085
395,50	-3100,000
395,72	600,000
395,93	168,000
396,15	-192,857
396,36	-13,333
396,58	-338,095
396,79	93,023
397,01	219,048
397,22	76,812
397,44	187,234
397,65	101,351
397,87	121,429
398,08	111,538
398,29	-83,333
398,51	156,098
398,72	97,826
398,94	69,767
399,15	100,000
399,37	132,609
399,58	65,079
399,80	126,667
400,01	147,059
400,22	150,000
400,44	257,143
400,65	83,562
400,87	-1400,000
401,08	41,573
401,30	120,000
401,51	54,545
401,72	74,194
401,94	134,146
402,15	36,735
402,37	125,000
402,58	216,279
402,80	137,500
403,01	27,778
403,22	71,084
403,44	19,444
403,65	2,041
403,87	65,333
404,08	142,308
404,30	184,375
404,51	98,571
404,72	563,636
404,94	119,277
405,15	116,418
405,37	94,505
405,58	193,548
405,79	371,429
406,01	91,852
406,22	79,762
406,44	114,035
406,65	83,333
406,86	113,000
407,08	90,123
407,29	106,667
407,51	70,192
407,72	89,109
407,93	100,000
408,15	104,545
408,36	168,571
408,58	125,000
408,79	82,171
409,00	81,560
409,22	97,059
409,43	80,180
409,64	76,923
409,86	95,455
410,07	76,522
410,29	101,333
410,50	98,413
410,71	92,742
410,93	106,931
411,14	132,710
411,35	95,833
411,57	85,417
411,78	104,412
412,00	85,333
412,21	97,345
412,42	84,390
412,64	125,000
412,85	86,528
413,06	101,786
413,28	98,431
413,49	103,721
413,70	96,137
413,92	93,333
414,13	88,538
414,34	94,796
414,56	108,085
414,77	94,096
414,98	98,233
415,20	108,244
415,41	90,260
415,63	95,726
415,84	91,136
416,05	100,301
416,27	91,365
416,48	92,654
416,69	98,837
416,91	103,467
417,12	85,973
417,33	93,454
417,55	93,600
417,76	104,651
417,97	91,199
418,19	95,397
418,40	100,853
418,61	91,081
418,83	88,556
419,04	95,349
419,25	87,081
419,46	98,716
419,68	87,463
419,89	94,862
420,10	92,876
420,32	99,603
420,53	91,289
420,74	96,894
420,96	92,654
421,17	103,877
421,38	99,223
421,60	96,141
421,81	87,087
422,02	94,504
422,23	101,142
422,45	99,043
422,66	94,649
422,87	94,911
423,09	98,712
423,30	92,345
423,51	89,963
423,73	95,372
423,94	96,895
424,15	96,853
424,36	96,601
424,58	99,798
424,79	102,993
425,00	94,355
425,22	94,059
425,43	103,196
425,64	101,936
425,85	100,169
426,07	96,423
426,28	98,772
426,49	95,320
426,71	91,790
426,92	93,781
427,13	95,989
427,34	99,104
427,56	98,561
427,77	95,031
427,98	95,875
428,19	96,045
428,41	101,122
428,62	93,618
428,83	95,447
429,04	95,342
429,26	94,061
429,47	97,447
429,68	93,966
429,89	94,833
430,11	96,586
430,32	96,250
430,53	97,084
430,74	97,259
430,96	96,375
431,17	100,134
431,38	99,151
431,59	97,853
431,81	94,762
432,02	96,961
432,23	97,094
432,44	97,242
432,66	95,744
432,87	95,836
433,08	98,094
433,29	97,121
433,51	96,292
433,72	96,862
433,93	98,745
434,14	95,408
434,35	96,608
434,57	95,951
434,78	96,328
434,99	93,220
435,20	95,063
435,42	96,075
435,63	95,142
435,84	95,902
436,05	92,549
436,26	92,028
436,48	93,710
436,69	90,741
436,90	89,154
437,11	87,200
437,32	86,107
437,54	86,683
437,75	86,389
437,96	86,986
438,17	88,384
438,38	89,409
438,60	90,180
438,81	90,474
439,02	90,236
439,23	90,547
439,44	87,922
439,66	88,236
439,87	86,555
440,08	83,756
440,29	81,923
440,50	76,559
440,72	66,152
440,93	51,523
441,14	36,475
441,35	22,827
441,56	13,693
441,77	7,683
441,99	4,170
442,20	2,375
442,41	1,267
442,62	1,051
442,83	0,990
443,04	0,680
443,26	0,625
443,47	0,784
443,68	0,609
443,89	0,438
444,10	0,478
444,31	0,849
444,53	0,707
444,74	0,470
444,95	0,575
445,16	0,347
445,37	0,320
445,58	0,192
445,80	0,088
446,01	0,589
446,22	0,475
446,43	0,462
446,64	0,067
446,85	0,085
447,06	0,457
447,28	-0,030
447,49	0,171
447,70	0,634
447,91	0,835
448,12	0,299
448,33	0,204
448,54	0,305
448,76	0,363
448,97	0,325
449,18	0,406
449,39	0,545
449,60	0,139
449,81	0,601
450,02	0,492
450,23	0,606
450,45	0,449
450,66	0,221
450,87	0,262
451,08	0,144
451,29	0,407
451,50	0,490
451,71	0,438
451,92	0,464
452,13	0,454
452,35	0,449
452,56	0,082
452,77	0,504
452,98	0,413
453,19	0,471
453,40	0,651
453,61	0,510
453,82	0,503
454,03	0,516
454,25	0,168
454,46	0,376
454,67	0,460
454,88	0,363
455,09	0,708
455,30	0,387
455,51	0,439
455,72	0,365
455,93	0,494
456,14	0,695
456,35	0,294
456,56	0,289
456,78	0,600
456,99	0,509
457,20	0,323
457,41	0,356
457,62	0,396
457,83	0,466
458,04	0,482
458,25	0,121
458,46	0,439
458,67	0,511
458,88	0,416
459,09	0,329
459,30	0,467
459,51	0,265
459,73	0,028
459,94	0,494
460,15	0,335
460,36	0,224
460,57	0,440
460,78	0,353
460,99	0,345
461,20	0,268
461,41	0,467
461,62	0,374
461,83	0,125
462,04	0,282
462,25	0,354
462,46	0,536
462,67	0,155
462,88	0,184
463,09	0,307
463,30	0,360
463,51	0,249
463,72	0,563
463,93	0,347
464,15	0,422
464,36	0,250
464,57	0,243
464,78	0,343
464,99	0,294
465,20	0,333
465,41	0,105
465,62	0,326
465,83	0,313
466,04	0,170
466,25	0,266
466,46	0,328
466,67	0,188
466,88	0,299
467,09	0,143
467,30	0,357
467,51	0,390
467,72	0,308
467,93	0,310
468,14	0,229
468,35	0,455
468,56	0,294
468,77	0,305
468,98	0,348
469,19	0,286
469,40	0,445
469,61	0,278
469,82	0,238
470,03	0,165
470,24	0,244
470,45	0,498
470,66	0,719
470,87	0,333
471,08	0,401
471,29	0,328
471,50	0,406
471,71	0,235
471,92	0,377
472,13	0,307
472,34	0,342
472,55	0,439
472,76	0,616
472,97	0,323
473,18	0,224
473,39	0,216
473,60	0,125
473,81	0,265
474,01	0,439
474,22	0,346
474,43	0,274
474,64	0,469
474,85	0,328
475,06	0,379
475,27	0,378
475,48	0,387
475,69	0,681
475,90	0,393
476,11	0,397
476,32	0,273
476,53	0,535
476,74	0,410
476,95	0,549
477,16	0,586
477,37	0,512
477,58	0,235
477,79	0,487
478,00	0,414
478,21	0,588
478,41	0,546
478,62	0,569
478,83	0,366
479,04	0,526
479,25	0,407
479,46	0,573
479,67	0,264
479,88	0,329
480,09	0,473
480,30	0,307
480,51	0,546
480,72	0,520
480,93	0,524
481,14	0,336
481,34	0,709
481,55	0,415
481,76	0,652
481,97	0,501
482,18	0,317
482,39	0,418
482,60	0,549
482,81	0,242
483,02	0,300
483,23	0,569
483,44	0,473
483,65	0,434
483,85	0,371
484,06	0,582
484,27	0,424
484,48	0,504
484,69	0,522
484,90	0,463
485,11	0,674
485,32	0,683
485,53	0,500
485,73	0,698
485,94	0,573
486,15	0,965
486,36	0,756
486,57	0,880
486,78	1,011
486,99	0,911
487,20	0,805
487,41	0,766
487,61	0,865
487,82	0,963
488,03	0,922
488,24	0,945
488,45	1,117
488,66	0,941
488,87	0,955
489,08	1,131
489,28	1,430
489,49	1,672
489,70	2,283
489,91	4,282
490,12	6,746
490,33	11,127
490,54	17,963
490,74	27,688
490,95	39,926
491,16	53,824
491,37	65,463
491,58	75,487
491,79	81,974
492,00	85,489
492,20	89,506
492,41	89,961
492,62	90,292
492,83	90,694
493,04	91,625
493,25	90,647
493,45	90,079
493,66	90,652
493,87	90,763
494,08	90,665
494,29	92,535
494,50	93,606
494,70	93,483
494,91	95,324
495,12	96,270
495,33	96,341
495,54	96,042
495,75	96,436
495,95	96,076
496,16	95,714
496,37	95,339
496,58	96,324
496,79	95,788
496,99	95,977
497,20	95,806
497,41	95,758
497,62	95,368
497,83	95,302
498,04	94,578
498,24	96,612
498,45	95,672
498,66	96,642
498,87	98,200
499,08	96,527
499,28	96,880
499,49	97,449
499,70	96,584
499,91	97,111
500,12	96,275
500,32	96,194
500,53	96,538
500,74	96,482
500,95	96,472
501,15	95,334
501,36	95,353
501,57	94,536
501,78	93,875
501,99	94,389
502,19	93,831
502,40	94,013
502,61	93,400
502,82	92,690
503,02	92,773
503,23	92,868
503,44	92,379
503,65	92,863
503,86	92,739
504,06	92,832
504,27	93,566
504,48	92,898
504,69	94,893
504,89	94,880
505,10	96,156
505,31	95,962
505,52	97,113
505,72	98,558
505,93	97,989
506,14	97,590
506,35	99,587
506,55	98,842
506,76	98,424
506,97	97,535
507,18	97,010
507,38	97,581
507,59	98,256
507,80	97,375
508,01	96,604
508,21	95,971
508,42	95,933
508,63	94,562
508,84	94,833
509,04	93,329
509,25	92,613
509,46	91,823
509,67	90,474
509,87	90,668
510,08	89,380
510,29	88,838
510,49	88,637
510,70	88,978
510,91	89,924
511,12	89,966
511,32	90,420
511,53	91,123
511,74	91,938
511,94	91,706
512,15	91,835
512,36	93,343
512,57	91,700
512,77	91,759
512,98	90,714
513,19	90,840
513,39	90,196
513,60	90,898
513,81	90,337
514,01	87,830
514,22	84,958
514,43	81,085
514,64	72,796
514,84	61,093
515,05	48,156
515,26	35,293
515,46	23,164
515,67	14,708
515,88	9,354
516,08	5,960
516,29	3,597
516,50	2,319
516,70	1,763
516,91	1,131
517,12	1,179
517,32	0,591
517,53	0,476
517,74	0,719
517,95	0,907
518,15	0,697
518,36	0,617
518,57	0,507
518,77	0,456
518,98	0,463
519,19	0,444
519,39	0,589
519,60	0,522
519,80	0,400
520,01	0,553
520,22	0,618
520,42	0,465
520,63	0,358
520,84	0,442
521,04	0,353
521,25	0,526
521,46	0,271
521,66	0,384
521,87	0,289
522,08	0,335
522,28	0,540
522,49	0,458
522,70	0,425
522,90	0,303
523,11	0,392
523,31	0,361
523,52	0,342
523,73	0,305
523,93	0,527
524,14	0,377
524,35	0,405
524,55	0,440
524,76	0,420
524,97	0,313
525,17	0,374
525,38	0,275
525,58	0,131
525,79	0,409
526,00	0,291
526,20	0,480
526,41	0,374
526,61	0,352
526,82	0,231
527,03	0,430
527,23	0,350
527,44	0,219
527,64	0,512
527,85	0,284
528,06	0,397
528,26	0,381
528,47	0,387
528,68	0,414
528,88	0,099
529,09	0,396
529,29	0,427
529,50	0,325
529,70	0,439
529,91	0,219
530,12	0,414
530,32	0,258
530,53	0,426
530,73	0,252
530,94	0,384
531,15	0,326
531,35	0,377
531,56	0,499
531,76	0,281
531,97	0,316
532,17	0,295
532,38	0,383
532,59	0,395
532,79	0,289
533,00	0,427
533,20	0,306
533,41	0,431
533,61	0,338
533,82	0,094
534,03	0,314
534,23	0,353
534,44	0,491
534,64	0,399
534,85	0,388
535,05	0,151
535,26	0,246
535,46	0,364
535,67	0,334
535,88	0,219
536,08	0,522
536,29	0,453
536,49	0,198
536,70	0,471
536,90	0,313
537,11	0,443
537,31	0,375
537,52	0,357
537,72	0,325
537,93	0,393
538,13	0,191
538,34	0,257
538,55	0,366
538,75	0,162
538,96	0,240
539,16	0,126
539,37	0,289
539,57	0,406
539,78	0,203
539,98	0,315
540,19	0,465
540,39	0,275
540,60	0,334
540,80	0,358
541,01	0,546
541,21	0,423
541,42	0,356
541,62	0,463
541,83	0,310
542,03	0,377
542,24	0,330
542,44	0,375
542,65	0,196
542,85	0,467
543,06	0,457
543,26	0,404
543,47	0,436
543,67	0,351
543,88	0,335
544,08	0,216
544,29	0,629
544,49	0,305
544,70	0,190
544,90	0,553
545,11	0,360
545,31	0,268
545,52	0,384
545,72	0,278
545,93	0,295
546,13	0,390
546,34	0,421
546,54	0,367
546,75	0,428
546,95	0,446
547,15	0,349
547,36	0,458
547,56	0,466
547,77	0,321
547,97	0,190
548,18	0,176
548,38	0,413
548,59	0,357
548,79	0,683
549,00	0,321
549,20	0,163
549,41	0,369
549,61	0,253
549,81	0,530
550,02	0,258
550,22	0,407
550,43	0,358
550,63	0,493
550,84	0,556
551,04	0,390
551,25	0,416
551,45	0,608
551,65	0,351
551,86	0,260
552,06	0,410
552,27	0,337
552,47	0,427
552,68	0,480
552,88	0,591
553,08	0,296
553,29	0,510
553,49	0,426
553,70	0,511
553,90	0,554
554,11	0,486
554,31	0,348
554,51	0,625
554,72	0,609
554,92	0,447
555,13	0,529
555,33	0,409
555,53	0,456
555,74	0,502
555,94	0,643
556,15	0,710
556,35	0,565
556,56	0,600
556,76	0,702
556,96	0,930
557,17	0,824
557,37	0,948
557,58	0,700
557,78	0,889
557,98	0,733
558,19	0,952
558,39	1,007
558,59	0,961
558,80	1,293
559,00	1,337
559,21	2,038
559,41	2,565
559,61	4,087
559,82	6,704
560,02	10,337
560,23	16,368
560,43	24,861
560,63	34,900
560,84	47,838
561,04	61,482
561,24	72,555
561,45	81,499
561,65	86,263
561,85	91,043
562,06	92,506
562,26	92,983
562,47	95,488
562,67	95,055
562,87	96,509
563,08	96,744
563,28	98,020
563,48	98,224
563,69	97,424
563,89	99,394
564,09	98,911
564,30	98,386
564,50	97,747
564,70	99,002
564,91	98,737
565,11	97,140
565,31	98,268
565,52	98,950
565,72	97,570
565,92	98,868
566,13	98,577
566,33	97,944
566,53	98,440
566,74	97,127
566,94	97,667
567,14	96,866
567,35	95,758
567,55	95,875
567,75	93,786
567,96	93,119
568,16	94,284
568,36	93,039
568,57	92,600
568,77	92,448
568,97	92,490
569,18	91,950
569,38	92,558
569,58	93,108
569,79	94,048
569,99	93,583
570,19	94,631
570,39	94,845
570,60	95,061
570,80	96,293
571,00	96,808
571,21	97,039
571,41	96,508
571,61	96,181
571,82	95,525
572,02	96,601
572,22	95,591
572,42	96,306
572,63	95,817
572,83	94,563
573,03	95,620
573,24	95,117
573,44	95,432
573,64	94,900
573,84	95,162
574,05	93,839
574,25	93,826
574,45	92,838
574,66	93,875
574,86	93,986
575,06	93,377
575,26	94,441
575,47	93,319
575,67	94,511
575,87	93,805
576,07	94,100
576,28	93,827
576,48	93,865
576,68	94,641
576,88	94,761
577,09	92,831
577,29	93,832
577,49	93,477
577,69	92,874
577,90	94,739
578,10	92,733
578,30	93,139
578,50	90,703
578,71	91,723
578,91	92,885
579,11	92,189
579,31	92,532
579,52	94,240
579,72	93,398
579,92	94,227
580,12	93,592
580,33	94,733
580,53	93,566
580,73	94,874
580,93	94,224
581,13	94,382
581,34	91,355
581,54	90,815
581,74	87,468
581,94	82,574
582,15	77,256
582,35	69,265
582,55	58,685
582,75	46,609
582,95	35,705
583,16	24,938
583,36	16,633
583,56	11,156
583,76	7,086
583,96	4,894
584,17	3,293
584,37	2,144
584,57	1,632
584,77	1,231
584,97	0,800
585,18	0,781
585,38	0,546
585,58	0,570
585,78	0,647
585,98	0,526
586,19	0,522
586,39	0,433
586,59	0,472
586,79	0,531
586,99	0,304
587,20	0,314
587,40	0,476
587,60	0,166
587,80	0,354
588,00	0,359
588,20	0,365
588,41	0,428
588,61	0,607
588,81	0,274
589,01	0,387
589,21	0,384
589,41	0,203
589,62	0,329
589,82	0,256
590,02	0,412
590,22	0,362
590,42	0,332
590,62	0,429
590,83	0,208
591,03	0,138
591,23	0,400
591,43	0,401
591,63	0,339
591,83	0,243
592,03	0,365
592,24	0,402
592,44	0,135
592,64	0,339
592,84	0,433
593,04	0,137
593,24	0,279
593,44	0,236
593,65	0,307
593,85	0,343
594,05	0,270
594,25	0,193
594,45	0,234
594,65	0,328
594,85	0,144
595,06	0,124
595,26	0,263
595,46	0,214
595,66	0,151
595,86	0,093
596,06	0,173
596,26	0,221
596,46	0,381
596,66	0,214
596,87	0,311
597,07	0,228
597,27	0,232
597,47	0,285
597,67	0,109
597,87	0,177
598,07	0,384
598,27	0,363
598,47	0,459
598,67	0,227
598,88	0,363
599,08	0,218
599,28	0,229
599,48	0,015
599,68	0,473
599,88	0,352
600,08	0,263
600,28	0,159
600,48	0,237
600,68	0,243
600,88	0,310
601,09	0,255
601,29	0,247
601,49	0,109
601,69	0,252
601,89	0,324
602,09	0,238
602,29	0,196
602,49	0,148
602,69	0,217
602,89	0,248
603,09	0,291
603,29	0,292
603,49	0,265
603,69	0,271
603,90	0,127
604,10	0,201
604,30	0,298
604,50	0,091
604,70	0,200
604,90	0,057
605,10	0,255
605,30	0,088
605,50	0,222
605,70	0,325
605,90	0,073
606,10	0,173
606,30	0,101
606,50	0,445
606,70	0,239
606,90	0,116
607,10	0,185
607,30	0,244
607,50	0,255
607,70	0,323
607,90	0,211
608,10	0,387
608,30	0,197
608,50	0,208
608,70	0,402
608,90	0,175
609,11	0,113
609,31	0,163
609,51	0,127
609,71	0,063
609,91	0,132
610,11	0,363
610,31	0,179
610,51	0,249
610,71	0,223
610,91	0,317
611,11	0,141
611,31	0,305
611,51	0,066
611,71	0,051
611,91	0,442
612,11	0,114
612,31	0,301
612,51	0,106
612,71	0,092
612,91	0,142
613,11	0,139
613,31	0,265
613,51	0,135
613,71	-0,068
613,91	0,274
614,11	0,275
614,31	0,063
614,50	0,319
614,70	0,138
614,90	0,279
615,10	0,193
615,30	0,151
615,50	-0,004
615,70	0,385
615,90	0,128
616,10	0,088
616,30	0,270
616,50	0,129
616,70	0,128
616,90	0,134
617,10	0,131
617,30	0,123
617,50	0,408
617,70	0,120
617,90	0,012
618,10	0,178
618,30	0,139
618,50	0,289
618,70	0,087
618,90	0,147
619,10	0,039
619,30	-0,060
619,49	0,158
619,69	0,024
619,89	0,261
620,09	0,187
620,29	0,249
620,49	0,266
620,69	0,079
620,89	0,167
621,09	0,094
621,29	0,232
621,49	0,145
621,69	0,023
621,89	0,229
622,09	0,086
622,29	0,113
622,48	0,364
622,68	0,141
622,88	0,156
623,08	0,155
623,28	0,202
623,48	0,183
623,68	0,000
623,88	-0,019
624,08	0,035
624,28	0,193
624,48	0,424
624,67	0,225
624,87	0,130
625,07	0,242
625,27	0,038
625,47	0,250
625,67	0,319
625,87	-0,073
626,07	0,168
626,27	0,133
626,47	0,325
626,66	0,278
626,86	0,245
627,06	0,127
627,26	0,090
627,46	0,041
627,66	0,196
627,86	0,161
628,06	0,251
628,25	0,211
628,45	0,145
628,65	0,235
628,85	0,205
629,05	0,243
629,25	0,059
629,45	0,180
629,65	0,067
629,84	0,015
630,04	0,213
630,24	0,196
630,44	0,128
630,64	0,307
630,84	0,126
631,04	0,217
631,23	0,031
631,43	0,092
631,63	0,147
631,83	0,165
632,03	0,246
632,23	0,273
632,42	0,204
632,62	0,229
632,82	0,170
633,02	0,244
633,22	0,148
633,42	0,111
633,62	0,161
633,81	-0,026
634,01	0,308
634,21	0,125
634,41	0,259
634,61	0,041
634,80	0,367
635,00	0,326
635,20	0,159
635,40	0,087
635,60	0,162
635,80	0,344
635,99	0,478
636,19	0,196
636,39	0,040
636,59	0,200
636,79	0,129
636,98	0,334
637,18	0,227
637,38	0,122
637,58	0,129
637,78	0,216
637,97	0,061
638,17	0,288
638,37	0,305
638,57	0,079
638,77	0,182
638,96	-0,011
639,16	0,490
639,36	0,224
639,56	0,221
639,76	0,147
639,95	0,331
640,15	0,167
640,35	0,097
640,55	0,339
640,75	0,360
640,94	0,200
641,14	0,450
641,34	0,173
641,54	0,120
641,73	0,075
641,93	0,424
642,13	0,355
642,33	0,124
642,53	0,350
642,72	0,169
642,92	0,215
643,12	0,146
643,32	0,218
643,51	0,280
643,71	0,013
643,91	0,156
644,11	0,260
644,30	0,185
644,50	0,216
644,70	0,467
644,90	0,366
645,09	0,340
645,29	0,340
645,49	0,128
645,69	0,352
645,88	0,454
646,08	0,029
646,28	0,336
646,48	0,199
646,67	0,299
646,87	0,229
647,07	0,224
647,26	0,485
647,46	0,295
647,66	0,205
647,86	0,386
648,05	0,546
648,25	0,755
648,45	0,062
648,65	0,023
648,84	0,069
649,04	0,633
649,24	0,470
649,43	0,134
649,63	0,264
649,83	0,102
650,03	0,393
650,22	0,424
650,42	0,302
650,62	0,443
650,81	0,314
651,01	0,208
651,21	0,246
651,40	0,331
651,60	0,243
651,80	0,310
652,00	0,366
652,19	0,164
652,39	0,179
652,59	0,477
652,78	0,205
652,98	-0,207
653,18	-0,059
653,37	0,669
653,57	0,409
653,77	0,552
653,96	0,390
654,16	0,387
654,36	0,415
654,55	0,076
654,75	0,535
654,95	0,358
655,14	0,259
655,34	0,572
655,54	0,749
655,73	0,156
655,93	0,288
656,13	0,382
656,32	-0,387
656,52	0,177
656,72	0,313
656,91	0,573
657,11	0,319
657,31	0,122
657,50	0,388
657,70	0,312
657,90	0,504
658,09	0,408
658,29	0,320
658,49	0,436
658,68	0,400
658,88	0,331
659,07	0,349
659,27	0,052
659,47	0,139
659,66	0,026
659,86	0,017
660,06	0,156
660,25	-0,177
660,45	0,486
660,64	0,149
660,84	0,392
661,04	0,219
661,23	0,301
661,43	0,263
661,63	0,516
661,82	-0,156
662,02	0,495
662,21	0,087
662,41	0,682
662,61	0,589
662,80	0,316
663,00	-0,017
663,19	0,384
663,39	-0,026
663,59	0,775
663,78	0,421
663,98	0,487
664,17	0,111
664,37	0,482
664,57	0,231
664,76	0,297
664,96	0,341
665,15	-0,060
665,35	0,347
665,55	-0,103
665,74	0,396
665,94	0,430
666,13	0,075
666,33	0,397
666,53	0,585
666,72	0,312
666,92	0,421
667,11	0,274
667,31	0,297
667,50	0,157
667,70	0,641
667,90	0,163
668,09	0,000
668,29	0,376
668,48	0,016
668,68	0,138
668,87	0,185
669,07	0,240
669,26	0,208
669,46	0,440
669,66	0,301
669,85	0,174
670,05	0,118
670,24	0,168
670,44	0,323
670,63	-0,117
670,83	0,109
671,02	0,164
671,22	0,287
671,42	0,031
671,61	0,338
671,81	0,546
672,00	0,371
672,20	-0,235
672,39	0,240
672,59	0,165
672,78	-0,008
672,98	0,361
673,17	0,185
673,37	0,075
673,56	0,290
673,76	-0,131
673,95	0,306
674,15	0,397
674,34	0,043
674,54	0,521
674,73	0,206
674,93	0,390
675,13	0,349
675,32	0,091
675,52	0,315
675,71	0,350
675,91	0,225
676,10	0,247
676,30	0,275
676,49	0,068
676,69	0,361
676,88	0,053
677,08	0,026
677,27	0,098
677,47	0,202
677,66	0,459
677,86	0,544
678,05	0,236
678,24	-0,025
678,44	0,525
678,63	0,044
678,83	0,211
679,02	0,338
679,22	0,401
679,41	0,244
679,61	0,103
679,80	0,402
680,00	0,059
680,19	0,117
680,39	0,075
680,58	0,238
680,78	0,195
680,97	-0,074
681,17	0,442
681,36	0,204
681,56	0,241
681,75	0,101
681,94	0,132
682,14	0,323
682,33	0,249
682,53	0,168
682,72	0,027
682,92	0,256
683,11	0,295
683,31	0,289
683,50	0,157
683,69	0,129
683,89	0,206
684,08	0,127
684,28	-0,031
684,47	0,201
684,67	0,168
684,86	0,084
685,06	0,173
685,25	0,250
685,44	0,053
685,64	0,185
685,83	0,123
686,03	0,000
686,22	0,102
686,42	0,079
686,61	0,005
686,80	-0,077
687,00	-0,009
687,19	0,182
687,39	0,320
687,58	0,278
687,77	0,309
687,97	0,156
688,16	0,174
688,36	0,004
688,55	0,000
688,74	0,000
688,94	0,124
689,13	-0,084
689,33	0,125
689,52	0,185
689,71	0,186
689,91	-0,101
690,10	0,151
690,30	-0,064
690,49	0,123
690,68	0,111
690,88	-0,040
691,07	0,075
691,27	0,145
691,46	0,300
691,65	-0,016
691,85	0,090
692,04	0,036
692,23	-0,067
692,43	0,242
692,62	0,128
692,82	0,172
693,01	0,275
693,20	0,189
693,40	-0,056
693,59	0,053
693,78	0,185
693,98	0,033
694,17	-0,037
694,36	0,373
694,56	0,013
694,75	0,166
694,94	-0,102
695,14	0,083
695,33	0,198
695,53	0,221
695,72	0,361
695,91	-0,311
696,11	0,198
696,30	0,202
696,49	0,225
696,69	-0,041
696,88	0,091
697,07	0,270
697,27	0,292
697,46	0,214
697,65	0,062
697,85	-0,029
698,04	0,242
698,23	0,006
698,43	0,150
698,62	-0,238
698,81	0,079
699,01	0,164
699,20	0,330
699,39	0,454
699,58	0,345
699,78	0,115
699,97	0,008
700,16	0,000
700,36	0,526
700,55	0,095
700,74	0,403
700,94	0,027
701,13	0,142
701,32	-0,330
701,52	0,289
701,71	0,440
701,90	0,235
702,09	0,607
702,29	0,639
702,48	-0,068
702,67	0,286
702,87	0,702
703,06	0,538
703,25	0,805
703,44	0,376
703,64	0,124
703,83	0,487
704,02	0,533
704,22	0,162
704,41	0,139
704,60	1,168
704,79	0,689
704,99	0,629
705,18	0,864
705,37	0,569
705,56	0,833
705,76	0,921
705,95	1,103
706,14	0,890
706,33	0,316
706,53	0,304
706,72	0,251
706,91	0,904
707,11	-0,301
707,30	0,561
707,49	1,026
707,68	1,068
707,88	0,849
708,07	-1,146
708,26	0,472
708,45	-0,260
708,64	1,402
708,84	-0,377
709,03	1,379
709,22	0,028
709,41	0,447
709,61	0,609
709,80	1,365
709,99	1,232
710,18	1,665
710,38	0,346
710,57	0,127
710,76	-0,787
710,95	1,048
711,14	0,563
711,34	0,688
711,53	2,275
711,72	2,784
711,91	1,255
712,11	1,733
712,30	-0,154
712,49	1,263
712,68	0,831
712,87	1,592
713,07	2,690
713,26	1,624
713,45	-0,541
713,64	0,087
713,83	0,132
714,03	0,716
714,22	2,398
714,41	1,723
714,60	0,522
714,79	-0,720
714,99	2,700
715,18	1,659
715,37	2,580
715,56	2,197
715,75	2,051
715,94	3,396
716,14	3,588
716,33	0,468
716,52	3,826
716,71	2,763
716,90	2,164
717,10	-0,724
717,29	2,082
717,48	0,278
717,67	2,200
717,86	1,499
718,05	3,337
718,24	-0,357
718,44	2,305
718,63	-0,304
718,82	1,312
719,01	0,996
719,20	1,079
719,39	3,399
719,59	-1,042
719,78	2,605
719,97	2,075
720,16	2,352
720,35	0,826
720,54	2,027
720,73	4,642
720,93	0,723
721,12	-1,293
721,31	2,770
721,50	3,636
721,69	2,007
721,88	0,845
722,07	-0,375
722,27	4,528
722,46	0,900
722,65	0,635
722,84	1,048
723,03	2,853
723,22	2,981
723,41	0,415
723,60	-0,082
723,79	6,601
723,99	3,269
724,18	4,396
724,37	0,727
724,56	0,085
724,75	2,000
724,94	7,095
725,13	1,545
725,32	5,761
725,51	1,395
725,71	3,283
725,90	4,159
726,09	4,292
726,28	2,002
726,47	-0,099
726,66	4,422
726,85	2,654
727,04	0,102
727,23	1,910
727,42	3,193
727,61	4,321
727,81	-2,919
728,00	2,183
728,19	2,492
728,38	0,983
728,57	3,542
728,76	1,073
728,95	4,896
729,14	4,545
729,33	2,903
729,52	0,337
729,71	0,651
729,90	2,308
730,09	2,225
730,28	2,449
730,48	1,580
730,67	3,125
730,86	7,801
731,05	-1,634
731,24	-0,122
731,43	4,297
731,62	5,155
731,81	-1,135
732,00	9,940
732,19	0,841
732,38	1,026
732,57	7,213
732,76	-0,410
732,95	3,218
733,14	-2,726
733,33	1,190
733,52	10,112
733,71	-1,578
733,90	0,141
734,09	2,838
734,28	1,181
734,47	4,861
734,66	4,947
734,85	0,000
735,04	-1,141
735,23	6,863
735,42	12,705
735,61	4,956
735,81	1,479
736,00	1,425
736,19	2,432
736,38	6,437
736,57	9,053
736,76	5,839
736,95	8,439
737,14	5,263
737,33	7,779
737,52	3,538
737,71	3,443
737,90	8,037
738,09	5,023
738,28	9,567
738,47	-2,920
738,66	4,327
738,85	6,006
739,04	-2,401
739,22	7,525
739,41	0,735
739,60	9,044
739,79	-5,036
739,98	-2,509
740,17	6,485
740,36	5,425
740,55	9,236
740,74	14,923
740,93	-2,103
741,12	4,643
741,31	-2,993
741,50	3,970
741,69	6,372
741,88	0,988
742,07	11,051
742,26	0,190
742,45	12,910
742,64	0,183
742,83	12,389
743,02	1,263
743,21	9,747
743,40	0,000
743,59	10,294
743,78	6,654
743,97	7,115
744,16	7,480
744,34	-3,730
744,53	3,711
744,72	7,724
744,91	-1,050
745,10	5,031
745,29	3,629
745,48	3,864
745,67	3,645
745,86	7,947
746,05	5,450
746,24	7,216
746,43	7,495
746,62	9,267
746,81	12,360
747,00	11,597
747,18	6,754
747,37	14,526
747,56	11,529
747,75	5,665
747,94	2,427
748,13	11,409
748,32	13,095
748,51	12,690
748,70	11,674
748,89	9,368
749,08	0,581
749,26	12,775
749,45	2,681
749,64	-1,259
749,83	8,989
750,02	18,750
750,21	10,687
750,40	18,016
750,59	5,630
750,78	7,481
750,96	1,657
751,15	7,944
751,34	1,705
751,53	0,820
751,72	10,141
751,91	11,917
752,10	-8,639
752,29	6,400
752,47	9,742
752,66	7,619
752,85	13,388
753,04	-0,838
753,23	14,861
753,42	7,008
753,61	6,583
753,80	2,062
753,98	16,414
754,17	3,647
754,36	12,581
754,55	9,036
754,74	3,247
754,93	23,691
755,12	3,858
755,30	8,442
755,49	5,523
755,68	15,031
755,87	11,538
756,06	10,069
756,25	12,462
756,43	1,678
756,62	14,596
756,81	7,947
757,00	13,816
757,19	6,597
757,38	2,703
757,56	-3,600
757,75	15,358
757,94	-6,844
758,13	-0,342
758,32	15,134
758,51	7,744
758,69	6,564
758,88	15,825
759,07	17,365
759,26	10,601
759,45	6,316
759,63	9,091
759,82	16,842
760,01	8,425
760,20	22,642
760,39	16,404
760,57	19,164
760,76	19,512
760,95	13,889
761,14	17,518
761,33	27,742
761,51	8,929
761,70	10,037
761,89	8,000
762,08	23,792
762,27	8,303
762,45	14,493
762,64	6,030
762,83	21,116
763,02	-3,913
763,21	-12,000
763,39	19,930
763,58	9,294
763,77	12,658
763,96	20,319
764,14	-4,583
764,33	14,762
764,52	16,518
764,71	17,049
764,89	12,054
765,08	-4,433
765,27	26,383
765,46	14,350
765,65	12,157
765,83	35,294
766,02	-0,952
766,21	12,022
766,40	24,514
766,58	-1,587
766,77	19,725
766,96	22,764
767,15	17,647
767,33	2,899
767,52	10,044
767,71	9,649
767,90	1,508
768,08	2,395
768,27	6,504
768,46	14,035
768,64	10,185
768,83	7,353
769,02	-4,433
769,21	14,583
769,39	22,857
769,58	10,823
769,77	22,872
769,96	17,117
770,14	37,705
770,33	19,626
770,52	23,022
770,70	15,676
770,89	19,459
771,08	-7,831
771,27	19,474
771,45	2,941
771,64	18,788
771,83	18,627
772,01	28,866
772,20	8,458
772,39	10,759
772,57	7,960
772,76	-2,027
772,95	24,713
773,14	39,456
773,32	16,949
773,51	15,476
773,70	7,914
773,88	25,161
774,07	10,152
774,26	-23,387
774,44	36,842
774,63	26,347
774,82	0,649
775,00	27,570
775,19	16,667
775,38	12,234
775,56	22,360
775,75	34,066
775,94	35,833
776,12	9,150
776,31	8,271
776,50	-3,425
776,68	22,581
776,87	44,498
777,06	34,591
777,24	5,882
777,43	39,572
777,62	44,944
777,80	44,654
777,99	1,667
778,18	8,046
778,36	12,712
778,55	-0,847
778,74	13,281
778,92	39,506
779,11	33,636
779,29	11,348
779,48	25,532
779,67	19,820
779,85	-20,175
780,04	23,188
780,23	33,333
780,41	23,729
780,60	40,268
780,79	-2,419
780,97	15,686
781,16	21,809
781,34	22,297
781,53	21,429
781,72	-23,423
781,90	26,347
782,09	18,605
782,28	3,401
782,46	37,857
782,65	25,352
782,83	5,031
783,02	75,439
783,21	14,286
783,39	36,134
783,58	43,478
783,76	40,136
783,95	45,775
784,14	21,053
784,32	-8,235
784,51	50,000
784,69	-2,344
784,88	28,972
785,06	50,993
785,25	41,135
785,44	6,452
785,62	1,429
785,81	44,444
785,99	17,293
786,18	18,018
786,37	37,363
786,55	40,278
786,74	35,455
786,92	3,497
787,11	14,583
787,29	11,607
787,48	40,860
787,67	24,528
787,85	44,304
788,04	18,018
788,22	5,941
788,41	13,386
788,59	59,211
788,78	64,835
788,96	9,917
789,15	36,667
789,34	-7,692
789,52	43,548
789,71	56,115
789,89	53,247
790,08	12,500
790,26	21,019
790,45	8,333
790,63	33,333
790,82	16,923
791,00	17,699
791,19	21,600
791,38	3,810
791,56	26,364
791,75	-5,556
791,93	46,000
792,12	46,087
792,30	27,737
792,49	25,253
792,67	27,206
792,86	69,600
793,04	23,148
793,23	49,474
793,41	34,058
793,60	57,639
793,78	27,619
793,97	47,917
794,15	51,128
794,34	-40,000
794,52	7,527
794,71	29,457
794,89	30,303
795,08	41,600
795,26	34,667
795,45	34,722
795,63	0,806
795,82	47,253
796,00	91,000
796,19	42,276
796,37	26,718
796,56	6,796
796,74	5,263
796,93	4,545
797,11	53,012
797,30	13,333
797,48	24,219
797,67	22,764
797,85	33,077
798,04	5,932
798,22	60,256
798,41	4,808
798,59	7,619
798,77	-4,819
798,96	18,519
799,14	44,355
799,33	66,972
799,51	36,111
799,70	50,769
799,88	52,294
800,07	73,282
800,25	-21,687
800,44	-24,074
800,62	40,278
800,80	45,775
800,99	91,781
801,17	16,379
801,36	55,000
801,54	46,000
801,73	23,158
801,91	35,537
802,10	50,588
802,28	28,800
802,46	0,000
802,65	28,777
802,83	25,333
803,02	39,516
803,20	60,241
803,39	50,575
803,57	41,732
803,75	43,089
803,94	60,317
804,12	46,207
804,31	-56,522
804,49	23,200
804,67	12,500
804,86	38,053
805,04	-40,964
805,23	42,478
805,41	13,333
805,59	43,151
805,78	76,800
805,96	27,711
806,15	50,495
806,33	15,789
806,51	48,000
806,70	33,835
806,88	76,744
807,07	50,450
807,25	45,055
807,43	42,857
807,62	30,973
807,80	20,000
807,99	30,000
808,17	1,575
808,35	26,000
808,54	21,014
808,72	63,964
808,90	10,959
809,09	22,826
809,27	20,000
809,46	15,385
809,64	52,439
809,82	39,735
810,01	60,156
810,19	53,535
810,37	29,688
810,56	55,556
810,74	54,545
810,92	21,333
811,11	8,772
811,29	86,792
811,48	-9,231
811,66	51,685
811,84	28,571
812,03	18,852
812,21	15,789
812,39	26,087
812,58	32,632
812,76	26,619
812,94	3,614
813,13	5,319
813,31	61,000
813,49	26,852
813,68	9,091
813,86	-34,831
814,04	10,744
814,23	39,759
814,41	15,730
814,59	38,835
814,78	29,412
814,96	11,321
815,14	60,748
815,33	10,078
815,51	40,157
815,69	17,143
815,87	29,703
816,06	27,826
816,24	32,919
816,42	19,118
816,61	30,189
816,79	9,483
816,97	2,273
817,16	7,692
817,34	46,825
817,52	52,893
817,70	35,644
817,89	34,815
818,07	10,959
818,25	9,184
818,44	1,282
818,62	17,054
818,80	25,564
818,98	51,592
819,17	13,445
819,35	41,489
819,53	29,104
819,72	55,696
819,90	13,178
820,08	-14,530
820,26	5,172
820,45	12,081
820,63	38,393
820,81	42,400
820,99	26,241
821,18	16,327
821,36	24,051
821,54	24,828
821,73	45,556
821,91	43,860
822,09	17,742
822,27	55,484
822,46	30,147
822,64	6,400
822,82	21,547
823,00	-6,077
823,19	37,912
823,37	14,545
823,55	2,273
823,73	35,862
823,91	24,638
824,10	18,280
824,28	38,191
824,46	-40,777
824,64	24,342
824,83	35,404
825,01	-4,667
825,19	15,323
825,37	-10,435
825,56	20,755
825,74	17,857
825,92	22,293
826,10	34,659
826,28	38,095
826,47	18,421
826,65	32,624
826,83	-16,379
827,01	34,104
827,19	33,333
827,38	7,407
827,56	17,614
827,74	12,291
827,92	14,535
828,10	14,744
828,29	40,237
828,47	32,114
828,65	-3,077
828,83	6,667
829,01	21,739
829,20	19,231
829,38	8,523
829,56	13,043
829,74	17,610
829,92	10,317
830,10	18,391
830,29	18,593
830,47	18,593
830,65	-4,268
830,83	13,393
831,01	27,381
831,20	37,864
831,38	8,134
831,56	26,047
831,74	40,758
831,92	5,921
832,10	4,286
832,29	23,649
832,47	8,989
832,65	8,824
832,83	15,493
833,01	18,000
833,19	1,357
833,37	44,344
833,56	19,831
833,74	21,078
833,92	9,259
834,10	11,618
834,28	31,646
834,46	11,312
834,64	25,000
834,83	1,818
835,01	24,481
835,19	21,200
835,37	0,413
835,55	4,167
835,73	4,926
835,91	19,188
836,09	19,392
836,28	22,878
836,46	6,400
836,64	22,180
836,82	7,240
837,00	15,217
837,18	7,435
837,36	17,928
837,54	15,000
837,72	6,897
837,91	23,881
838,09	3,586
838,27	7,667
838,45	14,184
838,63	3,676
838,81	5,485
838,99	8,871
839,17	10,811
839,35	16,312
839,53	16,140
839,72	-1,128
839,90	16,838
840,08	27,077
840,26	16,270
840,44	15,106
840,62	8,621
840,80	21,429
840,98	7,843
841,16	7,985
841,34	9,030
841,52	18,960
841,70	19,385
841,89	1,613
842,07	13,480
842,25	25,862
842,43	15,948
842,61	14,386
842,79	8,475
842,97	8,795
843,15	14,521
843,33	7,256
843,51	13,855
843,69	28,205
843,87	-2,985
844,05	9,119
844,23	11,111
844,41	7,210
844,59	8,646
844,77	13,725
844,95	7,514
845,13	12,000
845,31	5,814
845,50	14,136
845,68	6,752
845,86	14,080
846,04	17,318
846,22	3,815
846,40	13,978
846,58	24,217
846,76	13,978
846,94	9,476
847,12	2,332
847,30	-3,608
847,48	1,858
847,66	6,650
847,84	4,918
848,02	14,734
848,20	8,010
848,38	-7,123
848,56	9,375
848,74	23,628
848,92	-1,746
849,10	1,250
849,28	10,121
849,46	12,267
849,64	13,164
849,82	-1,235
850,00	17,056
850,18	18,298
850,36	2,208
850,54	2,757
850,72	2,057
850,90	18,261
851,08	14,661
851,26	7,002
851,44	10,398
851,62	9,535
851,80	10,132
851,98	13,626
852,16	1,655
852,34	2,680
852,52	4,241
852,70	0,456
852,87	2,740
853,05	2,144
853,23	3,093
853,41	14,059
853,59	9,751
853,77	7,143
853,95	21,941
854,13	10,177
854,31	13,963
854,49	4,391
854,67	2,808
854,85	1,656
855,03	14,830
855,21	7,789
855,39	-4,829
855,57	8,961
855,75	8,394
855,93	-3,725
856,11	12,959
856,28	2,768
856,46	15,480
856,64	5,714
856,82	1,890
857,00	0,406
857,18	5,596
857,36	8,938
857,54	5,017
857,72	0,877
857,90	3,321
858,08	6,667
858,26	1,863
858,44	0,195
858,61	7,666
858,79	7,785
858,97	3,717
859,15	10,372
859,33	9,531
859,51	3,685
859,69	-2,147
859,87	7,084
860,05	-0,710
860,23	9,416
860,40	7,473
860,58	7,705
860,76	1,587
860,94	8,618
861,12	4,615
861,30	4,396
861,48	8,857
861,66	1,905
861,84	6,876
862,01	8,247
862,19	1,017
862,37	3,026
862,55	9,798
862,73	4,025
862,91	5,140
863,09	3,571
863,27	5,316
863,44	2,116
863,62	4,891
863,80	5,063
863,98	5,935
864,16	1,734
864,34	8,487
864,52	7,373
864,69	1,023
864,87	-3,763
865,05	6,531
865,23	9,935
865,41	4,570
865,59	3,365
865,76	10,349
865,94	6,331
866,12	8,516
866,30	0,281
866,48	10,526
866,66	3,629
866,83	7,634
867,01	-0,895
867,19	7,282
867,37	2,717
867,55	4,540
867,73	4,567
867,90	5,749
868,08	-0,967
868,26	5,515
868,44	1,290
868,62	5,774
868,79	5,040
868,97	0,378
869,15	-1,856
869,33	4,151
869,51	1,161
869,69	-2,683
869,86	3,743
870,04	9,195
870,22	3,056
870,40	4,094
870,57	1,269
870,75	2,541
870,93	4,211
871,11	4,654
871,29	4,110
871,46	3,201
871,64	2,092
871,82	6,136
872,00	9,774
872,18	-0,633
872,35	5,411
872,53	1,974
872,71	2,347
872,89	6,369
873,06	3,842
873,24	3,880
873,42	5,258
873,60	-2,950
873,77	2,556
873,95	-1,138
874,13	-0,211
874,31	3,922
874,49	2,904
874,66	3,195
874,84	-1,204
875,02	5,225
875,20	7,980
875,37	5,620
875,55	5,057
875,73	4,021
875,91	2,602
876,08	3,108
876,26	-0,177
876,44	5,387
876,61	5,238
876,79	6,387
876,97	2,099
877,15	-0,176
877,32	3,240
877,50	4,056
877,68	1,542
877,86	-1,189
878,03	3,309
878,21	5,463
878,39	3,849
878,56	0,826
878,74	1,911
878,92	-0,646
879,10	4,304
879,27	4,086
879,45	2,396
879,63	0,776
879,80	2,695
879,98	2,558
880,16	4,148
880,34	5,674
880,51	-0,710
880,69	3,497
880,87	-0,637
881,04	3,184
881,22	3,694
881,40	2,589
881,57	2,037
881,75	4,086
881,93	2,153
882,10	2,460
882,28	5,931
882,46	2,329
882,63	1,127
882,81	5,232
882,99	2,477
883,16	1,117
883,34	0,334
883,52	3,890
883,69	3,437
883,87	-0,260
884,05	0,426
884,22	0,913
884,40	3,778
884,58	-0,774
884,75	0,721
884,93	3,650
885,11	1,516
885,28	2,183
885,46	0,246
885,64	0,415
885,81	2,356
885,99	0,000
886,17	1,921
886,34	2,007
886,52	0,699
886,70	2,787
886,87	-0,218
887,05	4,153
887,22	2,988
887,40	0,989
887,58	2,565
887,75	3,367
887,93	0,825
888,11	2,430
888,28	0,849
888,46	3,428
888,63	1,485
888,81	2,553
888,99	0,354
889,16	3,852
889,34	-0,746
889,51	0,750
889,69	1,915
889,87	3,032
890,04	3,202
890,22	2,682
890,39	1,141
890,57	3,231
890,75	2,057
890,92	3,104
891,10	0,985
891,27	0,047
891,45	2,265
891,63	0,692
891,80	2,940
891,98	0,552
892,15	1,374
892,33	1,108
892,51	2,255
892,68	3,714
892,86	0,000
893,03	1,373
893,21	1,858
893,38	0,681
893,56	1,254
893,74	1,755
893,91	1,630
894,09	3,329
894,26	1,498
894,44	1,168
894,61	2,297
894,79	2,081
894,96	0,640
895,14	2,881
895,32	1,290
895,49	-0,597
895,67	0,000
895,84	1,481
896,02	0,215
896,19	-1,182
896,37	0,832
896,54	1,320
896,72	0,771
896,89	0,768
897,07	2,620
897,25	1,671
897,42	1,710
897,60	3,604
897,77	2,655
897,95	0,981
898,12	2,732
898,30	1,617
898,47	-1,980
898,65	-0,352
898,82	2,020
899,00	0,669
899,17	2,876
899,35	0,197
899,52	4,003
899,70	0,801
899,87	0,725
900,05	0,913
900,22	0,800
900,40	0,303
900,57	1,855
900,75	1,009
900,92	1,817
901,10	0,298
901,27	0,222
901,45	2,999
901,62	1,236
901,80	0,933
901,97	1,906
902,15	0,106
902,32	2,587
902,50	-0,323
902,67	2,653
902,85	1,604
903,02	2,220
903,20	1,070
903,37	0,854
903,54	-1,221
903,72	2,175
903,89	2,704
904,07	0,214
904,24	1,587
904,42	1,725
904,59	-0,321
904,77	2,052
904,94	0,548
905,12	0,532
905,29	-0,176
905,47	0,906
905,64	2,267
905,81	1,635
905,99	0,455
906,16	-1,422
906,34	1,301
906,51	0,656
906,69	2,139
906,86	0,737
907,03	1,379
907,21	0,797
907,38	1,770
907,56	1,512
907,73	2,474
907,91	-0,097
908,08	0,736
908,25	2,227
908,43	-0,839
908,60	-0,097
908,78	0,918
908,95	0,807
909,13	2,963
909,30	2,145
909,47	0,033
909,65	1,659
909,82	1,841
910,00	0,805
910,17	-0,096
910,34	0,462
910,52	1,588
910,69	0,189
910,87	1,535
911,04	0,000
911,21	2,180
911,39	-0,243
911,56	1,526
911,73	0,571
911,91	0,815
912,08	0,983
912,26	-0,272
912,43	1,598
912,60	0,538
912,78	2,060
912,95	1,440
913,13	0,260
913,30	2,106
913,47	0,550
913,65	2,544
913,82	1,325
913,99	0,349
914,17	0,475
914,34	0,890
914,51	1,801
914,69	0,832
914,86	1,997
915,03	1,642
915,21	1,062
915,38	1,185
915,56	1,750
915,73	0,711
915,90	1,282
916,08	1,584
916,25	0,753
916,42	1,522
916,60	1,529
916,77	0,910
916,94	1,502
917,12	0,141
917,29	0,882
917,46	0,741
917,64	0,445
917,81	-0,164
917,98	0,764
918,16	0,856
918,33	0,741
918,50	0,430
918,67	0,567
918,85	0,272
919,02	0,958
919,19	0,912
919,37	-0,498
919,54	1,685
919,71	1,592
919,89	-0,208
920,06	0,845
920,23	0,128
920,41	1,571
920,58	0,442
920,75	1,465
920,92	0,913
921,10	-0,590
921,27	0,950
921,44	2,215
921,62	0,686
921,79	1,216
921,96	1,104
922,13	0,726
922,31	0,267
922,48	-0,295
922,65	0,413
922,82	-0,049
923,00	1,907
923,17	0,098
923,34	0,381
923,52	-0,211
923,69	0,680
923,86	1,299
924,03	0,566
924,21	0,685
924,38	1,115
924,55	1,216
924,72	-0,331
924,90	-0,606
925,07	-0,402
925,24	0,802
925,41	0,541
925,59	0,114
925,76	-0,185
925,93	0,886
926,10	1,134
926,28	0,363
926,45	-0,045
926,62	-0,023
926,79	0,592
926,96	1,214
927,14	1,761
927,31	0,772
927,48	1,148
927,65	1,189
927,83	0,485
928,00	-0,022
928,17	0,434
928,34	-0,130
928,51	0,789
928,69	0,299
928,86	0,197
929,03	0,132
929,20	0,646
929,37	-0,362
929,55	1,251
929,72	0,846
929,89	-0,063
930,06	1,169
930,23	1,531
930,41	-0,167
930,58	0,736
930,75	0,353
930,92	0,935
931,09	0,799
931,27	-0,371
931,44	0,041
931,61	1,069
931,78	0,507
931,95	0,306
932,12	1,383
932,30	0,814
932,47	-0,248
932,64	0,873
932,81	0,365
932,98	0,517
933,16	0,504
933,33	0,263
933,50	0,835
933,67	1,172
933,84	0,741
934,01	0,342
934,18	0,843
934,36	0,506
934,53	1,046
934,70	0,121
934,87	0,263
935,04	0,439
935,21	0,592
935,38	0,321
935,56	0,794
935,73	0,160
935,90	0,079
936,07	-0,079
936,24	1,567
936,41	0,749
936,58	0,000
936,76	0,924
936,93	0,335
937,10	0,959
937,27	1,211
937,44	0,777
937,61	1,065
937,78	0,646
937,95	0,872
938,13	0,233
938,30	1,089
938,47	0,582
938,64	1,100
938,81	0,795
938,98	0,818
939,15	1,568
939,32	1,201
939,49	-0,219
939,66	0,616
939,84	1,151
940,01	0,993
940,18	1,032
940,35	0,945
940,52	1,212
940,69	0,223
940,86	1,279
941,03	1,340
941,20	0,729
941,37	0,063
941,54	1,576
941,71	1,444
941,89	0,828
942,06	0,776
942,23	0,645
942,40	1,221
942,57	1,346
942,74	0,935
942,91	1,802
943,08	1,453
943,25	2,020
943,42	0,644
943,59	1,963
943,76	0,968
943,93	0,090
944,10	0,405
944,27	0,298
944,44	0,300
944,61	1,610
944,79	1,854
944,96	1,392
945,13	0,843
945,30	1,965
945,47	1,665
945,64	1,699
945,81	2,340
945,98	1,762
946,15	1,993
946,32	3,138
946,49	1,409
946,66	2,728
946,83	1,846
947,00	2,166
947,17	0,707
947,34	1,378
947,51	2,187
947,68	3,374
947,85	2,838
948,02	4,412
948,19	0,841
948,36	1,987
948,53	0,582
948,70	1,657
948,87	2,933
949,04	2,947
949,21	2,229
949,38	2,519
949,55	2,969
949,72	2,376
949,89	2,686
950,06	1,263
950,23	1,648
950,40	1,729
950,57	1,567
950,74	0,724
950,91	1,431
951,08	0,626
951,25	1,378
951,42	1,017
951,59	1,292
951,76	0,478
951,93	2,032
952,10	0,322
952,27	1,310
952,44	3,143
952,61	2,853
952,77	2,182
952,94	0,598
953,11	2,099
953,28	2,369
953,45	1,258
953,62	1,311
953,79	1,037
953,96	1,557
954,13	2,516
954,30	4,193
954,47	1,075
954,64	0,629
954,81	3,639
954,98	0,281
955,15	-0,967
955,32	3,018
955,49	1,861
955,65	3,003
955,82	1,073
955,99	3,900
956,16	3,241
956,33	0,416
956,50	1,401
956,67	2,905
956,84	2,898
957,01	2,836
957,18	4,106
957,35	0,660
957,52	0,663
957,68	1,485
957,85	3,578
958,02	2,722
958,19	1,500
958,36	5,373
958,53	1,228
958,70	4,930
958,87	1,497
959,04	2,863
959,21	8,891
959,37	7,121
959,54	3,455
959,71	7,667
959,88	0,000
960,05	8,382
960,22	7,296
960,39	3,643
960,56	-3,069
960,72	3,740
960,89	3,087
961,06	4,432
961,23	-0,917
961,40	-4,552
961,57	2,716
961,74	1,843
961,90	-0,435
962,07	4,484
962,24	0,803
962,41	4,828
962,58	5,518
962,75	-1,880
962,92	4,561
963,08	1,667
963,25	2,191
963,42	6,426
963,59	1,232
963,76	7,952
963,93	9,369
964,10	-4,299
964,26	10,714
964,43	1,163
964,60	1,624
964,77	6,711
964,94	9,630
965,10	-4,178
965,27	-2,514
965,44	-0,635
965,61	0,000
965,78	2,795
965,95	11,443
966,11	-0,303
966,28	9,218
966,45	13,725
966,62	0,348
966,79	9,215
966,95	4,982
967,12	13,016
967,29	14,198
967,46	9,964
967,63	21,961
967,79	37,919
967,96	-1,376
968,13	8,571
968,30	24,691
968,47	12,308
968,63	18,137
968,80	16,475
968,97	13,295
969,14	10,734
969,31	16,837
969,47	28,261
969,64	0,000
969,81	9,677
969,98	10,526
970,14	17,742
970,31	17,610
970,48	22,819
970,65	11,570
970,81	19,580
970,98	28,125
971,15	18,182
971,32	21,212
971,48	39,286
971,65	13,907
971,82	53,636
971,99	21,519
972,15	-11,628
972,32	16,667
972,49	30,328
972,66	29,752
972,82	36,986
972,99	38,750
973,16	45,695
973,33	38,519
973,49	34,146
973,66	36,190
973,83	-16,049
974,00	10,127
974,16	21,818
974,33	18,667
974,50	30,303
974,67	10,714
974,83	71,429
975,00	45,455
975,17	40,323
975,33	11,494
975,50	85,246
975,67	32,692
975,84	23,171
976,00	30,263
976,17	93,478
976,34	50,588
976,50	32,967
976,67	79,762
976,84	43,750
977,00	48,718
977,17	55,556
977,34	98,077
977,50	55,952
977,67	49,412
977,84	79,661
978,01	21,622
978,17	20,690
978,34	-11,111
978,51	20,000
978,67	69,388
978,84	43,636
979,01	-63,158
979,17	58,571
979,34	58,696
979,51	52,273
979,67	200,000
979,84	57,627
980,01	44,231
980,17	11,765
980,34	43,836
980,51	77,778
980,67	-22,222
980,84	51,429
981,01	141,176
981,17	61,765
981,34	28,571
981,50	49,474
981,67	145,238
981,84	-60,714
982,00	-800,000
982,17	84,375
982,34	56,098
982,50	0,000
982,67	257,143
982,84	325,000
983,00	125,926
983,17	-442,857
983,33	100,000
983,50	109,756
983,67	63,768
983,83	295,238
984,00	69,565
984,17	344,444
984,33	14,286
984,50	75,676
984,66	168,750
984,83	-225,000
985,00	-7,692
985,16	70,968
985,33	2600,000
985,49	81,395
985,66	50,000
985,83	-366,667
985,99	-255,556
986,16	152,632
986,32	35,616
986,49	20,000
986,66	-220,000
986,82	90,909
986,99	20,000
987,15	127,273
987,32	129,412
987,49	92,857
987,65	-47,826
987,82	45,000
987,98	75,758
988,15	371,429
988,31	60,000
988,48	170,588
988,65	-110,000
988,81	49,091
988,98	197,297
989,14	80,000
989,31	88,136
989,47	89,286
989,64	227,778
989,80	82,979
989,97	110,909
990,14	271,429
990,30	-725,000
990,47	20,833
990,63	73,684
990,80	983,333
990,96	491,667
991,13	23,333
991,29	92,157
991,46	35,417
991,62	0,000
991,79	-10,000
991,95	52,941
992,12	850,000
992,29	38,095
992,45	145,238
992,62	-100,000
992,78	-66,667
992,95	83,871
993,11	687,500
993,28	800,000
993,44	-65,517
993,61	85,965
993,77	0,000
993,94	138,462
994,10	585,714
994,27	15,789
994,43	171,875
994,60	342,857
994,76	93,939
994,93	-280,000
995,09	-218,750
995,26	241,667
995,42	750,000
995,59	143,333
995,75	-150,000
995,92	-671,429
996,08	-80,000
996,25	78,788
996,41	400,000
996,58	328,000
996,74	-20,000
996,91	79,032
997,07	208,000
997,23	-7,843
997,40	616,667
997,56	-1600,000
997,73	186,957
997,89	1040,000
998,06	64,912
998,22	55,319
998,39	200,000
998,55	242,105
998,72	1000,000
998,88	124,000
999,05	293,333
999,21	317,647
999,37	123,256
999,54	64,516
999,70	119,048
999,87	33,333
1000,03	280,000
1000,20	7,143
1000,36	-562,500
1000,52	-150,000
1000,69	176,000
1000,85	-175,000
1001,02	142,857
1001,18	-100,000
1001,35	0,000
1001,51	57,143
1001,67	165,000
1001,84	68,293
1002,00	-281,818
1002,17	-125,000
1002,33	-312,500
1002,50	-150,000
1002,66	250,000
1002,82	187,805
1002,99	-159,091
1003,15	-3400,000
1003,32	64,286
1003,48	133,333
1003,64	34,783
1003,81	68,421
1003,97	126,087
1004,14	-21,818
1004,30	327,273
1004,46	-5800,000
1004,63	-253,846
1004,79	97,297
1004,95	-620,000
1005,12	-146,154
1005,28	136,111
1005,45	-466,667
1005,61	61,538
1005,77	-414,286
1005,94	171,739
1006,10	-150,000
1006,26	40,741
1006,43	196,970
1006,59	219,355
1006,76	-52,000
1006,92	69,565
1007,08	84,848
1007,25	172,222
1007,41	86,364
1007,57	-200,000
1007,74	26,087
1007,90	-64,286
1008,06	-220,000
1008,23	-273,684
1008,39	183,333
1008,55	96,471
1008,72	12,500
1008,88	82,857
1009,04	-566,667
1009,21	87,500
1009,37	216,129
1009,53	-175,000
1009,70	50,000
1009,86	315,789
1010,02	131,818
1010,19	500,000
1010,35	3200,000
1010,51	182,857
1010,68	109,091
1010,84	210,000
1011,00	228,571
1011,17	1166,667
1011,33	192,308
1011,49	306,250
1011,66	296,875
1011,82	-458,333
1011,98	253,333
1012,14	338,462
1012,31	177,273
1012,47	-500,000
1012,63	1100,000
1012,80	283,333
1012,96	55,556
1013,12	-100,000
1013,29	166,667
1013,45	-76,471
1013,61	-20,000
1013,77	-111,111
1013,94	258,333
1014,10	1000,000
1014,26	11,765
1014,43	100,000
1014,59	0,000
1014,75	520,000
1014,91	42,857
1015,08	200,000
1015,24	233,333
1015,40	293,333
1015,56	182,353
1015,73	34,694
1015,89	0,000
1016,05	208,108
1016,21	162,963
1016,38	176,316
1016,54	-124,000
1016,70	205,263
1016,86	-338,462
1017,03	0,000
1017,19	37,500
1017,35	300,000
1017,51	200,000
1017,68	714,286
1017,84	94,737
1018,00	-109,524
1018,16	-281,250
1018,33	-63,636
1018,49	250,000
1018,65	-113,636
1018,81	-34,146
1018,97	269,231
1019,14	-357,143
1019,30	142,857
1019,46	194,872
1019,62	1700,000
1019,79	485,714
1019,95	-1475,000
1020,11	240,000
1020,27	160,000
1020,43	-550,000
1020,60	0,000
1020,76	116,176
1020,92	3800,000
1021,08	-57,778
1021,24	-300,000
1021,41	154,545
1021,57	-162,500
1021,73	0,000
1021,89	-195,455
1022,05	177,143
1022,21	61,538
1022,38	194,737
1022,54	460,000
1022,70	237,037
1022,86	-1400,000
1023,02	155,556
1023,19	-20,000
1023,35	84,906
1023,51	164,516
1023,67	60,526
1023,83	172,727
1023,99	57,143
1024,16	-36,923
1024,32	487,500
1024,48	210,204
1024,64	-140,000
1024,80	475,000
1024,96	338,462
1025,12	833,333
1025,29	-950,000
1025,45	133,333
1025,61	2233,333
1025,77	157,143
1025,93	-100,000
1026,09	2400,000
1026,26	-828,571
1026,42	-600,000
1026,58	73,077
1026,74	542,857
1026,90	78,947
1027,06	-320,000
1027,22	-350,000
1027,38	588,889
1027,55	-136,000
1027,71	-162,500
1027,87	137,500
1028,03	57,576
1028,19	-78,788
1028,35	37,838
1028,51	64,516
1028,67	-340,000
1028,83	69,048
1029,00	607,143
1029,16	-306,667
1029,32	41,176
1029,48	3700,000
1029,64	642,857
1029,80	1283,333
1029,96	127,451
1030,12	325,000
1030,28	875,000
1030,44	-2500,000
1030,61	231,250
1030,77	-78,261
1030,93	148,837
1031,09	-50,000
1031,25	-588,889
1031,41	-700,000
1031,57	-26,316
1031,73	363,636
1031,89	-100,000
1032,05	900,000
1032,21	320,000
1032,37	-26,471
1032,53	-140,000
1032,69	-700,000
1032,86	533,333
1033,02	112,500
1033,18	-338,462
1033,34	-53,846
1033,50	38,710
1033,66	-100,000
1033,82	185,714
1033,98	-247,059
1034,14	877,778
1034,30	-86,364
1034,46	95,833
1034,62	394,444
1034,78	106,349
1034,94	-129,032
1035,10	-359,091
1035,26	-555,556
1035,42	31,429
1035,58	1380,000
1035,74	-26,667
1035,90	-258,333
1036,06	143,396
1036,22	-92,000
1036,38	513,333
1036,54	510,000
1036,70	-1450,000
1036,86	-92,857
1037,02	-2450,000
1037,18	-28,571
1037,34	343,478
1037,50	-200,000
1037,66	-566,667
1037,82	111,765
1037,98	142,857
1038,14	-20,690
1038,30	21,154
1038,46	114,583
1038,62	6,452
1038,78	66,667
1038,94	-84,211
1039,10	-125,000
1039,26	-78,947
1039,42	-285,714
1039,58	98,113
1039,74	109,375
1039,90	-2,564
1040,06	188,235
>>>>>End Processed Spectral Data<<<<<
