SpectraSuite Data File
++++++++++++++++++++++++++++++++++++
Date: Thu Feb 02 17:26:05 EET 2017
User: optolab
Dark Spectrum Present: Yes
Reference Spectrum Present: Yes
Number of Sampled Component Spectra: 1
Spectrometers: USB4C02475
Integration Time (usec): 100000 (USB4C02475)
Spectra Averaged: 1 (USB4C02475)
Boxcar Smoothing: 0 (USB4C02475)
Correct for Electrical Dark: No (USB4C02475)
Strobe/Lamp Enabled: No (USB4C02475)
Correct for Detector Non-linearity: No (USB4C02475)
Correct for Stray Light: No (USB4C02475)
Number of Pixels in Processed Spectrum: 3648
>>>>>Begin Processed Spectral Data<<<<<
344,91	-325,000
345,13	-325,000
345,35	-325,000
345,57	-70,588
345,79	34,783
346,00	-108,824
346,22	-728,571
346,44	-106,061
346,66	257,447
346,87	269,565
347,09	407,692
347,31	6200,000
347,53	-1350,000
347,74	-158,140
347,96	-842,857
348,18	267,647
348,40	300,000
348,61	-125,641
348,83	4900,000
349,05	143,590
349,27	194,118
349,48	-3750,000
349,70	542,857
349,92	166,667
350,14	29,730
350,35	-200,000
350,57	-261,111
350,79	2,564
351,01	-73,333
351,22	590,000
351,44	516,667
351,66	272,222
351,87	1100,000
352,09	103,947
352,31	200,000
352,53	317,143
352,74	-542,857
352,96	152,632
353,18	78,125
353,40	-612,500
353,61	500,000
353,83	75,000
354,05	253,125
354,26	289,286
354,48	-460,000
354,70	204,762
354,92	255,556
355,13	-144,186
355,35	133,333
355,57	93,750
355,78	128,571
356,00	102,128
356,22	77,273
356,44	160,465
356,65	285,714
356,87	116,667
357,09	11,429
357,30	77,273
357,52	-1033,333
357,74	187,097
357,95	125,714
358,17	66,667
358,39	268,000
358,60	63,889
358,82	150,000
359,04	179,487
359,26	77,273
359,47	-215,385
359,69	335,714
359,91	228,000
360,12	90,000
360,34	133,333
360,56	-1000,000
360,77	611,111
360,99	345,833
361,21	139,130
361,42	-2025,000
361,64	-96,296
361,86	74,627
362,07	600,000
362,29	230,000
362,51	264,865
362,72	-760,000
362,94	422,222
363,16	132,857
363,37	1036,364
363,59	-5800,000
363,81	725,000
364,02	96,000
364,24	220,455
364,46	504,762
364,67	59,524
364,89	417,647
365,11	167,568
365,32	311,111
365,54	68,750
365,76	140,909
365,97	136,585
366,19	94,737
366,41	740,000
366,62	88,000
366,84	225,000
367,05	89,216
367,27	500,000
367,49	166,667
367,70	333,333
367,92	122,917
368,14	-23,077
368,35	141,176
368,57	145,455
368,79	323,077
369,00	76,923
369,22	127,778
369,43	178,947
369,65	-113,793
369,87	-258,824
370,08	295,000
370,30	407,143
370,51	218,182
370,73	166,667
370,95	345,000
371,16	100,000
371,38	213,208
371,60	220,000
371,81	107,609
372,03	-600,000
372,24	-75,000
372,46	1866,667
372,68	173,529
372,89	69,725
373,11	153,488
373,32	83,193
373,54	90,909
373,76	350,000
373,97	221,212
374,19	-142,105
374,40	75,714
374,62	500,000
374,84	245,833
375,05	180,769
375,27	178,378
375,48	95,062
375,70	241,176
375,92	173,214
376,13	547,368
376,35	387,500
376,56	110,000
376,78	100,000
376,99	242,424
377,21	143,750
377,43	103,030
377,64	138,000
377,86	362,500
378,07	163,636
378,29	136,111
378,51	53,571
378,72	-50,000
378,94	143,478
379,15	120,455
379,37	425,000
379,58	46,667
379,80	104,545
380,01	108,000
380,23	121,739
380,45	231,250
380,66	123,611
380,88	135,135
381,09	282,609
381,31	228,205
381,52	278,261
381,74	175,000
381,95	246,429
382,17	232,000
382,39	62,903
382,60	411,765
382,82	186,207
383,03	1266,667
383,25	104,938
383,46	383,333
383,68	131,915
383,89	268,182
384,11	110,959
384,32	118,421
384,54	-1085,714
384,76	120,588
384,97	140,000
385,19	10,526
385,40	178,125
385,62	145,161
385,83	146,809
386,05	914,286
386,26	146,154
386,48	446,154
386,69	219,444
386,91	380,000
387,12	123,077
387,34	93,220
387,55	82,857
387,77	56,000
387,98	208,163
388,20	123,944
388,41	30,159
388,63	160,000
388,84	212,500
389,06	134,884
389,27	65,625
389,49	31,325
389,70	159,322
389,92	86,364
390,13	158,974
390,35	42,708
390,56	201,562
390,78	18,182
390,99	126,667
391,21	90,909
391,42	50,000
391,64	-10,000
391,85	108,621
392,07	-100,000
392,28	126,923
392,50	520,000
392,71	1300,000
392,93	69,355
393,14	213,043
393,36	69,231
393,57	158,333
393,79	79,365
394,00	91,781
394,22	76,000
394,43	210,714
394,65	146,429
394,86	134,375
395,08	-637,500
395,29	-2,128
395,50	-3700,000
395,72	742,857
395,93	336,000
396,15	50,000
396,36	90,000
396,58	-138,095
396,79	183,721
397,01	233,333
397,22	126,087
397,44	27,660
397,65	100,000
397,87	95,714
398,08	50,000
398,29	191,667
398,51	148,780
398,72	160,870
398,94	160,465
399,15	90,000
399,37	78,261
399,58	109,524
399,80	-13,333
400,01	223,529
400,22	314,286
400,44	238,095
400,65	57,534
400,87	2100,000
401,08	53,933
401,30	89,333
401,51	96,364
401,72	45,161
401,94	153,659
402,15	77,551
402,37	63,636
402,58	79,070
402,80	125,000
403,01	-36,111
403,22	63,855
403,44	230,556
403,65	18,367
403,87	114,667
404,08	140,385
404,30	68,750
404,51	48,571
404,72	709,091
404,94	85,542
405,15	38,806
405,37	98,901
405,58	164,516
405,79	100,000
406,01	39,259
406,22	36,905
406,44	108,772
406,65	67,857
406,86	94,000
407,08	40,741
407,29	36,000
407,51	28,846
407,72	59,406
407,93	83,544
408,15	62,500
408,36	208,571
408,58	40,000
408,79	22,481
409,00	34,043
409,22	22,549
409,43	24,324
409,64	48,718
409,86	54,545
410,07	13,913
410,29	12,667
410,50	46,825
410,71	58,871
410,93	12,871
411,14	8,411
411,35	24,306
411,57	29,167
411,78	39,706
412,00	18,667
412,21	21,239
412,42	31,220
412,64	32,778
412,85	31,606
413,06	14,286
413,28	20,000
413,49	38,605
413,70	15,021
413,92	25,238
414,13	30,435
414,34	7,063
414,56	10,213
414,77	17,343
414,98	26,855
415,20	27,599
415,41	19,805
415,63	22,222
415,84	24,377
416,05	10,542
416,27	14,763
416,48	22,038
416,69	3,488
416,91	10,133
417,12	7,692
417,33	4,515
417,55	13,200
417,76	10,782
417,97	12,921
418,19	-5,230
418,40	-8,316
418,61	4,803
418,83	8,275
419,04	6,357
419,25	5,901
419,46	12,681
419,68	9,440
419,89	9,354
420,10	9,005
420,32	1,192
420,53	10,263
420,74	3,345
420,96	0,948
421,17	5,359
421,38	2,775
421,60	6,967
421,81	2,603
422,02	5,594
422,23	4,567
422,45	5,933
422,66	4,431
422,87	3,902
423,09	2,833
423,30	3,384
423,51	4,312
423,73	4,476
423,94	3,827
424,15	2,587
424,36	2,515
424,58	4,374
424,79	1,431
425,00	3,784
425,22	4,941
425,43	3,951
425,64	1,936
425,85	0,395
426,07	1,683
426,28	2,403
426,49	2,492
426,71	2,458
426,92	3,982
427,13	3,030
427,34	1,195
427,56	3,429
427,77	0,207
427,98	2,935
428,19	1,667
428,41	2,593
428,62	0,547
428,83	1,506
429,04	2,055
429,26	1,130
429,47	2,876
429,68	0,591
429,89	0,764
430,11	2,083
430,32	1,358
430,53	1,444
430,74	3,156
430,96	1,905
431,17	2,273
431,38	2,778
431,59	2,440
431,81	3,755
432,02	4,605
432,23	5,677
432,44	6,112
432,66	7,122
432,87	6,679
433,08	7,706
433,29	8,655
433,51	8,711
433,72	9,216
433,93	8,424
434,14	7,387
434,35	6,872
434,57	5,703
434,78	6,741
434,99	5,720
435,20	5,855
435,42	5,600
435,63	5,931
435,84	6,860
436,05	6,534
436,26	6,381
436,48	8,633
436,69	8,559
436,90	7,856
437,11	9,389
437,32	9,414
437,54	9,768
437,75	10,433
437,96	10,858
438,17	10,942
438,38	11,597
438,60	12,100
438,81	12,806
439,02	13,388
439,23	14,344
439,44	15,178
439,66	16,774
439,87	17,419
440,08	18,667
440,29	20,298
440,50	21,350
440,72	22,417
440,93	22,998
441,14	24,100
441,35	24,472
441,56	25,747
441,77	25,769
441,99	27,287
442,20	27,629
442,41	26,963
442,62	27,055
442,83	26,704
443,04	26,618
443,26	27,436
443,47	26,790
443,68	25,700
443,89	26,069
444,10	25,234
444,31	24,887
444,53	24,134
444,74	23,077
444,95	22,478
445,16	21,604
445,37	20,460
445,58	19,840
445,80	19,920
446,01	19,118
446,22	18,790
446,43	18,994
446,64	17,229
446,85	18,222
447,06	18,112
447,28	18,761
447,49	19,309
447,70	19,813
447,91	19,794
448,12	20,189
448,33	20,756
448,54	20,528
448,76	20,209
448,97	20,179
449,18	19,364
449,39	18,897
449,60	18,211
449,81	16,720
450,02	15,911
450,23	13,688
450,45	12,963
450,66	11,728
450,87	10,822
451,08	10,116
451,29	10,014
451,50	9,361
451,71	8,834
451,92	9,185
452,13	8,904
452,35	8,476
452,56	8,498
452,77	9,036
452,98	8,978
453,19	9,605
453,40	9,588
453,61	10,108
453,82	10,657
454,03	12,216
454,25	12,616
454,46	13,307
454,67	13,919
454,88	14,984
455,09	14,961
455,30	14,453
455,51	14,276
455,72	13,987
455,93	12,883
456,14	12,004
456,35	10,484
456,56	9,145
456,78	7,468
456,99	6,631
457,20	4,938
457,41	4,066
457,62	3,274
457,83	2,452
458,04	2,136
458,25	1,511
458,46	1,323
458,67	1,296
458,88	0,944
459,09	0,670
459,30	0,254
459,51	0,895
459,73	0,385
459,94	0,686
460,15	0,151
460,36	0,186
460,57	0,480
460,78	0,389
460,99	0,371
461,20	0,516
461,41	0,522
461,62	0,285
461,83	0,178
462,04	0,343
462,25	0,401
462,46	0,365
462,67	0,332
462,88	0,261
463,09	0,226
463,30	0,311
463,51	0,244
463,72	0,385
463,93	0,225
464,15	0,530
464,36	0,187
464,57	0,087
464,78	0,190
464,99	0,521
465,20	0,280
465,41	0,218
465,62	0,217
465,83	0,067
466,04	0,295
466,25	0,362
466,46	0,265
466,67	0,084
466,88	0,136
467,09	0,254
467,30	0,206
467,51	0,351
467,72	0,166
467,93	0,192
468,14	0,104
468,35	0,237
468,56	0,114
468,77	0,187
468,98	0,371
469,19	0,286
469,40	0,320
469,61	0,089
469,82	0,254
470,03	0,161
470,24	0,260
470,45	0,386
470,66	0,408
470,87	0,208
471,08	0,327
471,29	0,176
471,50	0,335
471,71	0,136
471,92	0,166
472,13	0,168
472,34	0,173
472,55	0,422
472,76	0,362
472,97	0,297
473,18	0,388
473,39	0,385
473,60	0,121
473,81	0,329
474,01	0,270
474,22	0,333
474,43	0,168
474,64	0,359
474,85	0,237
475,06	0,308
475,27	0,270
475,48	0,191
475,69	0,343
475,90	0,347
476,11	0,402
476,32	0,283
476,53	0,233
476,74	0,160
476,95	0,272
477,16	0,358
477,37	0,418
477,58	0,259
477,79	0,119
478,00	0,155
478,21	0,559
478,41	0,323
478,62	0,325
478,83	0,261
479,04	0,312
479,25	0,251
479,46	0,186
479,67	0,077
479,88	0,167
480,09	0,177
480,30	0,199
480,51	0,237
480,72	0,236
480,93	0,348
481,14	0,187
481,34	0,296
481,55	0,391
481,76	0,516
481,97	0,187
482,18	0,069
482,39	0,056
482,60	0,214
482,81	0,102
483,02	0,173
483,23	0,367
483,44	0,300
483,65	0,219
483,85	0,220
484,06	0,436
484,27	0,308
484,48	0,145
484,69	0,446
484,90	0,270
485,11	0,332
485,32	0,362
485,53	0,345
485,73	0,561
485,94	0,398
486,15	0,487
486,36	0,532
486,57	0,557
486,78	0,430
486,99	0,488
487,20	0,612
487,41	0,706
487,61	0,890
487,82	0,779
488,03	1,063
488,24	1,256
488,45	1,705
488,66	1,710
488,87	1,784
489,08	2,241
489,28	2,093
489,49	2,593
489,70	2,618
489,91	2,899
490,12	2,914
490,33	3,160
490,54	3,375
490,74	3,526
490,95	3,390
491,16	3,211
491,37	3,195
491,58	2,992
491,79	2,645
492,00	2,150
492,20	2,303
492,41	1,696
492,62	1,603
492,83	1,334
493,04	1,752
493,25	1,557
493,45	1,392
493,66	1,666
493,87	1,557
494,08	1,714
494,29	2,039
494,50	2,435
494,70	2,716
494,91	3,174
495,12	3,811
495,33	4,403
495,54	4,690
495,75	5,575
495,95	5,997
496,16	6,819
496,37	7,443
496,58	8,367
496,79	9,063
496,99	9,367
497,20	10,149
497,41	10,621
497,62	10,996
497,83	11,562
498,04	11,638
498,24	12,016
498,45	11,868
498,66	11,812
498,87	11,672
499,08	11,791
499,28	11,149
499,49	11,236
499,70	10,927
499,91	10,182
500,12	9,847
500,32	9,879
500,53	9,745
500,74	9,513
500,95	8,909
501,15	8,680
501,36	8,672
501,57	8,472
501,78	8,212
501,99	8,142
502,19	8,100
502,40	8,251
502,61	8,278
502,82	8,531
503,02	8,535
503,23	8,745
503,44	8,953
503,65	9,112
503,86	9,369
504,06	9,922
504,27	10,070
504,48	10,583
504,69	11,144
504,89	11,100
505,10	11,685
505,31	12,402
505,52	13,460
505,72	13,658
505,93	13,744
506,14	14,065
506,35	14,457
506,55	14,692
506,76	15,116
506,97	15,384
507,18	14,905
507,38	14,721
507,59	14,835
507,80	14,228
508,01	14,083
508,21	13,447
508,42	13,500
508,63	12,767
508,84	12,907
509,04	12,316
509,25	12,017
509,46	11,792
509,67	12,104
509,87	12,610
510,08	12,280
510,29	12,699
510,49	12,740
510,70	12,960
510,91	13,520
511,12	13,362
511,32	13,834
511,53	13,759
511,74	13,581
511,94	13,854
512,15	13,560
512,36	13,413
512,57	13,028
512,77	13,122
512,98	12,726
513,19	12,469
513,39	11,802
513,60	11,720
513,81	12,067
514,01	11,609
514,22	11,425
514,43	11,433
514,64	11,334
514,84	10,864
515,05	10,401
515,26	10,033
515,46	9,086
515,67	8,476
515,88	7,772
516,08	6,838
516,29	6,257
516,50	5,320
516,70	4,493
516,91	3,956
517,12	3,676
517,32	3,179
517,53	3,056
517,74	2,878
517,95	2,896
518,15	2,882
518,36	3,011
518,57	2,834
518,77	3,176
518,98	3,213
519,19	3,242
519,39	3,513
519,60	3,396
519,80	3,025
520,01	3,021
520,22	2,763
520,42	2,541
520,63	2,033
520,84	1,705
521,04	1,337
521,25	1,097
521,46	0,753
521,66	0,627
521,87	0,732
522,08	0,589
522,28	0,549
522,49	0,458
522,70	0,450
522,90	0,356
523,11	0,359
523,31	0,447
523,52	0,398
523,73	0,334
523,93	0,567
524,14	0,480
524,35	0,616
524,55	0,530
524,76	0,420
524,97	0,435
525,17	0,456
525,38	0,567
525,58	0,353
525,79	0,479
526,00	0,357
526,20	0,275
526,41	0,267
526,61	0,368
526,82	0,214
527,03	0,143
527,23	0,106
527,44	0,239
527,64	0,238
527,85	0,054
528,06	0,303
528,26	0,267
528,47	0,210
528,68	0,190
528,88	0,012
529,09	0,169
529,29	0,527
529,50	0,103
529,70	0,278
529,91	0,169
530,12	0,108
530,32	0,226
530,53	0,373
530,73	0,186
530,94	0,231
531,15	0,256
531,35	0,250
531,56	0,334
531,76	0,186
531,97	0,107
532,17	0,156
532,38	0,196
532,59	0,148
532,79	0,550
533,00	0,050
533,20	0,261
533,41	0,120
533,61	0,107
533,82	-0,004
534,03	0,058
534,23	0,160
534,44	0,082
534,64	0,239
534,85	0,111
535,05	0,084
535,26	0,238
535,46	0,169
535,67	-0,050
535,88	0,194
536,08	0,366
536,29	0,148
536,49	0,211
536,70	0,219
536,90	0,330
537,11	0,053
537,31	0,220
537,52	0,333
537,72	0,313
537,93	0,205
538,13	0,004
538,34	0,232
538,55	0,123
538,75	-0,101
538,96	0,142
539,16	0,277
539,37	0,345
539,57	0,228
539,78	0,333
539,98	0,384
540,19	0,441
540,39	0,308
540,60	0,187
540,80	0,244
541,01	0,356
541,21	0,297
541,42	0,166
541,62	0,296
541,83	0,110
542,03	0,191
542,24	0,126
542,44	0,147
542,65	0,053
542,85	0,274
543,06	0,243
543,26	0,225
543,47	0,248
543,67	0,200
543,88	0,081
544,08	0,131
544,29	0,355
544,49	0,036
544,70	0,024
544,90	0,187
545,11	0,089
545,31	0,073
545,52	0,141
545,72	0,189
545,93	0,142
546,13	0,169
546,34	0,172
546,54	0,284
546,75	0,147
546,95	0,249
547,15	0,209
547,36	0,309
547,56	0,158
547,77	0,123
547,97	-0,123
548,18	-0,004
548,38	0,044
548,59	0,202
548,79	0,413
549,00	0,202
549,20	0,004
549,41	0,330
549,61	0,036
549,81	0,123
550,02	0,151
550,22	0,192
550,43	0,092
550,63	0,024
550,84	0,346
551,04	0,080
551,25	0,102
551,45	0,217
551,65	0,284
551,86	0,012
552,06	0,292
552,27	0,044
552,47	0,145
552,68	0,287
552,88	0,114
553,08	0,138
553,29	0,231
553,49	0,235
553,70	0,195
553,90	0,059
554,11	0,237
554,31	0,039
554,51	0,387
554,72	0,155
554,92	0,183
555,13	0,152
555,33	0,162
555,53	0,031
555,74	0,288
555,94	0,273
556,15	0,278
556,35	0,027
556,56	0,058
556,76	0,238
556,96	0,061
557,17	0,227
557,37	0,258
557,58	0,027
557,78	0,165
557,98	0,120
558,19	0,058
558,39	0,158
558,59	0,147
558,80	0,169
559,00	0,150
559,21	0,309
559,41	0,190
559,61	0,140
559,82	0,180
560,02	0,134
560,23	0,176
560,43	0,225
560,63	0,073
560,84	0,126
561,04	0,107
561,24	0,229
561,45	0,245
561,65	0,210
561,85	0,031
562,06	0,145
562,26	0,011
562,47	0,242
562,67	0,136
562,87	0,034
563,08	0,342
563,28	0,210
563,48	0,228
563,69	0,114
563,89	0,294
564,09	0,072
564,30	0,152
564,50	-0,034
564,70	0,205
564,91	0,095
565,11	0,247
565,31	0,205
565,52	0,023
565,72	0,331
565,92	0,011
566,13	0,150
566,33	0,294
566,53	0,083
566,74	0,094
566,94	0,216
567,14	0,068
567,35	0,135
567,55	0,158
567,75	0,238
567,96	0,341
568,16	0,162
568,36	0,004
568,57	0,173
568,77	0,071
568,97	0,254
569,18	0,223
569,38	0,111
569,58	0,135
569,79	0,056
569,99	0,204
570,19	-0,022
570,39	0,163
570,60	0,104
570,80	-0,055
571,00	-0,019
571,21	0,362
571,41	0,294
571,61	0,074
571,82	0,192
572,02	-0,011
572,22	-0,100
572,42	0,218
572,63	0,166
572,83	0,229
573,03	0,119
573,24	0,078
573,44	0,143
573,64	0,219
573,84	-0,150
574,05	0,033
574,25	0,126
574,45	0,129
574,66	0,295
574,86	0,067
575,06	0,234
575,26	0,157
575,47	0,318
575,67	0,056
575,87	0,277
576,07	0,037
576,28	0,214
576,48	0,170
576,68	0,436
576,88	0,112
577,09	0,074
577,29	0,276
577,49	0,086
577,69	0,004
577,90	0,064
578,10	0,088
578,30	0,224
578,50	0,040
578,71	0,103
578,91	0,033
579,11	0,250
579,31	0,214
579,52	0,223
579,72	0,033
579,92	0,181
580,12	0,059
580,33	0,063
580,53	0,099
580,73	0,130
580,93	0,262
581,13	0,230
581,34	0,044
581,54	0,218
581,74	0,067
581,94	0,166
582,15	0,262
582,35	0,049
582,55	0,137
582,75	0,161
582,95	0,140
583,16	0,011
583,36	0,092
583,56	0,100
583,76	0,077
583,96	0,143
584,17	0,033
584,37	0,029
584,57	0,186
584,77	-0,022
584,97	0,158
585,18	0,100
585,38	0,125
585,58	0,191
585,78	0,355
585,98	0,144
586,19	0,270
586,39	0,204
586,59	0,048
586,79	0,264
586,99	0,084
587,20	0,062
587,40	0,260
587,60	0,121
587,80	0,135
588,00	0,245
588,20	0,255
588,41	0,007
588,61	0,296
588,81	-0,026
589,01	0,181
589,21	0,289
589,41	0,065
589,62	0,157
589,82	0,164
590,02	0,058
590,22	0,077
590,42	0,281
590,62	0,161
590,83	0,102
591,03	-0,127
591,23	0,153
591,43	0,160
591,63	0,110
591,83	0,250
592,03	0,299
592,24	0,109
592,44	0,142
592,64	0,105
592,84	0,226
593,04	0,090
593,24	0,232
593,44	0,131
593,65	0,253
593,85	0,213
594,05	0,223
594,25	0,164
594,45	0,119
594,65	-0,007
594,85	-0,022
595,06	0,036
595,26	0,307
595,46	0,065
595,66	0,144
595,86	0,032
596,06	0,216
596,26	0,232
596,46	0,227
596,66	0,123
596,87	0,213
597,07	0,185
597,27	0,203
597,47	0,040
597,67	0,062
597,87	0,036
598,07	0,187
598,27	0,231
598,47	0,202
598,67	-0,004
598,88	0,198
599,08	0,177
599,28	0,188
599,48	0,059
599,68	0,138
599,88	0,193
600,08	0,163
600,28	0,229
600,48	0,100
600,68	0,041
600,88	0,138
601,09	0,150
601,29	0,247
601,49	-0,087
601,69	0,143
601,89	0,203
602,09	0,306
602,29	0,136
602,49	-0,019
602,69	0,342
602,89	0,019
603,09	0,219
603,29	0,163
603,49	0,257
603,69	0,072
603,90	0,138
604,10	0,232
604,30	0,205
604,50	0,213
604,70	0,058
604,90	0,084
605,10	0,171
605,30	0,126
605,50	0,080
605,70	0,131
605,90	0,019
606,10	0,088
606,30	0,117
606,50	0,224
606,70	0,185
606,90	0,023
607,10	0,089
607,30	0,210
607,50	0,182
607,70	0,315
607,90	0,184
608,10	0,141
608,30	0,123
608,50	0,089
608,70	0,329
608,90	0,089
609,11	-0,058
609,31	0,186
609,51	0,135
609,71	0,156
609,91	0,043
610,11	0,332
610,31	0,242
610,51	0,241
610,71	-0,008
610,91	0,000
611,11	0,157
611,31	0,160
611,51	0,039
611,71	0,127
611,91	0,268
612,11	0,412
612,31	0,380
612,51	0,173
612,71	0,004
612,91	0,075
613,11	0,095
613,31	0,225
613,51	0,287
613,71	0,286
613,91	0,294
614,11	0,267
614,31	0,382
614,50	0,423
614,70	0,181
614,90	0,311
615,10	0,280
615,30	0,346
615,50	0,052
615,70	0,464
615,90	0,356
616,10	0,136
616,30	0,270
616,50	0,086
616,70	0,208
616,90	0,134
617,10	0,155
617,30	0,223
617,50	0,182
617,70	0,056
617,90	0,167
618,10	0,158
618,30	0,115
618,50	0,313
618,70	0,252
618,90	0,219
619,10	-0,008
619,30	-0,112
619,49	0,241
619,69	0,218
619,89	0,146
620,09	-0,020
620,29	0,292
620,49	0,222
620,69	0,051
620,89	0,091
621,09	0,136
621,29	0,106
621,49	0,055
621,69	-0,004
621,89	0,182
622,09	0,195
622,29	0,175
622,48	0,258
622,68	0,117
622,88	0,323
623,08	0,186
623,28	0,004
623,48	0,117
623,68	0,250
623,88	0,194
624,08	0,039
624,28	0,216
624,48	0,328
624,67	0,074
624,87	0,191
625,07	0,219
625,27	0,146
625,47	0,246
625,67	0,311
625,87	0,214
626,07	0,275
626,27	0,126
626,47	0,094
626,66	0,177
626,86	0,147
627,06	0,172
627,26	0,067
627,46	0,026
627,66	0,132
627,86	0,097
628,06	0,247
628,25	0,248
628,45	0,226
628,65	0,164
628,85	0,063
629,05	0,355
629,25	0,059
629,45	0,349
629,65	0,033
629,84	0,056
630,04	0,221
630,24	0,211
630,44	0,102
630,64	0,224
630,84	0,203
631,04	0,240
631,23	0,081
631,43	0,162
631,63	0,075
631,83	0,129
632,03	0,262
632,23	0,205
632,42	0,151
632,62	0,250
632,82	0,125
633,02	0,168
633,22	0,182
633,42	0,223
633,62	0,117
633,81	-0,031
634,01	0,103
634,21	0,165
634,41	0,232
634,61	0,183
634,80	0,214
635,00	0,112
635,20	0,438
635,40	-0,058
635,60	0,201
635,80	0,354
635,99	0,317
636,19	0,131
636,39	0,106
636,59	0,159
636,79	0,360
636,98	0,324
637,18	0,206
637,38	0,266
637,58	0,145
637,78	0,356
637,97	-0,116
638,17	0,194
638,37	0,222
638,57	-0,011
638,77	0,261
638,96	-0,051
639,16	0,312
639,36	0,057
639,56	0,273
639,76	0,224
639,95	0,236
640,15	0,149
640,35	0,042
640,55	0,254
640,75	0,244
640,94	0,345
641,14	0,228
641,34	0,130
641,54	0,296
641,73	0,319
641,93	0,506
642,13	0,039
642,33	0,176
642,53	0,071
642,72	0,377
642,92	0,644
643,12	0,266
643,32	0,323
643,51	0,414
643,71	0,107
643,91	0,345
644,11	0,322
644,30	0,315
644,50	0,405
644,70	0,174
644,90	0,521
645,09	0,354
645,29	0,220
645,49	0,200
645,69	0,223
645,88	0,461
646,08	0,246
646,28	0,438
646,48	0,177
646,67	0,182
646,87	0,059
647,07	0,089
647,26	0,410
647,46	0,385
647,66	0,053
647,86	0,529
648,05	0,341
648,25	0,931
648,45	0,294
648,65	0,336
648,84	0,307
649,04	0,367
649,24	0,470
649,43	0,339
649,63	0,295
649,83	0,094
650,03	0,605
650,22	0,377
650,42	0,437
650,62	0,522
650,81	0,314
651,01	0,295
651,21	0,246
651,40	0,299
651,60	0,105
651,80	0,490
652,00	0,520
652,19	0,443
652,39	0,781
652,59	0,477
652,78	0,443
652,98	0,050
653,18	0,636
653,37	0,401
653,57	0,409
653,77	0,452
653,96	0,110
654,16	0,479
654,36	0,449
654,55	0,084
654,75	0,086
654,95	0,145
655,14	0,276
655,34	0,718
655,54	0,706
655,73	0,026
655,93	0,000
656,13	0,130
656,32	0,150
656,52	0,468
656,72	0,704
656,91	0,274
657,11	0,198
657,31	0,000
657,50	0,310
657,70	0,417
657,90	0,443
658,09	0,634
658,29	0,476
658,49	0,340
658,68	0,269
658,88	0,645
659,07	0,366
659,27	0,166
659,47	0,244
659,66	0,185
659,86	0,201
660,06	0,095
660,25	0,115
660,45	0,295
660,64	0,299
660,84	0,096
661,04	0,324
661,23	0,352
661,43	0,553
661,63	0,335
661,82	0,156
662,02	0,408
662,21	0,663
662,41	0,796
662,61	0,880
662,80	0,097
663,00	0,165
663,19	0,585
663,39	-0,009
663,59	0,603
663,78	0,705
663,98	0,556
664,17	0,187
664,37	0,345
664,57	0,274
664,76	0,467
664,96	0,451
665,15	0,460
665,35	0,330
665,55	0,308
665,74	0,380
665,94	0,464
666,13	0,299
666,33	0,481
666,53	0,493
666,72	0,270
666,92	0,486
667,11	0,200
667,31	0,008
667,50	0,240
667,70	0,263
667,90	0,041
668,09	0,328
668,29	0,360
668,48	0,333
668,68	0,341
668,87	0,516
669,07	0,048
669,26	0,329
669,46	0,553
669,66	0,309
669,85	0,434
670,05	0,245
670,24	0,208
670,44	0,110
670,63	0,226
670,83	0,452
671,02	0,188
671,22	0,070
671,42	0,247
671,61	0,401
671,81	0,162
672,00	0,545
672,20	0,122
672,39	0,353
672,59	0,188
672,78	0,181
672,98	-0,068
673,17	0,712
673,37	0,127
673,56	0,341
673,76	0,051
673,95	0,408
674,15	0,440
674,34	0,093
674,54	0,628
674,73	0,277
674,93	0,291
675,13	0,369
675,32	0,421
675,52	0,343
675,71	0,357
675,91	0,313
676,10	0,302
676,30	0,364
676,49	0,156
676,69	0,040
676,88	0,079
677,08	0,321
677,27	0,391
677,47	0,280
677,66	0,446
677,86	0,384
678,05	0,153
678,24	0,267
678,44	0,506
678,63	0,367
678,83	0,223
679,02	0,295
679,22	0,253
679,41	0,458
679,61	0,230
679,80	0,219
680,00	0,059
680,19	0,199
680,39	0,313
680,58	0,244
680,78	0,040
680,97	0,194
681,17	0,413
681,36	0,158
681,56	0,298
681,75	0,252
681,94	0,198
682,14	0,323
682,33	0,173
682,53	0,309
682,72	0,210
682,92	0,448
683,11	0,168
683,31	0,252
683,50	0,308
683,69	0,103
683,89	0,298
684,08	-0,137
684,28	-0,082
684,47	0,025
684,67	0,064
684,86	0,118
685,06	0,163
685,25	0,178
685,44	0,174
685,64	0,379
685,83	0,313
686,03	0,084
686,22	0,242
686,42	0,393
686,61	0,386
686,80	0,100
687,00	0,316
687,19	0,222
687,39	0,271
687,58	0,380
687,77	0,378
687,97	0,548
688,16	0,535
688,36	0,430
688,55	0,490
688,74	0,413
688,94	0,615
689,13	0,803
689,33	0,829
689,52	0,857
689,71	0,791
689,91	0,768
690,10	1,047
690,30	1,065
690,49	0,999
690,68	1,330
690,88	1,082
691,07	1,224
691,27	1,321
691,46	1,452
691,65	1,351
691,85	1,355
692,04	1,441
692,23	1,365
692,43	1,521
692,62	1,617
692,82	1,599
693,01	1,461
693,20	1,455
693,40	1,313
693,59	1,208
693,78	1,433
693,98	1,281
694,17	1,239
694,36	1,465
694,56	1,289
694,75	1,100
694,94	1,149
695,14	0,913
695,33	1,015
695,53	0,920
695,72	0,900
695,91	0,436
696,11	0,574
696,30	0,687
696,49	0,905
696,69	0,558
696,88	0,477
697,07	0,520
697,27	0,532
697,46	0,693
697,65	0,227
697,85	0,129
698,04	0,207
698,23	0,669
698,43	0,493
698,62	0,103
698,81	0,401
699,01	0,745
699,20	0,267
699,39	0,260
699,58	0,443
699,78	0,122
699,97	0,408
700,16	0,275
700,36	0,401
700,55	0,509
700,74	0,429
700,94	0,225
701,13	0,455
701,32	-0,097
701,52	0,259
701,71	0,502
701,90	0,630
702,09	0,477
702,29	0,639
702,48	0,319
702,67	0,785
702,87	1,133
703,06	0,601
703,25	0,779
703,44	0,054
703,64	0,263
703,83	0,974
704,02	0,980
704,22	0,354
704,41	0,077
704,60	0,779
704,79	0,305
704,99	0,728
705,18	1,372
705,37	0,862
705,56	0,724
705,76	1,066
705,95	0,916
706,14	0,155
706,33	1,302
706,53	1,095
706,72	0,565
706,91	1,198
707,11	1,547
707,30	0,719
707,49	0,912
707,68	0,887
707,88	0,704
708,07	0,536
708,26	0,273
708,45	-0,285
708,64	1,558
708,84	0,728
709,03	2,730
709,22	0,056
709,41	2,097
709,61	0,957
709,80	2,522
709,99	1,562
710,18	1,850
710,38	0,157
710,57	-0,350
710,76	-0,426
710,95	0,980
711,14	0,960
711,34	1,376
711,53	1,365
711,72	2,070
711,91	2,066
712,11	2,599
712,30	0,423
712,49	1,570
712,68	0,989
712,87	2,041
713,07	1,646
713,26	2,749
713,45	0,291
713,64	0,218
713,83	-0,704
714,03	0,448
714,22	2,534
714,41	1,490
714,60	1,566
714,79	0,000
714,99	-0,142
715,18	3,709
715,37	3,536
715,56	0,899
715,75	1,551
715,94	5,020
716,14	4,295
716,33	3,434
716,52	4,036
716,71	1,700
716,90	1,720
717,10	0,390
717,29	2,757
717,48	0,723
717,67	2,256
717,86	2,364
718,05	3,630
718,24	3,627
718,44	4,237
718,63	0,973
718,82	2,124
719,01	1,868
719,20	3,810
719,39	5,359
719,59	0,781
719,78	-0,802
719,97	1,205
720,16	3,696
720,35	1,308
720,54	-1,957
720,73	1,706
720,93	2,314
721,12	-1,509
721,31	2,770
721,50	4,364
721,69	3,048
721,88	4,071
722,07	0,750
722,27	2,420
722,46	4,423
722,65	0,794
722,84	1,129
723,03	3,161
723,22	0,403
723,41	1,910
723,60	-1,881
723,79	7,591
723,99	5,448
724,18	2,620
724,37	2,634
724,56	4,174
724,75	1,478
724,94	10,135
725,13	2,318
725,32	4,320
725,51	3,721
725,71	4,703
725,90	4,064
726,09	4,384
726,28	3,146
726,47	2,268
726,66	5,415
726,85	5,213
727,04	4,791
727,23	4,394
727,42	5,355
727,61	2,058
727,81	-1,081
728,00	5,925
728,19	4,225
728,38	-2,183
728,57	1,146
728,76	2,468
728,95	7,188
729,14	4,221
729,33	6,129
729,52	2,250
729,71	5,423
729,90	4,505
730,09	2,342
730,28	4,366
730,48	4,853
730,67	5,022
730,86	8,747
731,05	6,418
731,24	0,854
731,43	5,343
731,62	4,009
731,81	2,270
732,00	6,587
732,19	5,649
732,38	3,974
732,57	5,134
732,76	4,514
732,95	3,089
733,14	-0,143
733,33	0,132
733,52	6,039
733,71	3,300
733,90	2,260
734,09	7,432
734,28	1,837
734,47	4,583
734,66	2,540
734,85	2,000
735,04	4,850
735,23	8,123
735,42	8,470
735,61	4,810
735,81	5,769
736,00	-1,709
736,19	3,951
736,38	8,383
736,57	12,483
736,76	6,569
736,95	4,140
737,14	11,324
737,33	6,506
737,52	5,077
737,71	0,984
737,90	12,365
738,09	5,327
738,28	10,463
738,47	-0,182
738,66	4,968
738,85	5,556
739,04	2,058
739,22	2,508
739,41	-0,551
739,60	-0,171
739,79	0,540
739,98	-0,179
740,17	5,461
740,36	8,499
740,55	8,280
740,74	13,551
740,93	7,457
741,12	6,250
741,31	4,754
741,50	0,000
741,69	10,619
741,88	0,988
742,07	13,225
742,26	2,286
742,45	4,918
742,64	10,238
742,83	9,027
743,02	-3,368
743,21	15,162
743,40	-0,414
743,59	9,743
743,78	6,458
743,97	16,538
744,16	3,543
744,34	-3,730
744,53	10,103
744,72	3,967
744,91	0,210
745,10	5,241
745,29	6,048
745,48	0,455
745,67	7,289
745,86	11,038
746,05	6,398
746,24	5,155
746,43	11,563
746,62	11,422
746,81	12,360
747,00	8,315
747,18	9,586
747,37	13,895
747,56	9,176
747,75	-2,956
747,94	14,078
748,13	14,765
748,32	14,524
748,51	15,990
748,70	18,722
748,89	6,089
749,08	-7,267
749,26	8,370
749,45	7,239
749,64	11,335
749,83	15,730
750,02	10,326
750,21	11,196
750,40	10,526
750,59	5,094
750,78	18,454
750,96	18,508
751,15	9,112
751,34	-2,273
751,53	1,639
751,72	6,761
751,91	14,249
752,10	10,995
752,29	8,000
752,47	5,444
752,66	10,794
752,85	15,301
753,04	6,425
753,23	-1,238
753,42	13,477
753,61	12,539
753,80	-2,405
753,98	9,091
754,17	11,550
754,36	2,581
754,55	16,867
754,74	12,338
754,93	18,457
755,12	14,243
755,30	2,597
755,49	10,756
755,68	9,816
755,87	1,775
756,06	11,806
756,25	12,462
756,43	11,074
756,62	20,186
756,81	26,821
757,00	13,816
757,19	10,417
757,38	3,089
757,56	16,000
757,75	20,478
757,94	2,662
758,13	7,534
758,32	10,682
758,51	7,407
758,69	15,830
758,88	6,734
759,07	15,569
759,26	19,081
759,45	19,298
759,63	22,078
759,82	27,018
760,01	25,641
760,20	27,358
760,39	24,606
760,57	16,028
760,76	18,815
760,95	30,208
761,14	23,358
761,33	25,484
761,51	18,929
761,70	13,383
761,89	15,111
762,08	26,766
762,27	12,635
762,45	2,899
762,64	5,528
762,83	33,466
763,02	7,391
763,21	10,000
763,39	17,133
763,58	1,115
763,77	23,629
763,96	0,398
764,14	-3,333
764,33	-1,429
764,52	23,214
764,71	15,410
764,89	18,750
765,08	8,867
765,27	21,702
765,46	27,354
765,65	27,059
765,83	30,317
766,02	11,905
766,21	7,104
766,40	20,233
766,58	-1,587
766,77	2,752
766,96	25,203
767,15	10,504
767,33	17,391
767,52	24,454
767,71	4,386
767,90	16,583
768,08	30,539
768,27	34,959
768,46	31,579
768,64	7,407
768,83	26,961
769,02	-0,985
769,21	3,646
769,39	31,429
769,58	8,658
769,77	30,319
769,96	28,829
770,14	37,158
770,33	31,308
770,52	15,108
770,70	20,000
770,89	36,216
771,08	-5,422
771,27	4,737
771,45	27,059
771,64	36,970
771,83	22,059
772,01	24,742
772,20	9,453
772,39	21,519
772,57	16,418
772,76	34,459
772,95	28,736
773,14	42,177
773,32	10,734
773,51	9,524
773,70	23,741
773,88	36,129
774,07	28,934
774,26	29,839
774,44	44,361
774,63	44,910
774,82	16,883
775,00	48,598
775,19	30,952
775,38	27,660
775,56	32,919
775,75	32,967
775,94	61,667
776,12	29,412
776,31	19,549
776,50	19,178
776,68	40,860
776,87	35,407
777,06	17,610
777,24	37,815
777,43	31,551
777,62	43,820
777,80	52,830
777,99	57,500
778,18	12,644
778,36	44,068
778,55	39,831
778,74	19,531
778,92	19,136
779,11	44,545
779,29	12,766
779,48	19,149
779,67	31,532
779,85	6,140
780,04	50,725
780,23	35,119
780,41	61,864
780,60	40,940
780,79	25,806
780,97	20,915
781,16	12,234
781,34	31,081
781,53	14,286
781,72	21,622
781,90	5,988
782,09	16,279
782,28	14,286
782,46	50,000
782,65	34,507
782,83	8,805
783,02	60,526
783,21	56,391
783,39	26,050
783,58	47,826
783,76	43,537
783,95	63,380
784,14	75,000
784,32	16,471
784,51	60,135
784,69	11,719
784,88	42,991
785,06	37,086
785,25	50,355
785,44	80,645
785,62	55,714
785,81	23,148
785,99	27,820
786,18	36,036
786,37	49,451
786,55	21,528
786,74	10,000
786,92	4,196
787,11	11,111
787,29	19,643
787,48	58,065
787,67	39,623
787,85	73,418
788,04	50,450
788,22	15,842
788,41	56,693
788,59	55,263
788,78	28,571
788,96	50,413
789,15	42,500
789,34	36,538
789,52	-27,419
789,71	53,237
789,89	3,896
790,08	31,250
790,26	49,045
790,45	72,222
790,63	41,379
790,82	39,231
791,00	49,558
791,19	22,400
791,38	27,619
791,56	52,727
791,75	37,500
791,93	67,000
792,12	72,174
792,30	34,307
792,49	35,354
792,67	22,794
792,86	50,400
793,04	29,630
793,23	64,211
793,41	45,652
793,60	31,250
793,78	60,952
793,97	51,389
794,15	56,391
794,34	-4,000
794,52	9,677
794,71	17,829
794,89	24,242
795,08	37,600
795,26	65,333
795,45	55,556
795,63	57,258
795,82	26,374
796,00	72,000
796,19	12,195
796,37	32,061
796,56	-1,942
796,74	40,000
796,93	36,364
797,11	9,639
797,30	52,778
797,48	12,500
797,67	44,715
797,85	51,538
798,04	30,508
798,22	123,077
798,41	14,423
798,59	41,905
798,77	9,639
798,96	45,679
799,14	29,839
799,33	55,963
799,51	116,667
799,70	67,692
799,88	63,303
800,07	72,519
800,25	61,446
800,44	14,815
800,62	90,278
800,80	28,873
800,99	78,082
801,17	68,966
801,36	65,000
801,54	57,000
801,73	33,684
801,91	59,504
802,10	48,235
802,28	47,200
802,46	-21,053
802,65	35,971
802,83	81,333
803,02	33,065
803,20	122,892
803,39	71,264
803,57	25,984
803,75	52,033
803,94	42,063
804,12	65,517
804,31	-26,087
804,49	33,600
804,67	17,647
804,86	26,549
805,04	1,205
805,23	80,531
805,41	43,333
805,59	54,795
805,78	54,400
805,96	44,578
806,15	58,416
806,33	101,316
806,51	49,333
806,70	36,842
806,88	22,093
807,07	65,766
807,25	18,681
807,43	66,964
807,62	20,354
807,80	22,857
807,99	54,615
808,17	29,921
808,35	52,000
808,54	45,652
808,72	60,360
808,90	32,877
809,09	68,478
809,27	26,667
809,46	100,000
809,64	84,146
809,82	29,139
810,01	26,563
810,19	34,343
810,37	75,781
810,56	82,222
810,74	61,039
810,92	13,333
811,11	35,088
811,29	49,057
811,48	16,923
811,66	25,843
811,84	-5,495
812,03	22,131
812,21	31,579
812,39	27,826
812,58	63,158
812,76	43,165
812,94	-18,072
813,13	26,596
813,31	43,000
813,49	53,704
813,68	-0,909
813,86	25,843
814,04	31,405
814,23	46,988
814,41	41,573
814,59	66,019
814,78	38,971
814,96	45,912
815,14	26,168
815,33	39,535
815,51	5,512
815,69	39,048
815,87	39,604
816,06	40,000
816,24	34,783
816,42	33,824
816,61	31,447
816,79	39,655
816,97	21,591
817,16	29,586
817,34	40,476
817,52	31,405
817,70	39,604
817,89	31,111
818,07	44,521
818,25	22,449
818,44	55,128
818,62	13,953
818,80	8,271
818,98	40,127
819,17	43,697
819,35	47,872
819,53	36,567
819,72	52,532
819,90	32,558
820,08	15,385
820,26	40,517
820,45	18,792
820,63	87,500
820,81	25,600
820,99	17,021
821,18	29,932
821,36	50,000
821,54	44,828
821,73	32,778
821,91	35,965
822,09	21,774
822,27	47,097
822,46	28,676
822,64	48,800
822,82	31,492
823,00	6,077
823,19	35,714
823,37	33,333
823,55	26,705
823,73	40,690
823,91	39,130
824,10	32,796
824,28	52,261
824,46	9,709
824,64	15,132
824,83	51,553
825,01	22,000
825,19	33,065
825,37	30,435
825,56	30,189
825,74	38,265
825,92	38,217
826,10	55,682
826,28	25,000
826,47	16,316
826,65	34,752
826,83	55,172
827,01	35,838
827,19	8,929
827,38	44,444
827,56	23,295
827,74	21,788
827,92	40,698
828,10	1,923
828,29	63,314
828,47	36,179
828,65	20,000
828,83	3,030
829,01	28,261
829,20	52,747
829,38	40,909
829,56	37,500
829,74	30,818
829,92	27,778
830,10	36,207
830,29	14,573
830,47	36,683
830,65	27,439
830,83	22,321
831,01	32,738
831,20	32,524
831,38	25,359
831,56	25,116
831,74	45,498
831,92	60,526
832,10	21,429
832,29	58,784
832,47	8,427
832,65	28,922
832,83	34,272
833,01	25,500
833,19	25,792
833,37	44,344
833,56	19,409
833,74	33,333
833,92	33,796
834,10	24,066
834,28	36,287
834,46	33,032
834,64	33,796
834,83	26,818
835,01	36,100
835,19	32,000
835,37	14,463
835,55	15,625
835,73	32,020
835,91	22,878
836,09	25,856
836,28	19,188
836,46	19,200
836,64	31,203
836,82	19,005
837,00	23,913
837,18	26,022
837,36	13,546
837,54	32,273
837,72	5,172
837,91	15,672
838,09	20,717
838,27	19,667
838,45	16,312
838,63	36,029
838,81	-10,549
838,99	16,532
839,17	22,973
839,35	14,894
839,53	28,772
839,72	15,414
839,90	29,897
840,08	26,462
840,26	18,651
840,44	30,816
840,62	15,517
840,80	34,354
840,98	9,804
841,16	4,563
841,34	18,060
841,52	21,101
841,70	29,231
841,89	13,710
842,07	9,404
842,25	20,402
842,43	16,379
842,61	32,982
842,79	21,469
842,97	4,886
843,15	26,073
843,33	14,826
843,51	9,036
843,69	26,496
843,87	6,716
844,05	12,462
844,23	19,520
844,41	11,599
844,59	10,951
844,77	17,647
844,95	13,006
845,13	13,231
845,31	13,081
845,50	16,230
845,68	19,293
845,86	8,908
846,04	21,229
846,22	15,531
846,40	19,086
846,58	23,077
846,76	16,667
846,94	8,728
847,12	20,207
847,30	14,433
847,48	1,238
847,66	23,892
847,84	6,011
848,02	21,014
848,20	21,447
848,38	11,681
848,56	20,739
848,74	16,706
848,92	4,239
849,10	3,750
849,28	11,741
849,46	19,200
849,64	22,402
849,82	12,037
850,00	24,533
850,18	16,170
850,36	14,790
850,54	15,789
850,72	21,337
850,90	25,652
851,08	13,786
851,26	16,193
851,44	11,504
851,62	14,651
851,80	11,233
851,98	20,659
852,16	15,839
852,34	11,134
852,52	13,170
852,70	1,139
852,87	13,014
853,05	10,526
853,23	18,144
853,41	18,821
853,59	13,071
853,77	17,262
853,95	18,987
854,13	14,381
854,31	25,667
854,49	17,565
854,67	11,663
854,85	21,118
855,03	23,046
855,21	24,632
855,39	13,481
855,57	18,280
855,75	21,350
855,93	18,431
856,11	25,338
856,28	24,539
856,46	20,819
856,64	26,667
856,82	17,354
857,00	23,529
857,18	18,953
857,36	19,730
857,54	29,585
857,72	25,439
857,90	21,956
858,08	27,647
858,26	7,660
858,44	17,349
858,61	24,739
858,79	30,450
858,97	22,832
859,15	21,362
859,33	20,000
859,51	19,765
859,69	15,206
859,87	29,984
860,05	17,407
860,23	25,487
860,40	22,242
860,58	15,902
860,76	16,032
860,94	25,041
861,12	19,846
861,30	19,309
861,48	20,714
861,66	22,698
861,84	16,293
862,01	23,711
862,19	23,390
862,37	22,390
862,55	19,164
862,73	20,433
862,91	15,712
863,09	23,661
863,27	22,557
863,44	14,810
863,62	18,478
863,80	16,174
863,98	24,332
864,16	16,040
864,34	23,338
864,52	25,871
864,69	29,386
864,87	20,116
865,05	22,313
865,23	20,261
865,41	22,043
865,59	26,918
865,76	26,908
865,94	23,773
866,12	25,161
866,30	23,983
866,48	26,438
866,66	15,188
866,83	27,226
867,01	16,624
867,19	23,147
867,37	20,569
867,55	21,744
867,73	24,639
867,90	20,240
868,08	25,151
868,26	18,505
868,44	17,702
868,62	27,273
868,79	22,222
868,97	22,418
869,15	17,865
869,33	24,176
869,51	21,022
869,69	18,537
869,86	20,468
870,04	25,862
870,22	22,655
870,40	26,550
870,57	19,146
870,75	25,746
870,93	16,000
871,11	21,645
871,29	20,205
871,46	17,991
871,64	19,874
871,82	19,699
872,00	17,901
872,18	14,135
872,35	21,644
872,53	17,215
872,71	15,102
872,89	16,030
873,06	14,434
873,24	15,228
873,42	11,508
873,60	11,064
873,77	11,759
873,95	13,133
874,13	8,457
874,31	11,765
874,49	14,811
874,66	9,680
874,84	11,133
875,02	10,724
875,20	11,921
875,37	14,005
875,55	11,832
875,73	9,003
875,91	11,059
876,08	8,501
876,26	8,834
876,44	12,076
876,61	12,006
876,79	9,886
876,97	4,836
877,15	9,075
877,32	10,486
877,50	8,526
877,68	10,026
877,86	7,647
878,03	14,806
878,21	8,868
878,39	7,779
878,56	6,777
878,74	12,920
878,92	3,551
879,10	9,839
879,27	13,107
879,45	10,742
879,63	8,773
879,80	10,554
879,98	9,180
880,16	12,664
880,34	14,296
880,51	11,514
880,69	8,259
880,87	8,003
881,04	11,216
881,22	12,380
881,40	12,246
881,57	10,885
881,75	10,249
881,93	13,459
882,10	13,352
882,28	15,586
882,46	14,658
882,63	14,115
882,81	16,351
882,99	15,515
883,16	14,192
883,34	13,703
883,52	14,822
883,69	17,250
883,87	12,370
884,05	12,667
884,22	16,438
884,40	16,392
884,58	13,991
884,75	15,024
884,93	17,153
885,11	14,130
885,28	15,034
885,46	12,116
885,64	13,337
885,81	15,430
885,99	13,631
886,17	13,329
886,34	14,381
886,52	11,131
886,70	16,086
886,87	13,703
887,05	13,300
887,22	9,574
887,40	10,989
887,58	11,491
887,75	10,662
887,93	10,286
888,11	11,041
888,28	11,200
888,46	10,338
888,63	9,524
888,81	7,817
888,99	9,293
889,16	8,920
889,34	7,406
889,51	7,904
889,69	3,881
889,87	6,859
890,04	6,355
890,22	6,290
890,39	6,253
890,57	8,762
890,75	4,909
890,92	6,781
891,10	6,051
891,27	4,586
891,45	6,418
891,63	5,722
891,80	5,282
891,98	3,448
892,15	3,344
892,33	5,261
892,51	4,462
892,68	4,665
892,86	3,511
893,03	3,936
893,21	5,664
893,38	2,768
893,56	3,028
893,74	5,131
893,91	3,130
894,09	3,459
894,26	3,349
894,44	3,460
894,61	3,403
894,79	1,868
894,96	3,029
895,14	4,153
895,32	3,744
895,49	2,088
895,67	2,914
895,84	1,989
896,02	2,363
896,19	1,225
896,37	3,701
896,54	1,732
896,72	4,180
896,89	2,588
897,07	5,035
897,25	3,423
897,42	2,386
897,60	4,726
897,77	3,298
897,95	3,230
898,12	3,084
898,30	2,484
898,47	2,601
898,65	1,292
898,82	2,953
899,00	2,753
899,17	4,571
899,35	3,783
899,52	4,811
899,70	4,121
899,87	2,176
900,05	2,854
900,22	2,019
900,40	3,101
900,57	3,562
900,75	2,540
900,92	3,745
901,10	2,642
901,27	2,702
901,45	4,320
901,62	2,773
901,80	3,358
901,97	2,518
902,15	2,779
902,32	2,803
902,50	3,803
902,67	6,382
902,85	4,171
903,02	4,545
903,20	3,139
903,37	3,381
903,54	2,945
903,72	5,074
903,89	3,933
904,07	2,638
904,24	4,003
904,42	3,275
904,59	4,393
904,77	3,962
904,94	2,500
905,12	2,197
905,29	3,021
905,47	3,520
905,64	3,976
905,81	4,280
905,99	4,025
906,16	2,948
906,34	4,211
906,51	4,974
906,69	4,348
906,86	3,652
907,03	4,608
907,21	3,619
907,38	3,948
907,56	5,389
907,73	4,213
907,91	2,771
908,08	3,979
908,25	4,810
908,43	2,584
908,60	2,880
908,78	2,590
908,95	3,552
909,13	4,348
909,30	3,874
909,47	2,121
909,65	2,872
909,82	2,951
910,00	2,880
910,17	3,611
910,34	3,172
910,52	3,114
910,69	3,281
910,87	3,446
911,04	2,938
911,21	3,998
911,39	1,581
911,56	2,491
911,73	2,674
911,91	1,841
912,08	3,276
912,26	1,540
912,43	2,516
912,60	2,389
912,78	2,089
912,95	1,920
913,13	3,002
913,30	3,915
913,47	2,809
913,65	2,486
913,82	2,190
913,99	1,658
914,17	2,488
914,34	1,493
914,51	2,515
914,69	1,894
914,86	3,110
915,03	2,391
915,21	1,005
915,38	2,631
915,56	1,639
915,73	2,729
915,90	2,285
916,08	1,612
916,25	1,534
916,42	1,803
916,60	2,112
916,77	1,241
916,94	1,474
917,12	1,436
917,29	1,792
917,46	1,263
917,64	1,224
917,81	1,670
917,98	1,310
918,16	0,830
918,33	1,377
918,50	1,426
918,67	1,565
918,85	1,277
919,02	0,855
919,19	1,929
919,37	1,781
919,54	1,369
919,71	1,921
919,89	0,521
920,06	1,486
920,23	1,330
920,41	2,120
920,58	0,624
920,75	1,540
920,92	1,446
921,10	0,308
921,27	1,125
921,44	2,314
921,62	1,593
921,79	1,539
921,96	1,128
922,13	2,102
922,31	1,094
922,48	0,785
922,65	2,018
922,82	1,233
923,00	1,352
923,17	0,880
923,34	1,713
923,52	0,445
923,69	1,172
923,86	1,323
924,03	0,778
924,21	1,701
924,38	1,115
924,55	1,519
924,72	1,039
924,90	1,281
925,07	1,631
925,24	0,872
925,41	0,894
925,59	0,982
925,76	0,577
925,93	1,522
926,10	0,703
926,28	1,089
926,45	0,613
926,62	0,766
926,79	1,366
926,96	1,391
927,14	1,717
927,31	1,479
927,48	1,321
927,65	0,995
927,83	1,368
928,00	1,163
928,17	1,325
928,34	0,933
928,51	0,920
928,69	1,303
928,86	0,940
929,03	0,395
929,20	0,818
929,37	0,404
929,55	1,251
929,72	1,248
929,89	1,236
930,06	0,584
930,23	1,469
930,41	1,374
930,58	1,052
930,75	0,249
930,92	1,240
931,09	1,495
931,27	1,156
931,44	1,043
931,61	1,392
931,78	1,299
931,95	1,571
932,12	2,224
932,30	1,403
932,47	0,949
932,64	1,380
932,81	1,176
932,98	1,758
933,16	1,592
933,33	1,033
933,50	2,056
933,67	2,485
933,84	2,445
934,01	2,094
934,18	2,671
934,36	2,229
934,53	2,394
934,70	1,348
934,87	1,599
935,04	2,911
935,21	2,841
935,38	1,964
935,56	2,945
935,73	2,275
935,90	3,114
936,07	3,887
936,24	3,723
936,41	3,688
936,58	3,617
936,76	4,775
936,93	3,918
937,10	5,420
937,27	5,448
937,44	6,254
937,61	7,436
937,78	6,146
937,95	5,983
938,13	6,353
938,30	6,932
938,47	7,222
938,64	7,381
938,81	6,221
938,98	7,020
939,15	7,501
939,32	6,694
939,49	7,625
939,66	7,952
939,84	7,149
940,01	7,599
940,18	7,490
940,35	7,006
940,52	7,294
940,69	7,224
940,86	8,161
941,03	7,626
941,20	7,940
941,37	7,683
941,54	7,569
941,71	8,954
941,89	6,539
942,06	7,567
942,23	7,873
942,40	6,420
942,57	7,192
942,74	7,143
942,91	7,445
943,08	6,836
943,25	7,923
943,42	6,285
943,59	6,155
943,76	6,776
943,93	5,157
944,10	4,815
944,27	5,362
944,44	5,553
944,61	5,037
944,79	5,168
944,96	5,240
945,13	3,209
945,30	3,883
945,47	4,368
945,64	4,465
945,81	4,996
945,98	3,326
946,15	3,761
946,32	3,558
946,49	3,919
946,66	3,416
946,83	2,184
947,00	3,145
947,17	2,446
947,34	3,269
947,51	2,727
947,68	3,484
947,85	2,177
948,02	3,069
948,19	1,362
948,36	3,946
948,53	0,582
948,70	2,544
948,87	3,026
949,04	3,820
949,21	2,473
949,38	2,582
949,55	4,278
949,72	1,367
949,89	4,110
950,06	1,329
950,23	2,422
950,40	1,526
950,57	2,419
950,74	2,608
950,91	2,568
951,08	1,987
951,25	2,160
951,42	3,014
951,59	2,660
951,76	0,836
951,93	2,618
952,10	1,653
952,27	2,450
952,44	4,401
952,61	1,493
952,77	2,837
952,94	3,450
953,11	2,845
953,28	3,827
953,45	6,570
953,62	4,963
953,79	3,012
953,96	3,968
954,13	4,127
954,30	5,765
954,47	4,406
954,64	3,488
954,81	6,495
954,98	3,371
955,15	3,507
955,32	5,223
955,49	3,723
955,65	4,601
955,82	8,076
955,99	7,931
956,16	8,980
956,33	3,675
956,50	5,973
956,67	5,229
956,84	9,117
957,01	6,343
957,18	6,008
957,35	6,766
957,52	5,473
957,68	8,581
957,85	6,985
958,02	10,448
958,19	8,716
958,36	11,005
958,53	7,743
958,70	12,930
958,87	8,483
959,04	7,157
959,21	14,386
959,37	13,021
959,54	11,728
959,71	12,377
959,88	10,814
960,05	10,128
960,22	14,465
960,39	12,814
960,56	13,811
960,72	10,803
960,89	12,886
961,06	15,651
961,23	8,257
961,40	11,160
961,57	16,773
961,74	14,747
961,90	13,353
962,07	18,834
962,24	16,212
962,41	18,276
962,58	16,890
962,75	21,709
962,92	17,193
963,08	15,417
963,25	7,171
963,42	15,261
963,59	16,838
963,76	24,652
963,93	21,792
964,10	21,267
964,26	16,905
964,43	6,744
964,60	17,169
964,77	27,069
964,94	18,025
965,10	1,393
965,27	18,436
965,44	20,635
965,61	21,233
965,78	18,634
965,95	29,602
966,11	21,515
966,28	25,140
966,45	13,072
966,62	16,028
966,79	10,239
966,95	20,641
967,12	27,619
967,29	23,457
967,46	31,673
967,63	27,059
967,79	34,228
967,96	35,321
968,13	30,952
968,30	32,510
968,47	32,308
968,63	12,255
968,80	37,548
968,97	20,231
969,14	26,554
969,31	21,939
969,47	21,739
969,64	16,484
969,81	16,129
969,98	18,421
970,14	17,204
970,31	28,302
970,48	42,953
970,65	28,099
970,81	10,490
970,98	35,417
971,15	49,091
971,32	32,576
971,48	57,143
971,65	7,947
971,82	41,818
971,99	43,671
972,15	13,953
972,32	62,500
972,49	38,525
972,66	23,140
972,82	26,712
972,99	62,500
973,16	60,927
973,33	65,926
973,49	9,756
973,66	59,048
973,83	111,111
974,00	84,810
974,16	76,364
974,33	94,667
974,50	45,455
974,67	59,524
974,83	100,000
975,00	118,182
975,17	70,968
975,33	66,667
975,50	21,311
975,67	92,308
975,84	48,780
976,00	72,368
976,17	123,913
976,34	84,706
976,50	16,484
976,67	94,048
976,84	85,417
977,00	41,026
977,17	131,111
977,34	163,462
977,50	69,048
977,67	89,412
977,84	132,203
978,01	59,459
978,17	58,621
978,34	114,815
978,51	76,000
978,67	110,204
978,84	89,091
979,01	55,263
979,17	8,571
979,34	160,870
979,51	159,091
979,67	212,500
979,84	167,797
980,01	138,462
980,17	29,412
980,34	50,685
980,51	344,444
980,67	-2,222
980,84	74,286
981,01	155,882
981,17	51,471
981,34	85,714
981,50	132,632
981,67	192,857
981,84	92,857
982,00	4600,000
982,17	118,750
982,34	139,024
982,50	0,000
982,67	-357,143
982,84	320,000
983,00	118,519
983,17	-714,286
983,33	622,222
983,50	41,463
983,67	42,029
983,83	452,381
984,00	339,130
984,17	655,556
984,33	-385,714
984,50	89,189
984,66	18,750
984,83	612,500
985,00	100,000
985,16	141,935
985,33	2200,000
985,49	138,372
985,66	97,500
985,83	-2100,000
985,99	200,000
986,16	231,579
986,32	104,110
986,49	-740,000
986,66	460,000
986,82	163,636
986,99	-400,000
987,15	160,606
987,32	300,000
987,49	164,286
987,65	-104,348
987,82	-35,000
987,98	153,030
988,15	-42,857
988,31	240,000
988,48	70,588
988,65	590,000
988,81	107,273
988,98	197,297
989,14	30,000
989,31	106,780
989,47	-25,000
989,64	283,333
989,80	127,660
989,97	143,636
990,14	342,857
990,30	-487,500
990,47	-95,833
990,63	157,895
990,80	950,000
990,96	525,000
991,13	90,000
991,29	80,392
991,46	137,500
991,62	0,000
991,79	-180,000
991,95	182,353
992,12	666,667
992,29	-90,476
992,45	202,381
992,62	-107,143
992,78	-550,000
992,95	96,774
993,11	725,000
993,28	-5400,000
993,44	-155,172
993,61	164,912
993,77	0,000
993,94	279,487
994,10	257,143
994,27	-44,737
994,43	237,500
994,60	721,429
994,76	112,121
994,93	-500,000
995,09	-368,750
995,26	262,500
995,42	337,500
995,59	143,333
995,75	-150,000
995,92	-642,857
996,08	-1220,000
996,25	163,636
996,41	580,000
996,58	328,000
996,74	-790,000
996,91	87,097
997,07	252,000
997,23	119,608
997,40	766,667
997,56	-1433,333
997,73	230,435
997,89	880,000
998,06	135,088
998,22	197,872
998,39	142,857
998,55	568,421
998,72	-5600,000
998,88	142,000
999,05	460,000
999,21	176,471
999,37	237,209
999,54	190,323
999,70	195,238
999,87	433,333
1000,03	273,333
1000,20	371,429
1000,36	-575,000
1000,52	1050,000
1000,69	336,000
1000,85	-341,667
1001,02	147,619
1001,18	800,000
1001,35	0,000
1001,51	292,857
1001,67	310,000
1001,84	241,463
1002,00	-490,909
1002,17	1025,000
1002,33	-600,000
1002,50	675,000
1002,66	1075,000
1002,82	207,317
1002,99	-104,545
1003,15	-3400,000
1003,32	-85,714
1003,48	-1200,000
1003,64	200,000
1003,81	-52,632
1003,97	142,029
1004,14	-74,545
1004,30	218,182
1004,46	-8700,000
1004,63	-92,308
1004,79	191,892
1004,95	-980,000
1005,12	-369,231
1005,28	102,778
1005,45	-800,000
1005,61	346,154
1005,77	-414,286
1005,94	158,696
1006,10	-190,000
1006,26	-40,741
1006,43	151,515
1006,59	258,065
1006,76	-152,000
1006,92	152,174
1007,08	59,091
1007,25	266,667
1007,41	72,727
1007,57	-300,000
1007,74	265,217
1007,90	-50,000
1008,06	-233,333
1008,23	-226,316
1008,39	155,556
1008,55	96,471
1008,72	-762,500
1008,88	-57,143
1009,04	-822,222
1009,21	159,375
1009,37	377,419
1009,53	-285,000
1009,70	-27,273
1009,86	242,105
1010,02	184,091
1010,19	420,000
1010,35	3300,000
1010,51	185,714
1010,68	431,818
1010,84	330,000
1011,00	642,857
1011,17	2900,000
1011,33	111,538
1011,49	306,250
1011,66	300,000
1011,82	-525,000
1011,98	353,333
1012,14	246,154
1012,31	188,636
1012,47	-585,714
1012,63	7500,000
1012,80	27,778
1012,96	155,556
1013,12	-137,037
1013,29	245,833
1013,45	-50,000
1013,61	-1000,000
1013,77	-700,000
1013,94	175,000
1014,10	2100,000
1014,26	67,647
1014,43	307,895
1014,59	0,000
1014,75	490,000
1014,91	205,714
1015,08	242,308
1015,24	206,667
1015,40	420,000
1015,56	282,353
1015,73	191,837
1015,89	333,333
1016,05	245,946
1016,21	196,296
1016,38	215,789
1016,54	-300,000
1016,70	231,579
1016,86	-530,769
1017,03	0,000
1017,19	1312,500
1017,35	243,333
1017,51	533,333
1017,68	585,714
1017,84	231,579
1018,00	171,429
1018,16	-456,250
1018,33	618,182
1018,49	121,429
1018,65	-318,182
1018,81	-80,488
1018,97	423,077
1019,14	-642,857
1019,30	223,810
1019,46	128,205
1019,62	2550,000
1019,79	-471,429
1019,95	-575,000
1020,11	440,000
1020,27	87,500
1020,43	-850,000
1020,60	0,000
1020,76	129,412
1020,92	8300,000
1021,08	-73,333
1021,24	-1450,000
1021,41	209,091
1021,57	-258,333
1021,73	0,000
1021,89	-309,091
1022,05	194,286
1022,21	-123,077
1022,38	342,105
1022,54	1120,000
1022,70	277,778
1022,86	-500,000
1023,02	455,556
1023,19	-285,000
1023,35	118,868
1023,51	216,129
1023,67	189,474
1023,83	263,636
1023,99	242,857
1024,16	-80,000
1024,32	250,000
1024,48	232,653
1024,64	-440,000
1024,80	391,667
1024,96	392,308
1025,12	833,333
1025,29	-1050,000
1025,45	116,667
1025,61	2800,000
1025,77	223,810
1025,93	-138,462
1026,09	2750,000
1026,26	-1100,000
1026,42	-1625,000
1026,58	132,692
1026,74	671,429
1026,90	384,211
1027,06	-650,000
1027,22	-475,000
1027,38	511,111
1027,55	12,000
1027,71	525,000
1027,87	172,500
1028,03	140,909
1028,19	-172,727
1028,35	81,081
1028,51	-0,000
1028,67	-40,000
1028,83	104,762
1029,00	207,143
1029,16	-613,333
1029,32	382,353
1029,48	3900,000
1029,64	971,429
1029,80	1200,000
1029,96	133,333
1030,12	-137,500
1030,28	1600,000
1030,44	-3200,000
1030,61	365,625
1030,77	-147,826
1030,93	39,535
1031,09	-257,143
1031,25	-488,889
1031,41	-1800,000
1031,57	-157,895
1031,73	409,091
1031,89	-60,606
1032,05	671,429
1032,21	650,000
1032,37	-70,588
1032,53	-165,000
1032,69	-3400,000
1032,86	1133,333
1033,02	125,000
1033,18	-361,538
1033,34	-315,385
1033,50	235,484
1033,66	-355,556
1033,82	371,429
1033,98	-194,118
1034,14	544,444
1034,30	-131,818
1034,46	233,333
1034,62	483,333
1034,78	122,222
1034,94	-38,710
1035,10	-263,636
1035,26	-311,111
1035,42	82,857
1035,58	1020,000
1035,74	-83,333
1035,90	-208,333
1036,06	160,377
1036,22	-172,000
1036,38	660,000
1036,54	140,000
1036,70	-2900,000
1036,86	-264,286
1037,02	-200,000
1037,18	-200,000
1037,34	234,783
1037,50	-373,333
1037,66	-2500,000
1037,82	-200,000
1037,98	309,524
1038,14	-103,448
1038,30	30,769
1038,46	91,667
1038,62	22,581
1038,78	126,190
1038,94	-57,895
1039,10	-125,000
1039,26	-121,053
1039,42	-985,714
1039,58	158,491
1039,74	140,625
1039,90	-56,410
1040,06	341,176
>>>>>End Processed Spectral Data<<<<<
