SpectraSuite Data File
++++++++++++++++++++++++++++++++++++
Date: Thu Feb 02 17:27:49 EET 2017
User: optolab
Dark Spectrum Present: Yes
Reference Spectrum Present: Yes
Number of Sampled Component Spectra: 1
Spectrometers: USB4C02475
Integration Time (usec): 100000 (USB4C02475)
Spectra Averaged: 1 (USB4C02475)
Boxcar Smoothing: 0 (USB4C02475)
Correct for Electrical Dark: No (USB4C02475)
Strobe/Lamp Enabled: No (USB4C02475)
Correct for Detector Non-linearity: No (USB4C02475)
Correct for Stray Light: No (USB4C02475)
Number of Pixels in Processed Spectrum: 3648
>>>>>Begin Processed Spectral Data<<<<<
344,91	-800,000
345,13	-800,000
345,35	-800,000
345,57	-5,882
345,79	30,435
346,00	-14,706
346,22	-785,714
346,44	-48,485
346,66	144,681
346,87	404,348
347,09	376,923
347,31	6400,000
347,53	-1625,000
347,74	-148,837
347,96	-1142,857
348,18	323,529
348,40	576,471
348,61	-223,077
348,83	5800,000
349,05	187,179
349,27	541,176
349,48	-3050,000
349,70	428,571
349,92	247,619
350,14	83,784
350,35	-115,385
350,57	-366,667
350,79	-15,385
351,01	-600,000
351,22	410,000
351,44	625,000
351,66	366,667
351,87	766,667
352,09	114,474
352,31	223,214
352,53	165,714
352,74	-728,571
352,96	247,368
353,18	100,000
353,40	-325,000
353,61	673,333
353,83	208,333
354,05	259,375
354,26	171,429
354,48	-1820,000
354,70	400,000
354,92	416,667
355,13	-65,116
355,35	214,815
355,57	140,625
355,78	-42,857
356,00	104,255
356,22	150,000
356,44	190,698
356,65	200,000
356,87	188,889
357,09	391,429
357,30	154,545
357,52	-1500,000
357,74	319,355
357,95	185,714
358,17	60,870
358,39	332,000
358,60	133,333
358,82	77,273
359,04	184,615
359,26	81,818
359,47	-238,462
359,69	253,571
359,91	404,000
360,12	380,000
360,34	88,889
360,56	-1000,000
360,77	977,778
360,99	366,667
361,21	173,913
361,42	-2350,000
361,64	-196,296
361,86	92,537
362,07	613,333
362,29	215,000
362,51	127,027
362,72	-1220,000
362,94	233,333
363,16	154,286
363,37	609,091
363,59	-7400,000
363,81	637,500
364,02	150,667
364,24	254,545
364,46	438,095
364,67	147,619
364,89	394,118
365,11	205,405
365,32	314,815
365,54	143,750
365,76	150,000
365,97	195,122
366,19	150,877
366,41	1010,000
366,62	133,000
366,84	525,000
367,05	62,745
367,27	1420,000
367,49	276,923
367,70	444,444
367,92	18,750
368,14	-23,077
368,35	114,706
368,57	139,394
368,79	92,308
369,00	67,949
369,22	544,444
369,43	478,947
369,65	-113,793
369,87	-152,941
370,08	230,000
370,30	328,571
370,51	209,091
370,73	144,444
370,95	435,000
371,16	147,368
371,38	139,623
371,60	253,333
371,81	127,174
372,03	-1800,000
372,24	-112,500
372,46	800,000
372,68	179,412
372,89	117,431
373,11	120,930
373,32	107,563
373,54	690,909
373,76	472,222
373,97	300,000
374,19	-352,632
374,40	141,429
374,62	294,118
374,84	395,833
375,05	198,077
375,27	170,270
375,48	65,432
375,70	364,706
375,92	176,786
376,13	168,421
376,35	245,833
376,56	255,000
376,78	85,714
376,99	300,000
377,21	200,000
377,43	230,303
377,64	130,000
377,86	306,250
378,07	97,727
378,29	136,111
378,51	97,619
378,72	-190,909
378,94	158,696
379,15	161,364
379,37	56,250
379,58	53,333
379,80	59,091
380,01	120,000
380,23	295,652
380,45	166,667
380,66	116,667
380,88	137,838
381,09	347,826
381,31	258,974
381,52	191,304
381,74	196,429
381,95	260,714
382,17	380,000
382,39	120,968
382,60	311,765
382,82	275,862
383,03	2366,667
383,25	70,370
383,46	266,667
383,68	127,660
383,89	313,636
384,11	116,438
384,32	123,684
384,54	-942,857
384,76	214,706
384,97	195,000
385,19	268,421
385,40	221,875
385,62	51,613
385,83	174,468
386,05	428,571
386,26	392,308
386,48	476,923
386,69	138,889
386,91	450,000
387,12	61,538
387,34	55,932
387,55	280,000
387,77	340,000
387,98	163,265
388,20	150,704
388,41	50,794
388,63	150,000
388,84	162,500
389,06	102,326
389,27	253,125
389,49	74,699
389,70	137,288
389,92	263,636
390,13	241,026
390,35	47,917
390,56	87,500
390,78	27,273
390,99	120,000
391,21	97,727
391,42	132,609
391,64	-50,000
391,85	158,621
392,07	-57,143
392,28	192,308
392,50	1200,000
392,71	5900,000
392,93	91,935
393,14	221,739
393,36	119,231
393,57	108,333
393,79	126,984
394,00	128,767
394,22	94,000
394,43	278,571
394,65	260,714
394,86	215,625
395,08	-250,000
395,29	87,234
395,50	-1300,000
395,72	314,286
395,93	236,000
396,15	-92,857
396,36	110,000
396,58	-290,476
396,79	162,791
397,01	228,571
397,22	95,652
397,44	204,255
397,65	104,054
397,87	174,286
398,08	215,385
398,29	316,667
398,51	304,878
398,72	202,174
398,94	213,953
399,15	50,000
399,37	134,783
399,58	115,873
399,80	86,667
400,01	229,412
400,22	0,000
400,44	276,190
400,65	101,370
400,87	8400,000
401,08	92,135
401,30	166,667
401,51	110,909
401,72	104,839
401,94	170,732
402,15	87,755
402,37	159,091
402,58	120,930
402,80	337,500
403,01	55,556
403,22	132,530
403,44	175,000
403,65	134,694
403,87	122,667
404,08	123,077
404,30	146,875
404,51	95,714
404,72	918,182
404,94	124,096
405,15	110,448
405,37	125,275
405,58	183,871
405,79	371,429
406,01	113,333
406,22	136,905
406,44	177,193
406,65	103,571
406,86	114,000
407,08	149,383
407,29	124,000
407,51	111,538
407,72	91,089
407,93	141,772
408,15	110,227
408,36	331,429
408,58	115,833
408,79	89,922
409,00	102,128
409,22	80,392
409,43	148,649
409,64	94,231
409,86	139,773
410,07	122,609
410,29	102,667
410,50	84,127
410,71	94,355
410,93	135,644
411,14	135,514
411,35	118,056
411,57	95,833
411,78	100,000
412,00	110,667
412,21	100,885
412,42	104,390
412,64	138,889
412,85	107,772
413,06	111,161
413,28	103,922
413,49	113,023
413,70	96,996
413,92	119,524
414,13	111,462
414,34	92,937
414,56	122,128
414,77	116,236
414,98	98,587
415,20	113,978
415,41	118,506
415,63	108,547
415,84	109,972
416,05	112,952
416,27	104,735
416,48	100,237
416,69	117,442
416,91	106,133
417,12	93,213
417,33	103,612
417,55	108,200
417,76	108,034
417,97	99,625
418,19	104,393
418,40	98,721
418,61	97,770
418,83	105,282
419,04	91,473
419,25	99,203
419,46	107,223
419,68	94,100
419,89	91,041
420,10	102,419
420,32	103,709
420,53	99,642
420,74	100,717
420,96	99,408
421,17	95,097
421,38	97,336
421,60	102,465
421,81	91,291
422,02	89,500
422,23	96,480
422,45	99,617
422,66	92,809
422,87	91,858
423,09	99,657
423,30	96,857
423,51	94,052
423,73	98,407
423,94	96,968
424,15	96,783
424,36	96,737
424,58	97,376
424,79	99,480
425,00	97,891
425,22	98,118
425,43	100,232
425,64	102,117
425,85	98,140
426,07	96,476
426,28	101,815
426,49	103,713
426,71	93,321
426,92	97,092
427,13	97,683
427,34	98,378
427,56	99,619
427,77	96,522
427,98	96,668
428,19	99,147
428,41	100,000
428,62	96,937
428,83	97,159
429,04	99,692
429,26	96,998
429,47	100,000
429,68	96,983
429,89	95,781
430,11	96,991
430,32	97,549
430,53	97,889
430,74	99,446
430,96	96,454
431,17	100,428
431,38	100,669
431,59	98,853
431,81	97,584
432,02	96,063
432,23	97,206
432,44	96,580
432,66	93,911
432,87	93,680
433,08	94,856
433,29	94,361
433,51	94,467
433,72	93,977
433,93	93,459
434,14	91,242
434,35	89,264
434,57	86,401
434,78	86,078
434,99	82,567
435,20	83,478
435,42	80,075
435,63	81,612
435,84	84,650
436,05	83,221
436,26	84,817
436,48	87,744
436,69	88,302
436,90	85,568
437,11	85,416
437,32	83,105
437,54	81,186
437,75	76,899
437,96	73,288
438,17	67,945
438,38	59,299
438,60	52,017
438,81	42,478
439,02	32,945
439,23	24,482
439,44	16,710
439,66	10,607
439,87	6,554
440,08	4,346
440,29	3,120
440,50	2,342
440,72	1,596
440,93	1,523
441,14	1,537
441,35	0,992
441,56	1,400
441,77	1,042
441,99	1,204
442,20	1,314
442,41	1,021
442,62	0,720
442,83	0,913
443,04	1,058
443,26	0,958
443,47	1,210
443,68	0,834
443,89	1,072
444,10	1,020
444,31	1,319
444,53	1,191
444,74	1,141
444,95	0,693
445,16	0,780
445,37	0,992
445,58	0,997
445,80	0,800
446,01	1,028
446,22	0,883
446,43	0,735
446,64	0,666
446,85	0,868
447,06	0,920
447,28	0,806
447,49	0,823
447,70	0,733
447,91	1,044
448,12	0,635
448,33	0,665
448,54	0,628
448,76	0,948
448,97	0,737
449,18	0,672
449,39	0,727
449,60	0,599
449,81	1,095
450,02	0,958
450,23	0,727
450,45	0,899
450,66	0,722
450,87	0,704
451,08	0,919
451,29	0,892
451,50	0,745
451,71	0,923
451,92	0,962
452,13	1,096
452,35	0,811
452,56	0,653
452,77	0,885
452,98	1,061
453,19	0,828
453,40	0,624
453,61	1,153
453,82	0,666
454,03	0,691
454,25	0,579
454,46	0,809
454,67	0,843
454,88	0,507
455,09	0,898
455,30	0,612
455,51	0,599
455,72	1,032
455,93	0,744
456,14	0,721
456,35	0,495
456,56	0,659
456,78	0,772
456,99	0,872
457,20	0,504
457,41	0,522
457,62	0,748
457,83	0,819
458,04	0,887
458,25	0,388
458,46	0,686
458,67	1,076
458,88	0,588
459,09	0,629
459,30	0,490
459,51	0,732
459,73	0,514
459,94	0,741
460,15	0,492
460,36	0,570
460,57	0,566
460,78	0,636
460,99	0,503
461,20	0,441
461,41	0,661
461,62	0,374
461,83	0,302
462,04	0,474
462,25	0,566
462,46	0,351
462,67	0,399
462,88	0,490
463,09	0,303
463,30	0,551
463,51	0,437
463,72	0,615
463,93	0,546
464,15	0,543
464,36	0,453
464,57	0,297
464,78	0,476
464,99	0,604
465,20	0,333
465,41	0,420
465,62	0,515
465,83	0,472
466,04	0,526
466,25	0,489
466,46	0,546
466,67	0,479
466,88	0,439
467,09	0,477
467,30	0,361
467,51	0,351
467,72	0,355
467,93	0,498
468,14	0,421
468,35	0,552
468,56	0,442
468,77	0,301
468,98	0,494
469,19	0,374
469,40	0,352
469,61	0,492
469,82	0,393
470,03	0,334
470,24	0,435
470,45	0,442
470,66	0,694
470,87	0,577
471,08	0,486
471,29	0,385
471,50	0,521
471,71	0,404
471,92	0,522
472,13	0,525
472,34	0,418
472,55	0,667
472,76	0,573
472,97	0,577
473,18	0,526
473,39	0,593
473,60	0,202
473,81	0,526
474,01	0,483
474,22	0,662
474,43	0,521
474,64	0,589
474,85	0,447
475,06	0,576
475,27	0,617
475,48	0,605
475,69	0,671
475,90	0,397
476,11	0,514
476,32	0,524
476,53	0,614
476,74	0,490
476,95	0,582
477,16	0,465
477,37	0,780
477,58	0,416
477,79	0,644
478,00	0,362
478,21	0,865
478,41	0,456
478,62	0,706
478,83	0,451
479,04	0,651
479,25	0,360
479,46	0,597
479,67	0,489
479,88	0,463
480,09	0,674
480,30	0,549
480,51	0,722
480,72	0,435
480,93	0,609
481,14	0,752
481,34	0,685
481,55	0,622
481,76	0,708
481,97	0,594
482,18	0,693
482,39	0,591
482,60	0,851
482,81	0,503
483,02	0,764
483,23	0,885
483,44	0,805
483,65	0,717
483,85	0,811
484,06	1,045
484,27	0,817
484,48	0,763
484,69	0,911
484,90	0,984
485,11	1,011
485,32	0,911
485,53	1,089
485,73	1,065
485,94	1,330
486,15	1,559
486,36	1,924
486,57	2,425
486,78	3,701
486,99	5,357
487,20	7,834
487,41	11,684
487,61	16,805
487,82	23,326
488,03	30,253
488,24	38,793
488,45	47,359
488,66	56,562
488,87	65,602
489,08	73,509
489,28	78,680
489,49	82,025
489,70	86,136
489,91	89,224
490,12	89,552
490,33	90,791
490,54	92,297
490,74	92,519
490,95	92,399
491,16	92,373
491,37	91,515
491,58	92,024
491,79	92,887
492,00	93,411
492,20	93,941
492,41	93,818
492,62	93,663
492,83	94,664
493,04	94,549
493,25	94,254
493,45	94,287
493,66	94,757
493,87	95,114
494,08	94,000
494,29	94,062
494,50	95,173
494,70	93,750
494,91	94,493
495,12	94,181
495,33	94,237
495,54	94,796
495,75	94,398
495,95	94,230
496,16	94,482
496,37	95,124
496,58	96,574
496,79	96,515
496,99	96,245
497,20	96,981
497,41	96,404
497,62	96,761
497,83	95,502
498,04	95,673
498,24	96,361
498,45	95,785
498,66	95,576
498,87	95,884
499,08	94,898
499,28	94,301
499,49	94,067
499,70	94,051
499,91	93,823
500,12	93,667
500,32	93,318
500,53	94,074
500,74	94,259
500,95	94,540
501,15	93,004
501,36	95,300
501,57	95,446
501,78	95,261
501,99	96,051
502,19	96,386
502,40	97,347
502,61	97,539
502,82	97,346
503,02	98,746
503,23	98,026
503,44	97,773
503,65	96,903
503,86	97,621
504,06	97,372
504,27	98,134
504,48	96,064
504,69	96,266
504,89	95,791
505,10	95,905
505,31	95,422
505,52	95,458
505,72	95,183
505,93	94,662
506,14	93,814
506,35	93,863
506,55	92,547
506,76	91,644
506,97	91,322
507,18	89,897
507,38	88,970
507,59	90,557
507,80	89,522
508,01	89,170
508,21	89,419
508,42	90,570
508,63	91,208
508,84	90,084
509,04	90,519
509,25	89,911
509,46	89,590
509,67	89,261
509,87	89,087
510,08	88,556
510,29	87,128
510,49	86,112
510,70	83,858
510,91	81,644
511,12	77,401
511,32	73,002
511,53	67,954
511,74	61,458
511,94	53,754
512,15	45,245
512,36	36,652
512,57	28,071
512,77	21,053
512,98	14,805
513,19	10,510
513,39	6,941
513,60	4,844
513,81	3,433
514,01	2,399
514,22	1,886
514,43	1,482
514,64	1,347
514,84	1,033
515,05	1,106
515,26	0,983
515,46	0,846
515,67	0,756
515,88	0,791
516,08	0,800
516,29	0,664
516,50	0,686
516,70	0,797
516,91	0,794
517,12	0,987
517,32	0,786
517,53	0,594
517,74	0,797
517,95	0,809
518,15	0,897
518,36	0,848
518,57	0,893
518,77	0,678
518,98	1,036
519,19	0,707
519,39	0,797
519,60	0,494
519,80	0,720
520,01	0,565
520,22	0,788
520,42	0,664
520,63	0,750
520,84	0,805
521,04	0,796
521,25	0,726
521,46	0,785
521,66	0,643
521,87	0,687
522,08	0,859
522,28	0,868
522,49	0,775
522,70	0,793
522,90	0,696
523,11	0,621
523,31	0,652
523,52	0,784
523,73	0,668
523,93	0,837
524,14	0,689
524,35	0,762
524,55	0,806
524,76	0,692
524,97	0,886
525,17	0,765
525,38	0,916
525,58	0,616
525,79	0,622
526,00	0,644
526,20	0,800
526,41	0,736
526,61	0,797
526,82	0,648
527,03	0,819
527,23	0,813
527,44	0,738
527,64	0,672
527,85	0,527
528,06	0,720
528,26	0,795
528,47	0,869
528,68	1,073
528,88	0,688
529,09	0,537
529,29	1,021
529,50	0,824
529,70	0,866
529,91	0,764
530,12	0,750
530,32	0,734
530,53	0,849
530,73	0,706
530,94	0,826
531,15	0,796
531,35	0,767
531,56	0,895
531,76	0,863
531,97	0,793
532,17	0,839
532,38	0,942
532,59	0,785
532,79	1,060
533,00	0,701
533,20	0,844
533,41	0,639
533,61	0,556
533,82	0,627
534,03	0,702
534,23	0,854
534,44	0,883
534,64	0,724
534,85	0,813
535,05	0,611
535,26	0,685
535,46	0,690
535,67	0,822
535,88	0,805
536,08	0,868
536,29	0,812
536,49	0,809
536,70	0,843
536,90	0,940
537,11	0,994
537,31	0,853
537,52	0,937
537,72	0,779
537,93	0,827
538,13	0,759
538,34	0,921
538,55	0,867
538,75	0,854
538,96	0,520
539,16	0,792
539,37	0,809
539,57	0,959
539,78	0,865
539,98	0,808
540,19	0,877
540,39	0,713
540,60	0,591
540,80	0,703
541,01	0,858
541,21	0,833
541,42	0,757
541,62	0,808
541,83	0,873
542,03	0,827
542,24	0,852
542,44	0,905
542,65	0,822
542,85	0,994
543,06	0,890
543,26	0,719
543,47	0,768
543,67	0,804
543,88	0,937
544,08	0,624
544,29	0,837
544,49	0,665
544,70	0,649
544,90	0,955
545,11	0,850
545,31	0,801
545,52	0,925
545,72	0,656
545,93	0,728
546,13	0,716
546,34	0,901
546,54	0,859
546,75	0,750
546,95	1,105
547,15	0,734
547,36	0,887
547,56	0,612
547,77	0,867
547,97	0,910
548,18	0,685
548,38	0,782
548,59	0,742
548,79	0,945
549,00	0,694
549,20	0,852
549,41	0,810
549,61	0,890
549,81	0,806
550,02	0,933
550,22	0,760
550,43	0,597
550,63	0,723
550,84	0,827
551,04	0,724
551,25	0,766
551,45	0,841
551,65	0,839
551,86	0,736
552,06	0,872
552,27	0,717
552,47	0,925
552,68	1,078
552,88	0,850
553,08	0,817
553,29	1,153
553,49	0,927
553,70	1,349
553,90	1,061
554,11	1,161
554,31	0,942
554,51	1,239
554,72	1,261
554,92	1,330
555,13	1,578
555,33	1,636
555,53	2,037
555,74	2,574
555,94	3,520
556,15	4,909
556,35	6,474
556,56	8,541
556,76	11,981
556,96	16,737
557,17	21,806
557,37	28,465
557,58	35,397
557,78	43,468
557,98	51,300
558,19	60,479
558,39	67,564
558,59	75,452
558,80	81,095
559,00	85,431
559,21	90,118
559,41	90,802
559,61	92,971
559,82	95,327
560,02	95,120
560,23	96,486
560,43	96,527
560,63	97,088
560,84	97,003
561,04	97,520
561,24	96,797
561,45	96,583
561,65	96,919
561,85	98,828
562,06	97,461
562,26	97,515
562,47	98,176
562,67	97,509
562,87	97,543
563,08	97,863
563,28	97,130
563,48	97,041
563,69	96,027
563,89	96,724
564,09	94,762
564,30	94,982
564,50	93,496
564,70	93,914
564,91	93,190
565,11	92,475
565,31	92,961
565,52	93,307
565,72	92,504
565,92	92,820
566,13	92,662
566,33	93,442
566,53	94,228
566,74	93,931
566,94	94,846
567,14	96,742
567,35	96,577
567,55	97,170
567,75	95,462
567,96	96,756
568,16	97,578
568,36	97,497
568,57	96,792
568,77	96,883
568,97	96,743
569,18	96,680
569,38	95,252
569,58	96,442
569,79	96,202
569,99	95,318
570,19	95,300
570,39	94,845
570,60	94,237
570,80	94,617
571,00	95,407
571,21	95,547
571,41	94,630
571,61	94,915
571,82	94,376
572,02	94,308
572,22	94,069
572,42	94,112
572,63	93,473
572,83	93,736
573,03	94,246
573,24	95,087
573,44	94,424
573,64	92,893
573,84	93,704
574,05	92,851
574,25	92,398
574,45	91,601
574,66	92,144
574,86	92,638
575,06	91,368
575,26	92,605
575,47	91,367
575,67	91,892
575,87	90,927
576,07	91,575
576,28	91,426
576,48	91,462
576,68	90,786
576,88	91,734
577,09	88,624
577,29	88,325
577,49	86,857
577,69	84,683
577,90	82,376
578,10	78,482
578,30	74,307
578,50	69,565
578,71	66,020
578,91	61,336
579,11	55,429
579,31	51,871
579,52	46,287
579,72	40,107
579,92	34,348
580,12	27,795
580,33	22,010
580,53	16,459
580,73	12,122
580,93	8,700
581,13	6,257
581,34	4,368
581,54	3,186
581,74	2,197
581,94	1,894
582,15	1,414
582,35	1,017
582,55	1,025
582,75	0,841
582,95	0,695
583,16	0,750
583,36	0,532
583,56	0,613
583,76	0,582
583,96	0,551
584,17	0,437
584,37	0,598
584,57	0,505
584,77	0,553
584,97	0,481
585,18	0,615
585,38	0,472
585,58	0,606
585,78	0,522
585,98	0,574
586,19	0,482
586,39	0,702
586,59	0,450
586,79	0,663
586,99	0,355
587,20	0,402
587,40	0,542
587,60	0,405
587,80	0,441
588,00	0,502
588,20	0,543
588,41	0,527
588,61	0,739
588,81	0,467
589,01	0,439
589,21	0,619
589,41	0,370
589,62	0,501
589,82	0,325
590,02	0,566
590,22	0,585
590,42	0,595
590,62	0,568
590,83	0,420
591,03	0,203
591,23	0,508
591,43	0,743
591,63	0,551
591,83	0,474
592,03	0,485
592,24	0,702
592,44	0,394
592,64	0,461
592,84	0,491
593,04	0,365
593,24	0,540
593,44	0,548
593,65	0,563
593,85	0,574
594,05	0,378
594,25	0,396
594,45	0,533
594,65	0,371
594,85	0,292
595,06	0,447
595,26	0,664
595,46	0,374
595,66	0,295
595,86	0,553
596,06	0,541
596,26	0,366
596,46	0,482
596,66	0,377
596,87	0,517
597,07	0,572
597,27	0,486
597,47	0,522
597,67	0,438
597,87	0,308
598,07	0,337
598,27	0,400
598,47	0,455
598,67	0,330
598,88	0,586
599,08	0,377
599,28	0,487
599,48	0,441
599,68	0,533
599,88	0,534
600,08	0,441
600,28	0,553
600,48	0,437
600,68	0,437
600,88	0,568
601,09	0,649
601,29	0,519
601,49	0,346
601,69	0,617
601,89	0,452
602,09	0,396
602,29	0,482
602,49	0,276
602,69	0,548
602,89	0,324
603,09	0,405
603,29	0,562
603,49	0,460
603,69	0,537
603,90	0,376
604,10	0,509
604,30	0,557
604,50	0,563
604,70	0,381
604,90	0,392
605,10	0,517
605,30	0,391
605,50	0,322
605,70	0,611
605,90	0,422
606,10	0,522
606,30	0,424
606,50	0,665
606,70	0,359
606,90	0,337
607,10	0,509
607,30	0,419
607,50	0,337
607,70	0,517
607,90	0,449
608,10	0,652
608,30	0,409
608,50	0,563
608,70	0,537
608,90	0,446
609,11	0,343
609,31	0,505
609,51	0,532
609,71	0,360
609,91	0,308
610,11	0,549
610,31	0,542
610,51	0,439
610,71	0,473
610,91	0,502
611,11	0,611
611,31	0,607
611,51	0,465
611,71	0,376
611,91	0,679
612,11	0,412
612,31	0,613
612,51	0,405
612,71	0,363
612,91	0,285
613,11	0,525
613,31	0,368
613,51	0,589
613,71	0,445
613,91	0,528
614,11	0,618
614,31	0,422
614,50	0,702
614,70	0,390
614,90	0,435
615,10	0,354
615,30	0,521
615,50	0,465
615,70	0,559
615,90	0,384
616,10	0,507
616,30	0,528
616,50	0,326
616,70	0,395
616,90	0,423
617,10	0,597
617,30	0,422
617,50	0,522
617,70	0,347
617,90	0,397
618,10	0,451
618,30	0,345
618,50	0,452
618,70	0,477
618,90	0,366
619,10	0,421
619,30	0,136
619,49	0,561
619,69	0,388
619,89	0,474
620,09	0,461
620,29	0,510
620,49	0,436
620,69	0,375
620,89	0,381
621,09	0,413
621,29	0,402
621,49	0,344
621,69	0,351
621,89	0,597
622,09	0,566
622,29	0,472
622,48	0,497
622,68	0,363
622,88	0,417
623,08	0,476
623,28	0,415
623,48	0,413
623,68	0,497
623,88	0,415
624,08	0,464
624,28	0,553
624,48	0,505
624,67	0,341
624,87	0,360
625,07	0,602
625,27	0,304
625,47	0,316
625,67	0,354
625,87	0,332
626,07	0,424
626,27	0,365
626,47	0,518
626,66	0,304
626,86	0,449
627,06	0,535
627,26	0,386
627,46	0,149
627,66	0,389
627,86	0,509
628,06	0,427
628,25	0,459
628,45	0,431
628,65	0,437
628,85	0,395
629,05	0,609
629,25	0,242
629,45	0,356
629,65	0,383
629,84	0,293
630,04	0,393
630,24	0,418
630,44	0,306
630,64	0,413
630,84	0,337
631,04	0,446
631,23	0,419
631,43	0,377
631,63	0,281
631,83	0,345
632,03	0,362
632,23	0,418
632,42	0,415
632,62	0,389
632,82	0,369
633,02	0,534
633,22	0,406
633,42	0,265
633,62	0,234
633,81	0,220
634,01	0,447
634,21	0,514
634,41	0,519
634,61	0,270
634,80	0,567
635,00	0,591
635,20	0,462
635,40	0,217
635,60	0,436
635,80	0,457
635,99	0,493
636,19	0,477
636,39	0,479
636,59	0,514
636,79	0,433
636,98	0,533
637,18	0,518
637,38	0,526
637,58	0,167
637,78	0,551
637,97	0,270
638,17	0,593
638,37	0,648
638,57	0,365
638,77	0,483
638,96	0,521
639,16	0,548
639,36	0,378
639,56	0,669
639,76	0,471
639,95	0,550
640,15	0,370
640,35	0,449
640,55	0,617
640,75	0,683
640,94	0,424
641,14	0,727
641,34	0,352
641,54	0,366
641,73	0,194
641,93	0,544
642,13	0,632
642,33	0,326
642,53	0,363
642,72	0,792
642,92	0,508
643,12	0,479
643,32	0,534
643,51	0,935
643,71	0,455
643,91	0,535
644,11	0,507
644,30	0,501
644,50	0,677
644,70	0,558
644,90	0,760
645,09	0,560
645,29	0,482
645,49	0,599
645,69	0,560
645,88	0,720
646,08	0,803
646,28	1,103
646,48	0,509
646,67	0,408
646,87	0,502
647,07	0,388
647,26	0,768
647,46	0,574
647,66	0,607
647,86	0,748
648,05	0,910
648,25	0,877
648,45	0,603
648,65	0,504
648,84	0,391
649,04	0,813
649,24	1,202
649,43	0,614
649,63	0,583
649,83	0,572
650,03	0,809
650,22	0,408
650,42	0,270
650,62	0,744
650,81	0,516
651,01	0,623
651,21	0,532
651,40	0,581
651,60	0,308
651,80	0,800
652,00	0,894
652,19	0,647
652,39	0,610
652,59	0,733
652,78	0,624
652,98	0,431
653,18	0,284
653,37	0,811
653,57	1,017
653,77	0,652
653,96	0,610
654,16	0,908
654,36	0,220
654,55	0,758
654,75	0,647
654,95	0,664
655,14	0,543
655,34	1,102
655,54	0,577
655,73	0,165
655,93	0,523
656,13	0,521
656,32	0,370
656,52	0,900
656,72	0,608
656,91	0,856
657,11	0,535
657,31	0,722
657,50	0,802
657,70	0,781
657,90	0,756
658,09	0,824
658,29	0,346
658,49	0,506
658,68	0,548
658,88	0,575
659,07	0,314
659,27	0,454
659,47	0,636
659,66	0,645
659,86	0,358
660,06	0,580
660,25	0,363
660,45	0,582
660,64	0,465
660,84	0,967
661,04	0,796
661,23	0,593
661,43	0,474
661,63	0,318
661,82	0,329
662,02	0,660
662,21	0,410
662,41	0,839
662,61	0,888
662,80	0,694
663,00	0,251
663,19	0,891
663,39	0,440
663,59	0,870
663,78	0,327
663,98	0,616
664,17	0,426
664,37	0,646
664,57	0,549
664,76	0,518
664,96	0,681
665,15	0,528
665,35	0,407
665,55	0,094
665,74	0,489
665,94	0,650
666,13	0,324
666,33	0,700
666,53	0,743
666,72	0,388
666,92	0,726
667,11	0,532
667,31	0,512
667,50	0,149
667,70	0,715
667,90	0,466
668,09	0,295
668,29	0,540
668,48	0,463
668,68	0,333
668,87	0,620
669,07	0,216
669,26	0,818
669,46	1,025
669,66	1,021
669,85	0,521
670,05	0,505
670,24	0,616
670,44	0,567
670,63	0,483
670,83	0,398
671,02	0,634
671,22	0,426
671,42	0,479
671,61	0,251
671,81	0,600
672,00	0,651
672,20	0,334
672,39	0,315
672,59	0,285
672,78	0,219
672,98	0,369
673,17	0,341
673,37	0,375
673,56	0,232
673,76	0,204
673,95	0,686
674,15	0,390
674,34	0,493
674,54	0,514
674,73	0,370
674,93	0,504
675,13	0,613
675,32	0,315
675,52	0,252
675,71	0,446
675,91	0,456
676,10	0,529
676,30	0,268
676,49	0,224
676,69	0,609
676,88	0,099
677,08	0,491
677,27	0,417
677,47	0,358
677,66	0,524
677,86	0,576
678,05	0,198
678,24	0,400
678,44	0,543
678,63	0,243
678,83	0,328
679,02	0,473
679,22	0,414
679,41	0,476
679,61	0,412
679,80	0,414
680,00	0,314
680,19	0,334
680,39	0,540
680,58	0,558
680,78	0,339
680,97	0,120
681,17	0,413
681,36	0,221
681,56	0,331
681,75	0,179
681,94	0,468
682,14	0,361
682,33	0,553
682,53	0,282
682,72	0,344
682,92	0,555
683,11	0,200
683,31	0,367
683,50	0,402
683,69	0,021
683,89	0,226
684,08	0,056
684,28	0,357
684,47	0,391
684,67	0,188
684,86	0,523
685,06	0,345
685,25	0,294
685,44	0,232
685,64	0,337
685,83	0,418
686,03	0,178
686,22	0,144
686,42	0,296
686,61	0,295
686,80	0,027
687,00	0,338
687,19	0,333
687,39	0,227
687,58	0,256
687,77	0,317
687,97	0,217
688,16	0,339
688,36	0,083
688,55	0,117
688,74	0,047
688,94	0,115
689,13	0,147
689,33	0,200
689,52	0,321
689,71	0,166
689,91	0,049
690,10	0,269
690,30	0,072
690,49	0,084
690,68	0,373
690,88	0,055
691,07	0,277
691,27	0,067
691,46	0,185
691,65	0,273
691,85	0,047
692,04	0,067
692,23	0,008
692,43	0,309
692,62	0,375
692,82	0,381
693,01	0,147
693,20	0,222
693,40	0,120
693,59	0,109
693,78	0,337
693,98	0,143
694,17	0,191
694,36	0,427
694,56	0,059
694,75	0,345
694,94	0,184
695,14	0,197
695,33	0,295
695,53	0,410
695,72	0,288
695,91	-0,032
696,11	0,212
696,30	0,293
696,49	0,225
696,69	0,076
696,88	0,218
697,07	0,301
697,27	0,292
697,46	0,319
697,65	0,148
697,85	0,217
698,04	0,537
698,23	0,529
698,43	0,331
698,62	-0,084
698,81	0,618
699,01	0,670
699,20	0,246
699,39	0,440
699,58	0,338
699,78	0,130
699,97	0,306
700,16	0,024
700,36	0,676
700,55	0,673
700,74	0,963
700,94	0,144
701,13	0,190
701,32	0,223
701,52	0,409
701,71	0,502
701,90	0,352
702,09	0,618
702,29	0,616
702,48	0,433
702,67	0,952
702,87	0,653
703,06	0,864
703,25	1,207
703,44	0,618
703,64	0,263
703,83	0,645
704,02	0,879
704,22	0,664
704,41	0,495
704,60	1,044
704,79	0,481
704,99	1,340
705,18	1,762
705,37	1,500
705,56	0,778
705,76	1,427
705,95	0,954
706,14	1,587
706,33	0,434
706,53	1,217
706,72	0,251
706,91	1,240
707,11	0,516
707,30	0,000
707,49	0,935
707,68	0,887
707,88	1,286
708,07	-0,195
708,26	1,243
708,45	0,753
708,64	1,662
708,84	1,348
709,03	1,919
709,22	0,251
709,41	1,482
709,61	1,073
709,80	1,216
709,99	1,322
710,18	0,463
710,38	0,031
710,57	1,875
710,76	0,459
710,95	1,386
711,14	2,516
711,34	0,929
711,53	3,535
711,72	1,963
711,91	0,996
712,11	1,083
712,30	1,462
712,49	2,527
712,68	1,622
712,87	2,449
713,07	2,850
713,26	1,333
713,45	1,706
713,64	1,397
713,83	2,463
714,03	1,791
714,22	3,484
714,41	2,281
714,60	-0,664
714,79	-1,632
714,99	0,663
715,18	3,075
715,37	5,399
715,56	0,899
715,75	1,951
715,94	4,232
716,14	3,487
716,33	2,185
716,52	2,621
716,71	3,029
716,90	2,553
717,10	0,557
717,29	2,870
717,48	1,446
717,67	2,933
717,86	4,037
718,05	2,752
718,24	2,319
718,44	2,181
718,63	-0,061
718,82	0,937
719,01	2,740
719,20	2,603
719,39	6,928
719,59	0,000
719,78	0,802
719,97	2,410
720,16	6,989
720,35	0,757
720,54	1,258
720,73	6,485
720,93	1,591
721,12	3,089
721,31	3,426
721,50	4,582
721,69	2,602
721,88	5,684
722,07	3,901
722,27	1,249
722,46	0,375
722,65	1,191
722,84	2,823
723,03	5,012
723,22	4,674
723,41	3,488
723,60	3,434
723,79	7,013
723,99	7,209
724,18	4,396
724,37	-0,727
724,56	5,877
724,75	3,478
724,94	8,868
725,13	3,090
725,32	8,101
725,51	0,651
725,71	1,597
725,90	5,955
726,09	3,470
726,28	5,148
726,47	3,254
726,66	7,491
726,85	4,265
727,04	1,121
727,23	5,444
727,42	7,209
727,61	4,835
727,81	-0,973
728,00	5,925
728,19	2,059
728,38	-0,764
728,57	5,521
728,76	1,824
728,95	8,542
729,14	1,623
729,33	6,559
729,52	4,724
729,71	5,423
729,90	4,945
730,09	2,693
730,28	7,561
730,48	7,675
730,67	4,129
730,86	6,619
731,05	4,084
731,24	0,488
731,43	6,156
731,62	5,384
731,81	4,540
732,00	8,383
732,19	0,841
732,38	5,385
732,57	8,802
732,76	2,599
732,95	1,544
733,14	-2,009
733,33	5,423
733,52	7,584
733,71	7,317
733,90	1,412
734,09	7,568
734,28	2,231
734,47	3,750
734,66	5,749
734,85	2,857
735,04	8,131
735,23	6,863
735,42	8,880
735,61	3,790
735,81	2,367
736,00	1,567
736,19	7,295
736,38	7,186
736,57	10,288
736,76	6,715
736,95	5,255
737,14	5,104
737,33	9,194
737,52	7,385
737,71	5,738
737,90	6,182
738,09	9,589
738,28	11,211
738,47	8,394
738,66	5,449
738,85	13,664
739,04	6,003
739,22	7,358
739,41	5,147
739,60	0,853
739,79	-0,899
739,98	0,896
740,17	9,386
740,36	11,212
740,55	10,510
740,74	15,780
740,93	10,134
741,12	5,536
741,31	2,641
741,50	5,293
741,69	13,274
741,88	-3,162
742,07	13,225
742,26	1,143
742,45	9,631
742,64	6,947
742,83	7,788
743,02	0,000
743,21	16,787
743,40	6,211
743,59	9,375
743,78	9,589
743,97	8,846
744,16	10,827
744,34	3,730
744,53	10,928
744,72	9,603
744,91	7,563
745,10	16,981
745,29	13,710
745,48	14,773
745,67	3,872
745,86	7,064
746,05	6,872
746,24	9,072
746,43	9,636
746,62	12,284
746,81	3,820
747,00	7,002
747,18	14,379
747,37	12,842
747,56	12,235
747,75	-2,956
747,94	8,738
748,13	15,884
748,32	12,857
748,51	9,898
748,70	10,793
748,89	2,576
749,08	9,593
749,26	11,233
749,45	4,826
749,64	4,282
749,83	14,607
750,02	16,848
750,21	9,160
750,40	23,887
750,59	-0,268
750,78	20,948
750,96	6,906
751,15	14,486
751,34	-0,284
751,53	4,098
751,72	7,042
751,91	14,767
752,10	6,021
752,29	13,600
752,47	11,748
752,66	13,651
752,85	22,404
753,04	5,587
753,23	0,000
753,42	12,938
753,61	6,583
753,80	12,371
753,98	11,364
754,17	6,383
754,36	12,258
754,55	20,482
754,74	5,844
754,93	19,559
755,12	17,804
755,30	11,364
755,49	3,779
755,68	23,926
755,87	12,722
756,06	19,792
756,25	14,894
756,43	4,698
756,62	18,634
756,81	12,914
757,00	14,474
757,19	25,000
757,38	1,544
757,56	6,800
757,75	20,819
757,94	12,548
758,13	8,904
758,32	5,638
758,51	3,704
758,69	9,266
758,88	6,397
759,07	17,964
759,26	8,127
759,45	18,596
759,63	1,732
759,82	18,246
760,01	19,414
760,20	31,761
760,39	23,975
760,57	16,376
760,76	24,390
760,95	15,625
761,14	24,818
761,33	17,419
761,51	36,071
761,70	28,625
761,89	24,889
762,08	28,625
762,27	1,083
762,45	21,014
762,64	-7,035
762,83	40,637
763,02	13,043
763,21	-2,500
763,39	24,476
763,58	7,435
763,77	16,878
763,96	10,757
764,14	10,417
764,33	14,762
764,52	5,804
764,71	18,033
764,89	23,214
765,08	3,448
765,27	-13,617
765,46	22,422
765,65	23,922
765,83	24,434
766,02	-0,476
766,21	19,126
766,40	23,735
766,58	32,275
766,77	37,156
766,96	26,016
767,15	17,227
767,33	25,121
767,52	27,074
767,71	17,982
767,90	34,171
768,08	29,940
768,27	27,642
768,46	44,737
768,64	33,333
768,83	10,294
769,02	13,793
769,21	26,562
769,39	13,571
769,58	24,675
769,77	13,830
769,96	20,270
770,14	28,962
770,33	21,028
770,52	28,058
770,70	27,568
770,89	41,622
771,08	12,048
771,27	7,368
771,45	15,882
771,64	21,818
771,83	29,412
772,01	26,804
772,20	24,378
772,39	0,000
772,57	22,388
772,76	24,324
772,95	33,908
773,14	52,381
773,32	19,774
773,51	10,714
773,70	55,396
773,88	5,806
774,07	28,934
774,26	12,903
774,44	30,827
774,63	36,527
774,82	18,831
775,00	26,168
775,19	15,476
775,38	1,064
775,56	41,615
775,75	24,725
775,94	28,333
776,12	33,987
776,31	15,789
776,50	-7,534
776,68	39,247
776,87	55,502
777,06	48,428
777,24	15,966
777,43	19,786
777,62	46,629
777,80	44,654
777,99	26,667
778,18	36,207
778,36	29,661
778,55	17,797
778,74	27,344
778,92	38,272
779,11	60,000
779,29	0,000
779,48	21,277
779,67	72,973
779,85	2,632
780,04	23,913
780,23	38,690
780,41	41,525
780,60	51,007
780,79	41,129
780,97	39,869
781,16	22,872
781,34	18,243
781,53	22,321
781,72	5,405
781,90	17,964
782,09	25,581
782,28	29,932
782,46	55,000
782,65	32,394
782,83	15,094
783,02	71,053
783,21	0,000
783,39	70,588
783,58	40,870
783,76	40,136
783,95	50,704
784,14	5,263
784,32	-18,824
784,51	50,676
784,69	-1,562
784,88	28,972
785,06	43,046
785,25	27,660
785,44	-3,226
785,62	32,857
785,81	62,037
785,99	21,053
786,18	18,018
786,37	16,484
786,55	31,944
786,74	20,909
786,92	11,888
787,11	31,944
787,29	31,250
787,48	36,559
787,67	22,642
787,85	121,519
788,04	45,946
788,22	34,653
788,41	59,055
788,59	60,526
788,78	47,253
788,96	50,413
789,15	37,500
789,34	60,577
789,52	14,516
789,71	61,871
789,89	77,922
790,08	103,750
790,26	61,783
790,45	113,889
790,63	51,724
790,82	60,000
791,00	64,602
791,19	10,400
791,38	31,429
791,56	54,545
791,75	18,056
791,93	76,000
792,12	59,130
792,30	44,526
792,49	9,091
792,67	27,206
792,86	23,200
793,04	42,593
793,23	78,947
793,41	44,928
793,60	52,083
793,78	31,429
793,97	66,667
794,15	57,895
794,34	62,667
794,52	17,204
794,71	38,760
794,89	29,545
795,08	62,400
795,26	70,667
795,45	59,722
795,63	50,000
795,82	63,736
796,00	79,000
796,19	32,520
796,37	54,198
796,56	38,835
796,74	36,842
796,93	69,697
797,11	57,831
797,30	35,000
797,48	67,188
797,67	41,463
797,85	68,462
798,04	32,203
798,22	110,256
798,41	37,500
798,59	69,524
798,77	43,373
798,96	49,383
799,14	70,161
799,33	58,716
799,51	47,222
799,70	66,923
799,88	102,752
800,07	59,542
800,25	24,096
800,44	85,185
800,62	70,833
800,80	45,775
800,99	79,452
801,17	29,310
801,36	75,714
801,54	50,000
801,73	50,526
801,91	48,760
802,10	51,765
802,28	11,200
802,46	71,053
802,65	43,165
802,83	61,333
803,02	53,226
803,20	42,169
803,39	78,161
803,57	34,646
803,75	57,724
803,94	26,190
804,12	53,793
804,31	13,043
804,49	32,000
804,67	22,059
804,86	59,292
805,04	22,892
805,23	77,876
805,41	46,667
805,59	79,452
805,78	68,000
805,96	19,277
806,15	72,277
806,33	57,895
806,51	33,333
806,70	22,556
806,88	55,814
807,07	81,081
807,25	15,385
807,43	42,857
807,62	51,327
807,80	29,524
807,99	53,077
808,17	22,835
808,35	3,000
808,54	55,072
808,72	63,964
808,90	29,452
809,09	48,913
809,27	44,000
809,46	97,802
809,64	79,268
809,82	33,775
810,01	22,656
810,19	65,657
810,37	58,594
810,56	115,556
810,74	71,429
810,92	46,667
811,11	-10,526
811,29	68,868
811,48	26,154
811,66	33,708
811,84	39,560
812,03	54,098
812,21	14,035
812,39	40,000
812,58	75,789
812,76	66,187
812,94	2,410
813,13	25,532
813,31	66,000
813,49	21,296
813,68	19,091
813,86	30,337
814,04	18,182
814,23	59,639
814,41	29,213
814,59	39,806
814,78	39,706
814,96	43,396
815,14	37,383
815,33	27,907
815,51	47,244
815,69	35,238
815,87	38,614
816,06	37,391
816,24	43,478
816,42	52,941
816,61	56,604
816,79	40,517
816,97	44,318
817,16	30,178
817,34	66,667
817,52	42,149
817,70	57,426
817,89	28,889
818,07	56,164
818,25	42,857
818,44	74,359
818,62	40,310
818,80	21,805
818,98	39,490
819,17	45,378
819,35	39,894
819,53	61,194
819,72	55,063
819,90	41,085
820,08	4,274
820,26	49,138
820,45	7,383
820,63	68,750
820,81	14,400
820,99	29,078
821,18	32,653
821,36	54,430
821,54	42,069
821,73	50,000
821,91	41,228
822,09	30,645
822,27	43,871
822,46	22,794
822,64	4,800
822,82	17,680
823,00	27,624
823,19	34,615
823,37	15,152
823,55	32,386
823,73	64,828
823,91	42,754
824,10	31,183
824,28	44,221
824,46	-3,883
824,64	52,632
824,83	47,826
825,01	4,667
825,19	30,645
825,37	41,739
825,56	36,792
825,74	41,837
825,92	33,758
826,10	73,864
826,28	22,619
826,47	33,684
826,65	42,553
826,83	33,621
827,01	45,087
827,19	37,500
827,38	41,358
827,56	21,023
827,74	14,525
827,92	33,721
828,10	32,051
828,29	45,562
828,47	41,463
828,65	12,308
828,83	16,970
829,01	47,826
829,20	34,066
829,38	34,659
829,56	46,196
829,74	15,094
829,92	31,746
830,10	31,034
830,29	20,603
830,47	41,206
830,65	12,195
830,83	21,429
831,01	48,214
831,20	30,097
831,38	20,096
831,56	8,372
831,74	31,754
831,92	60,526
832,10	19,048
832,29	18,243
832,47	21,910
832,65	19,608
832,83	17,840
833,01	25,500
833,19	20,362
833,37	39,367
833,56	14,346
833,74	27,941
833,92	16,667
834,10	11,203
834,28	28,692
834,46	27,602
834,64	29,167
834,83	16,364
835,01	43,983
835,19	24,000
835,37	15,289
835,55	14,062
835,73	15,271
835,91	30,258
836,09	28,897
836,28	35,055
836,46	4,800
836,64	36,466
836,82	20,814
837,00	32,971
837,18	19,331
837,36	32,669
837,54	14,091
837,72	4,741
837,91	20,149
838,09	22,311
838,27	29,667
838,45	21,277
838,63	17,279
838,81	12,658
838,99	24,194
839,17	20,608
839,35	11,702
839,53	11,930
839,72	23,308
839,90	26,117
840,08	32,615
840,26	18,254
840,44	32,628
840,62	10,000
840,80	36,395
840,98	16,863
841,16	24,715
841,34	9,365
841,52	27,829
841,70	13,846
841,89	16,129
842,07	18,495
842,25	30,172
842,43	9,052
842,61	23,158
842,79	15,254
842,97	10,749
843,15	22,112
843,33	13,565
843,51	18,072
843,69	23,077
843,87	8,582
844,05	14,590
844,23	23,123
844,41	11,912
844,59	12,392
844,77	6,162
844,95	5,202
845,13	21,846
845,31	1,163
845,50	21,728
845,68	20,900
845,86	5,172
846,04	27,095
846,22	11,444
846,40	20,161
846,58	32,194
846,76	20,161
846,94	13,965
847,12	13,472
847,30	3,866
847,48	0,619
847,66	20,690
847,84	8,197
848,02	12,560
848,20	16,279
848,38	2,849
848,56	18,750
848,74	16,229
848,92	9,227
849,10	9,750
849,28	12,146
849,46	14,133
849,64	12,702
849,82	8,642
850,00	23,598
850,18	15,745
850,36	4,194
850,54	7,769
850,72	8,740
850,90	14,348
851,08	18,818
851,26	20,131
851,44	5,973
851,62	8,837
851,80	15,639
851,98	18,681
852,16	11,111
852,34	12,784
852,52	5,357
852,70	-5,467
852,87	11,872
853,05	12,865
853,23	16,082
853,41	10,884
853,59	8,299
853,77	6,944
853,95	15,401
854,13	5,088
854,31	16,222
854,49	10,978
854,67	-0,432
854,85	16,977
855,03	15,832
855,21	14,526
855,39	4,829
855,57	4,301
855,75	9,307
855,93	11,765
856,11	21,470
856,28	2,399
856,46	17,794
856,64	11,429
856,82	4,983
857,00	10,142
857,18	7,040
857,36	12,648
857,54	11,419
857,72	4,912
857,90	6,458
858,08	13,137
858,26	6,004
858,44	-2,729
858,61	5,401
858,79	17,474
858,97	9,027
859,15	13,003
859,33	10,156
859,51	10,385
859,69	-0,537
859,87	11,862
860,05	-2,309
860,23	8,442
860,40	11,566
860,58	6,393
860,76	8,730
860,94	13,496
861,12	11,077
861,30	7,378
861,48	8,000
861,66	9,048
861,84	4,484
862,01	9,426
862,19	6,271
862,37	7,413
862,55	7,061
862,73	3,251
862,91	3,818
863,09	4,911
863,27	12,644
863,44	7,616
863,62	9,239
863,80	2,110
863,98	8,012
864,16	2,168
864,34	8,204
864,52	8,177
864,69	14,327
864,87	4,920
865,05	3,946
865,23	5,098
865,41	9,005
865,59	5,922
865,76	7,503
865,94	10,207
866,12	12,129
866,30	5,470
866,48	14,321
866,66	2,688
866,83	10,814
867,01	3,197
867,19	8,843
867,37	2,717
867,55	0,358
867,73	3,966
867,90	3,353
868,08	6,288
868,26	9,069
868,44	3,634
868,62	6,511
868,79	0,802
868,97	5,164
869,15	2,320
869,33	9,035
869,51	7,317
869,69	7,561
869,86	6,901
870,04	11,149
870,22	6,322
870,40	5,848
870,57	5,882
870,75	5,193
870,93	7,053
871,11	5,736
871,29	7,648
871,46	5,740
871,64	11,402
871,82	5,705
872,00	11,111
872,18	0,000
872,35	6,035
872,53	6,250
872,71	9,490
872,89	7,325
873,06	7,788
873,24	10,475
873,42	7,639
873,60	2,634
873,77	7,157
873,95	3,206
874,13	-0,317
874,31	4,128
874,49	3,775
874,66	6,203
874,84	5,015
875,02	7,699
875,20	7,882
875,37	4,103
875,55	4,485
875,73	6,556
875,91	4,368
876,08	0,457
876,26	0,442
876,44	2,954
876,61	8,380
876,79	4,374
876,97	0,547
877,15	1,233
877,32	2,643
877,50	4,553
877,68	5,056
877,86	1,614
878,03	7,610
878,21	1,900
878,39	6,014
878,56	0,248
878,74	5,122
878,92	1,291
879,10	4,074
879,27	4,703
879,45	5,951
879,63	3,261
879,80	3,443
879,98	2,558
880,16	4,803
880,34	8,180
880,51	-1,577
880,69	1,265
880,87	5,099
881,04	1,302
881,22	5,746
881,40	4,549
881,57	5,126
881,75	2,978
881,93	4,576
882,10	2,881
882,28	2,138
882,46	4,041
882,63	3,711
882,81	4,578
882,99	3,977
883,16	2,891
883,34	1,404
883,52	1,878
883,69	5,221
883,87	2,148
884,05	3,898
884,22	3,523
884,40	4,753
884,58	0,903
884,75	1,923
884,93	2,068
885,11	3,578
885,28	2,433
885,46	0,431
885,64	1,778
885,81	2,415
885,99	-0,062
886,17	2,561
886,34	1,449
886,52	2,739
886,70	5,110
886,87	1,958
887,05	3,311
887,22	1,550
887,40	5,989
887,58	2,940
887,75	1,964
887,93	3,355
888,11	1,743
888,28	1,805
888,46	3,323
888,63	2,765
888,81	2,553
888,99	1,970
889,16	5,068
889,34	0,497
889,51	1,801
889,69	2,671
889,87	3,678
890,04	2,512
890,22	1,658
890,39	1,935
890,57	4,161
890,75	0,935
890,92	1,862
891,10	2,533
891,27	1,182
891,45	4,106
891,63	4,569
891,80	4,823
891,98	2,483
892,15	1,512
892,33	0,969
892,51	4,321
892,68	3,578
892,86	2,508
893,03	1,831
893,21	3,942
893,38	3,040
893,56	2,206
893,74	2,520
893,91	3,602
894,09	3,848
894,26	2,644
894,44	2,811
894,61	1,659
894,79	3,567
894,96	0,512
895,14	3,729
895,32	2,537
895,49	2,003
895,67	2,618
895,84	0,804
896,02	1,675
896,19	1,731
896,37	2,162
896,54	0,701
896,72	1,420
896,89	2,750
897,07	3,684
897,25	1,222
897,42	3,022
897,60	5,487
897,77	3,500
897,95	2,044
898,12	3,084
898,30	2,405
898,47	1,669
898,65	0,548
898,82	2,486
899,00	-0,236
899,17	1,576
899,35	1,812
899,52	4,076
899,70	2,327
899,87	1,184
900,05	2,664
900,22	2,210
900,40	2,194
900,57	1,818
900,75	1,233
900,92	2,299
901,10	1,377
901,27	0,407
901,45	3,677
901,62	1,499
901,80	1,381
901,97	2,698
902,15	2,638
902,32	2,084
902,50	1,363
902,67	3,980
902,85	1,355
903,02	3,488
903,20	1,035
903,37	1,210
903,54	1,832
903,72	2,865
903,89	1,334
904,07	0,998
904,24	2,036
904,42	0,141
904,59	-0,286
904,77	2,229
904,94	0,582
905,12	0,283
905,29	1,159
905,47	0,941
905,64	2,302
905,81	0,522
905,99	1,050
906,16	0,000
906,34	1,609
906,51	0,829
906,69	2,105
906,86	1,340
907,03	1,245
907,21	1,494
907,38	2,110
907,56	2,498
907,73	0,167
907,91	1,675
908,08	2,842
908,25	2,550
908,43	1,007
908,60	-0,388
908,78	0,459
908,95	2,841
909,13	2,158
909,30	2,658
909,47	0,555
909,65	2,489
909,82	1,396
910,00	1,548
910,17	1,151
910,34	0,370
910,52	1,090
910,69	1,577
910,87	1,754
911,04	0,697
911,21	2,574
911,39	-0,243
911,56	1,775
911,73	1,142
911,91	0,935
912,08	1,787
912,26	0,453
912,43	2,160
912,60	0,568
912,78	2,118
912,95	1,080
913,13	1,703
913,30	2,877
913,47	2,230
913,65	2,573
913,82	2,218
913,99	1,775
914,17	1,705
914,34	0,947
914,51	1,258
914,69	1,435
914,86	2,083
915,03	2,506
915,21	1,435
915,38	1,561
915,56	1,973
915,73	0,767
915,90	2,508
916,08	2,093
916,25	1,645
916,42	0,902
916,60	2,390
916,77	1,324
916,94	1,140
917,12	1,295
917,29	1,241
917,46	1,043
917,64	2,197
917,81	0,821
917,98	1,010
918,16	1,124
918,33	1,562
918,50	1,076
918,67	1,457
918,85	0,870
919,02	1,943
919,19	1,486
919,37	0,367
919,54	1,369
919,71	2,173
919,89	0,990
920,06	1,358
920,23	1,177
920,41	1,646
920,58	1,456
920,75	3,106
920,92	0,913
921,10	0,719
921,27	1,050
921,44	2,314
921,62	1,372
921,79	1,787
921,96	0,662
922,13	1,677
922,31	1,410
922,48	0,540
922,65	0,705
922,82	0,173
923,00	2,632
923,17	1,491
923,34	2,022
923,52	0,445
923,69	1,383
923,86	1,635
924,03	0,472
924,21	0,614
924,38	0,949
924,55	1,356
924,72	1,559
924,90	0,769
925,07	0,922
925,24	0,071
925,41	1,388
925,59	1,050
925,76	1,178
925,93	1,113
926,10	2,132
926,28	0,681
926,45	-0,113
926,62	0,586
926,79	1,936
926,96	1,943
927,14	1,431
927,31	1,633
927,48	1,300
927,65	1,946
927,83	1,258
928,00	2,046
928,17	1,412
928,34	0,239
928,51	0,570
928,69	1,389
928,86	1,268
929,03	0,791
929,20	0,624
929,37	-0,064
929,55	1,709
929,72	1,713
929,89	1,592
930,06	1,169
930,23	2,194
930,41	1,062
930,58	1,851
930,75	0,996
930,92	1,992
931,09	0,942
931,27	1,403
931,44	0,818
931,61	2,118
931,78	2,029
931,95	1,082
932,12	2,224
932,30	1,342
932,47	0,495
932,64	2,375
932,81	1,014
932,98	1,964
933,16	1,148
933,33	0,952
933,50	0,794
933,67	1,920
933,84	1,984
934,01	1,168
934,18	1,767
934,36	1,418
934,53	1,449
934,70	0,905
934,87	1,720
935,04	2,154
935,21	1,223
935,38	0,942
935,56	1,317
935,73	0,100
935,90	1,885
936,07	1,669
936,24	2,018
936,41	1,380
936,58	0,633
936,76	0,727
936,93	1,280
937,10	0,900
937,27	1,738
937,44	0,956
937,61	1,748
937,78	1,703
937,95	2,219
938,13	1,185
938,30	1,287
938,47	1,926
938,64	1,260
938,81	1,531
938,98	1,715
939,15	1,106
939,32	1,299
939,49	1,573
939,66	1,889
939,84	1,757
940,01	2,047
940,18	1,943
940,35	0,822
940,52	1,315
940,69	1,234
940,86	2,944
941,03	1,731
941,20	1,985
941,37	1,214
941,54	2,509
941,71	2,322
941,89	2,611
942,06	1,593
942,23	2,603
942,40	1,579
942,57	2,671
942,74	0,850
942,91	3,519
943,08	2,756
943,25	2,597
943,42	1,399
943,59	2,877
943,76	2,139
943,93	1,390
944,10	2,340
944,27	1,260
944,44	1,820
944,61	1,794
944,79	2,526
944,96	2,242
945,13	0,914
945,30	1,637
945,47	2,196
945,64	0,704
945,81	2,169
945,98	0,993
946,15	1,220
946,32	1,779
946,49	1,076
946,66	1,784
946,83	1,534
947,00	2,501
947,17	0,000
947,34	1,594
947,51	1,188
947,68	1,591
947,85	1,543
948,02	2,275
948,19	1,333
948,36	2,391
948,53	-0,204
948,70	0,473
948,87	1,852
949,04	2,436
949,21	0,855
949,38	2,267
949,55	2,011
949,72	0,586
949,89	2,039
950,06	0,931
950,23	2,085
950,40	1,153
950,57	2,385
950,74	2,173
950,91	0,917
951,08	2,981
951,25	2,048
951,42	1,922
951,59	1,216
951,76	0,000
951,93	2,306
952,10	0,605
952,27	0,887
952,44	2,682
952,61	2,634
952,77	1,440
952,94	0,644
953,11	1,772
953,28	3,280
953,45	3,262
953,62	2,200
953,79	3,160
953,96	2,260
954,13	5,033
954,30	5,503
954,47	4,191
954,64	1,658
954,81	2,688
954,98	1,124
955,15	-0,302
955,32	1,915
955,49	0,706
955,65	1,342
955,82	2,397
955,99	6,213
956,16	2,903
956,33	3,883
956,50	2,729
956,67	3,631
956,84	5,512
957,01	2,015
957,18	3,726
957,35	2,063
957,52	3,483
957,68	3,630
957,85	5,622
958,02	6,234
958,19	2,905
958,36	4,679
958,53	3,022
958,70	6,698
958,87	4,890
959,04	6,033
959,21	10,889
959,37	11,394
959,54	3,770
959,71	8,653
959,88	0,930
960,05	8,615
960,22	5,157
960,39	2,261
960,56	1,279
960,72	4,848
960,89	8,054
961,06	5,540
961,23	1,835
961,40	2,203
961,57	2,236
961,74	3,379
961,90	11,176
962,07	6,278
962,24	5,939
962,41	13,793
962,58	3,846
962,75	2,222
962,92	12,281
963,08	7,500
963,25	9,163
963,42	3,815
963,59	4,312
963,76	19,483
963,93	14,053
964,10	7,692
964,26	1,190
964,43	0,233
964,60	3,944
964,77	12,752
964,94	7,160
965,10	5,014
965,27	5,028
965,44	2,222
965,61	0,000
965,78	9,938
965,95	20,398
966,11	16,667
966,28	11,173
966,45	16,667
966,62	12,195
966,79	7,509
966,95	18,861
967,12	12,698
967,29	24,383
967,46	33,808
967,63	26,275
967,79	23,490
967,96	16,514
968,13	18,095
968,30	23,868
968,47	20,769
968,63	35,784
968,80	21,456
968,97	2,312
969,14	23,164
969,31	19,388
969,47	32,065
969,64	28,571
969,81	-1,290
969,98	20,000
970,14	13,441
970,31	15,723
970,48	26,174
970,65	40,496
970,81	-1,399
970,98	21,875
971,15	55,758
971,32	29,545
971,48	57,143
971,65	13,245
971,82	42,727
971,99	49,367
972,15	2,326
972,32	54,861
972,49	57,377
972,66	18,182
972,82	54,110
972,99	0,000
973,16	72,185
973,33	39,259
973,49	54,878
973,66	51,429
973,83	43,210
974,00	45,570
974,16	109,091
974,33	82,667
974,50	69,697
974,67	66,667
974,83	102,041
975,00	136,364
975,17	106,452
975,33	66,667
975,50	140,984
975,67	88,462
975,84	32,927
976,00	10,526
976,17	26,087
976,34	51,765
976,50	50,549
976,67	102,381
976,84	79,167
977,00	71,795
977,17	68,889
977,34	209,615
977,50	64,286
977,67	65,882
977,84	89,831
978,01	47,297
978,17	136,207
978,34	-7,407
978,51	272,000
978,67	89,796
978,84	34,545
979,01	123,684
979,17	62,857
979,34	158,696
979,51	131,818
979,67	270,833
979,84	96,610
980,01	107,692
980,17	141,176
980,34	58,904
980,51	566,667
980,67	115,556
980,84	74,286
981,01	120,588
981,17	100,000
981,34	81,429
981,50	77,895
981,67	142,857
981,84	157,143
982,00	4700,000
982,17	107,813
982,34	170,732
982,50	0,000
982,67	-228,571
982,84	235,000
983,00	107,407
983,17	-285,714
983,33	355,556
983,50	121,951
983,67	27,536
983,83	233,333
984,00	173,913
984,17	922,222
984,33	-214,286
984,50	178,378
984,66	131,250
984,83	125,000
985,00	276,923
985,16	83,871
985,33	3800,000
985,49	47,674
985,66	62,500
985,83	-1700,000
985,99	200,000
986,16	415,789
986,32	69,863
986,49	-280,000
986,66	400,000
986,82	242,424
986,99	-660,000
987,15	230,303
987,32	388,235
987,49	157,143
987,65	-282,609
987,82	-215,000
987,98	150,000
988,15	785,714
988,31	88,571
988,48	154,902
988,65	600,000
988,81	89,091
988,98	229,730
989,14	520,000
989,31	191,525
989,47	-39,286
989,64	500,000
989,80	123,404
989,97	189,091
990,14	457,143
990,30	-650,000
990,47	-37,500
990,63	144,737
990,80	650,000
990,96	791,667
991,13	263,333
991,29	166,667
991,46	143,750
991,62	0,000
991,79	-460,000
991,95	535,294
992,12	966,667
992,29	-238,095
992,45	214,286
992,62	-157,143
992,78	-350,000
992,95	277,419
993,11	500,000
993,28	-4500,000
993,44	-206,897
993,61	184,211
993,77	0,000
993,94	212,821
994,10	942,857
994,27	-105,263
994,43	221,875
994,60	485,714
994,76	187,879
994,93	-490,000
995,09	-256,250
995,26	412,500
995,42	600,000
995,59	123,333
995,75	-383,333
995,92	-1100,000
996,08	-820,000
996,25	109,091
996,41	1320,000
996,58	388,000
996,74	-610,000
996,91	132,258
997,07	328,000
997,23	88,235
997,40	1133,333
997,56	-1033,333
997,73	182,609
997,89	1080,000
998,06	91,228
998,22	157,447
998,39	208,163
998,55	463,158
998,72	-10200,000
998,88	140,000
999,05	580,000
999,21	347,059
999,37	225,581
999,54	187,097
999,70	361,905
999,87	533,333
1000,03	333,333
1000,20	192,857
1000,36	-237,500
1000,52	1100,000
1000,69	476,000
1000,85	-283,333
1001,02	71,429
1001,18	800,000
1001,35	0,000
1001,51	557,143
1001,67	140,000
1001,84	75,610
1002,00	-354,545
1002,17	850,000
1002,33	-775,000
1002,50	316,667
1002,66	1400,000
1002,82	112,195
1002,99	-227,273
1003,15	-4200,000
1003,32	-142,857
1003,48	-1333,333
1003,64	352,174
1003,81	5,263
1003,97	146,377
1004,14	-89,091
1004,30	390,909
1004,46	-3900,000
1004,63	-230,769
1004,79	181,081
1004,95	-1460,000
1005,12	-338,462
1005,28	233,333
1005,45	-366,667
1005,61	346,154
1005,77	-914,286
1005,94	180,435
1006,10	-450,000
1006,26	-51,852
1006,43	230,303
1006,59	325,806
1006,76	-148,000
1006,92	286,957
1007,08	83,333
1007,25	238,889
1007,41	109,091
1007,57	-376,471
1007,74	226,087
1007,90	-150,000
1008,06	-413,333
1008,23	-357,895
1008,39	105,556
1008,55	89,412
1008,72	-700,000
1008,88	-37,143
1009,04	-522,222
1009,21	115,625
1009,37	287,097
1009,53	-280,000
1009,70	-10,606
1009,86	136,842
1010,02	63,636
1010,19	540,000
1010,35	6900,000
1010,51	285,714
1010,68	359,091
1010,84	245,000
1011,00	371,429
1011,17	2866,667
1011,33	230,769
1011,49	300,000
1011,66	259,375
1011,82	-758,333
1011,98	546,667
1012,14	600,000
1012,31	270,455
1012,47	-557,143
1012,63	5600,000
1012,80	216,667
1012,96	158,333
1013,12	25,926
1013,29	204,167
1013,45	-50,000
1013,61	-1620,000
1013,77	-388,889
1013,94	258,333
1014,10	3700,000
1014,26	-41,176
1014,43	265,789
1014,59	0,000
1014,75	810,000
1014,91	174,286
1015,08	219,231
1015,24	306,667
1015,40	513,333
1015,56	552,941
1015,73	218,367
1015,89	477,778
1016,05	216,216
1016,21	214,815
1016,38	218,421
1016,54	-260,000
1016,70	500,000
1016,86	-653,846
1017,03	0,000
1017,19	300,000
1017,35	240,000
1017,51	1133,333
1017,68	1214,286
1017,84	310,526
1018,00	80,952
1018,16	-143,750
1018,33	200,000
1018,49	285,714
1018,65	-272,727
1018,81	-7,317
1018,97	592,308
1019,14	-857,143
1019,30	223,810
1019,46	156,410
1019,62	3350,000
1019,79	-300,000
1019,95	-1575,000
1020,11	1160,000
1020,27	187,500
1020,43	-812,500
1020,60	0,000
1020,76	105,882
1020,92	6400,000
1021,08	-135,556
1021,24	-3250,000
1021,41	224,242
1021,57	-404,167
1021,73	0,000
1021,89	-136,364
1022,05	191,429
1022,21	-346,154
1022,38	194,737
1022,54	660,000
1022,70	170,370
1022,86	-1750,000
1023,02	355,556
1023,19	-405,000
1023,35	198,113
1023,51	141,935
1023,67	118,421
1023,83	672,727
1023,99	214,286
1024,16	4,615
1024,32	300,000
1024,48	218,367
1024,64	-1340,000
1024,80	350,000
1024,96	376,923
1025,12	2300,000
1025,29	-775,000
1025,45	129,167
1025,61	1966,667
1025,77	309,524
1025,93	-223,077
1026,09	4550,000
1026,26	-814,286
1026,42	-250,000
1026,58	151,923
1026,74	885,714
1026,90	389,474
1027,06	-160,000
1027,22	-425,000
1027,38	488,889
1027,55	-252,000
1027,71	300,000
1027,87	227,500
1028,03	43,939
1028,19	-184,848
1028,35	104,054
1028,51	-35,484
1028,67	-200,000
1028,83	130,952
1029,00	707,143
1029,16	-406,667
1029,32	417,647
1029,48	3300,000
1029,64	842,857
1029,80	1383,333
1029,96	145,098
1030,12	-475,000
1030,28	1025,000
1030,44	-250,000
1030,61	250,000
1030,77	-356,522
1030,93	83,721
1031,09	-342,857
1031,25	-1033,333
1031,41	-1950,000
1031,57	-152,632
1031,73	436,364
1031,89	-145,455
1032,05	814,286
1032,21	560,000
1032,37	-179,412
1032,53	-170,000
1032,69	-4700,000
1032,86	1066,667
1033,02	337,500
1033,18	-653,846
1033,34	-507,692
1033,50	225,806
1033,66	-200,000
1033,82	142,857
1033,98	-282,353
1034,14	944,444
1034,30	-95,455
1034,46	258,333
1034,62	361,111
1034,78	101,587
1034,94	-0,000
1035,10	-272,727
1035,26	-855,556
1035,42	97,143
1035,58	1060,000
1035,74	3,333
1035,90	-391,667
1036,06	169,811
1036,22	-160,000
1036,38	553,333
1036,54	460,000
1036,70	-3100,000
1036,86	-342,857
1037,02	-300,000
1037,18	-203,571
1037,34	378,261
1037,50	-406,667
1037,66	-3366,667
1037,82	-394,118
1037,98	347,619
1038,14	-141,379
1038,30	88,462
1038,46	37,500
1038,62	45,161
1038,78	126,190
1038,94	-57,895
1039,10	-112,500
1039,26	-184,211
1039,42	-728,571
1039,58	169,811
1039,74	187,500
1039,90	-87,179
1040,06	382,353
>>>>>End Processed Spectral Data<<<<<
