SpectraSuite Data File
++++++++++++++++++++++++++++++++++++
Date: Thu Feb 02 17:29:00 EET 2017
User: optolab
Dark Spectrum Present: Yes
Reference Spectrum Present: Yes
Number of Sampled Component Spectra: 1
Spectrometers: USB4C02475
Integration Time (usec): 100000 (USB4C02475)
Spectra Averaged: 1 (USB4C02475)
Boxcar Smoothing: 0 (USB4C02475)
Correct for Electrical Dark: No (USB4C02475)
Strobe/Lamp Enabled: No (USB4C02475)
Correct for Detector Non-linearity: No (USB4C02475)
Correct for Stray Light: No (USB4C02475)
Number of Pixels in Processed Spectrum: 3648
>>>>>Begin Processed Spectral Data<<<<<
344,91	-950,000
345,13	-950,000
345,35	-950,000
345,57	-82,353
345,79	15,217
346,00	-111,765
346,22	-1242,857
346,44	-18,182
346,66	246,809
346,87	404,348
347,09	392,308
347,31	5500,000
347,53	-700,000
347,74	-118,605
347,96	-771,429
348,18	250,000
348,40	535,294
348,61	-248,718
348,83	7100,000
349,05	176,923
349,27	323,529
349,48	-5750,000
349,70	385,714
349,92	238,095
350,14	162,162
350,35	-292,308
350,57	-272,222
350,79	20,513
351,01	-420,000
351,22	570,000
351,44	475,000
351,66	366,667
351,87	1783,333
352,09	93,421
352,31	217,857
352,53	197,143
352,74	-700,000
352,96	394,737
353,18	-43,750
353,40	-850,000
353,61	473,333
353,83	214,583
354,05	284,375
354,26	267,857
354,48	-1480,000
354,70	300,000
354,92	255,556
355,13	-146,512
355,35	94,444
355,57	134,375
355,78	-7,143
356,00	157,447
356,22	127,273
356,44	213,953
356,65	450,000
356,87	163,889
357,09	242,857
357,30	65,909
357,52	-700,000
357,74	225,806
357,95	102,857
358,17	82,609
358,39	240,000
358,60	175,000
358,82	345,455
359,04	228,205
359,26	200,000
359,47	-292,308
359,69	250,000
359,91	316,000
360,12	375,000
360,34	80,556
360,56	-1100,000
360,77	811,111
360,99	458,333
361,21	282,609
361,42	-2000,000
361,64	-225,926
361,86	85,075
362,07	786,667
362,29	190,000
362,51	170,270
362,72	-260,000
362,94	296,296
363,16	85,714
363,37	690,909
363,59	-7100,000
363,81	612,500
364,02	105,333
364,24	172,727
364,46	509,524
364,67	228,571
364,89	388,235
365,11	140,541
365,32	370,370
365,54	325,000
365,76	172,727
365,97	156,098
366,19	91,228
366,41	550,000
366,62	100,000
366,84	291,667
367,05	153,922
367,27	860,000
367,49	228,205
367,70	755,556
367,92	170,833
368,14	-361,538
368,35	169,118
368,57	124,242
368,79	196,154
369,00	84,615
369,22	183,333
369,43	405,263
369,65	-62,069
369,87	-294,118
370,08	400,000
370,30	307,143
370,51	500,000
370,73	108,333
370,95	295,000
371,16	117,544
371,38	186,792
371,60	223,333
371,81	115,217
372,03	-1425,000
372,24	-181,250
372,46	1533,333
372,68	91,176
372,89	78,899
373,11	123,256
373,32	100,000
373,54	490,909
373,76	511,111
373,97	184,848
374,19	-436,842
374,40	117,143
374,62	541,176
374,84	291,667
375,05	163,462
375,27	232,432
375,48	69,136
375,70	270,588
375,92	212,500
376,13	526,316
376,35	200,000
376,56	165,000
376,78	79,592
376,99	269,697
377,21	150,000
377,43	124,242
377,64	140,000
377,86	368,750
378,07	56,818
378,29	211,111
378,51	91,667
378,72	72,727
378,94	113,043
379,15	56,818
379,37	393,750
379,58	166,667
379,80	102,273
380,01	148,000
380,23	269,565
380,45	212,500
380,66	131,944
380,88	254,054
381,09	343,478
381,31	123,077
381,52	173,913
381,74	203,571
381,95	300,000
382,17	412,000
382,39	124,194
382,60	323,529
382,82	168,966
383,03	1233,333
383,25	112,346
383,46	541,667
383,68	142,553
383,89	281,818
384,11	117,808
384,32	131,579
384,54	-300,000
384,76	235,294
384,97	155,000
385,19	152,632
385,40	196,875
385,62	164,516
385,83	138,298
386,05	1042,857
386,26	273,077
386,48	423,077
386,69	166,667
386,91	350,000
387,12	269,231
387,34	172,881
387,55	165,714
387,77	292,000
387,98	130,612
388,20	143,662
388,41	66,667
388,63	168,571
388,84	157,500
389,06	88,372
389,27	312,500
389,49	98,795
389,70	176,271
389,92	118,182
390,13	215,385
390,35	93,750
390,56	179,687
390,78	145,455
390,99	133,333
391,21	128,409
391,42	76,087
391,64	-60,000
391,85	143,103
392,07	-107,143
392,28	180,769
392,50	460,000
392,71	4700,000
392,93	148,387
393,14	213,043
393,36	98,718
393,57	370,833
393,79	158,730
394,00	117,808
394,22	114,000
394,43	200,000
394,65	275,000
394,86	206,250
395,08	-712,500
395,29	72,340
395,50	-700,000
395,72	300,000
395,93	536,000
396,15	28,571
396,36	133,333
396,58	-42,857
396,79	148,837
397,01	242,857
397,22	117,391
397,44	170,213
397,65	83,784
397,87	147,143
398,08	226,923
398,29	525,000
398,51	290,244
398,72	226,087
398,94	113,953
399,15	86,667
399,37	102,174
399,58	79,365
399,80	-53,333
400,01	311,765
400,22	385,714
400,44	95,238
400,65	94,521
400,87	3500,000
401,08	60,674
401,30	124,000
401,51	94,545
401,72	117,742
401,94	212,195
402,15	93,878
402,37	136,364
402,58	167,442
402,80	243,750
403,01	63,889
403,22	120,482
403,44	122,222
403,65	106,122
403,87	101,333
404,08	171,154
404,30	140,625
404,51	101,429
404,72	727,273
404,94	78,313
405,15	119,403
405,37	142,857
405,58	203,226
405,79	371,429
406,01	93,333
406,22	123,810
406,44	224,561
406,65	155,952
406,86	140,000
407,08	102,469
407,29	98,667
407,51	94,231
407,72	129,703
407,93	162,025
408,15	96,591
408,36	311,429
408,58	113,333
408,79	96,124
409,00	95,035
409,22	107,843
409,43	116,216
409,64	93,590
409,86	137,500
410,07	114,783
410,29	89,333
410,50	104,762
410,71	117,742
410,93	98,020
411,14	134,579
411,35	114,583
411,57	112,500
411,78	127,206
412,00	118,667
412,21	100,442
412,42	83,415
412,64	122,778
412,85	103,627
413,06	103,571
413,28	100,392
413,49	111,628
413,70	106,867
413,92	121,905
414,13	105,929
414,34	95,539
414,56	108,085
414,77	98,893
414,98	104,947
415,20	118,280
415,41	102,597
415,63	104,843
415,84	108,310
416,05	94,277
416,27	94,429
416,48	101,896
416,69	108,430
416,91	104,267
417,12	89,819
417,33	95,937
417,55	101,600
417,76	108,245
417,97	98,127
418,19	102,510
418,40	100,853
418,61	89,365
418,83	105,106
419,04	97,209
419,25	100,159
419,46	109,791
419,68	98,378
419,89	94,466
420,10	99,194
420,32	96,821
420,53	98,210
420,74	95,460
420,96	94,550
421,17	100,000
421,38	94,451
421,60	99,786
421,81	91,792
422,02	94,995
422,23	94,481
422,45	100,191
422,66	89,883
422,87	92,536
423,09	99,313
423,30	96,213
423,51	96,952
423,73	93,323
423,94	94,079
424,15	96,084
424,36	92,318
424,58	96,501
424,79	98,829
425,00	97,519
425,22	97,353
425,43	99,942
425,64	104,779
425,85	102,988
426,07	98,054
426,28	105,232
426,49	100,203
426,71	96,521
426,92	100,984
427,13	94,296
427,34	99,616
427,56	101,101
427,77	95,983
427,98	97,382
428,19	98,992
428,41	101,741
428,62	98,796
428,83	94,659
429,04	97,979
429,26	97,030
429,47	99,354
429,68	95,054
429,89	91,379
430,11	93,432
430,32	93,711
430,53	91,114
430,74	90,947
430,96	89,627
431,17	89,890
431,38	87,059
431,59	84,142
431,81	79,742
432,02	78,816
432,23	77,492
432,44	76,103
432,66	75,095
432,87	74,847
433,08	74,913
433,29	75,729
433,51	73,985
433,72	73,886
433,93	75,927
434,14	72,731
434,35	72,058
434,57	70,137
434,78	67,880
434,99	63,593
435,20	61,829
435,42	57,343
435,63	52,287
435,84	47,547
436,05	41,868
436,26	36,360
436,48	30,990
436,69	23,914
436,90	18,424
437,11	13,533
437,32	9,342
437,54	6,286
437,75	4,881
437,96	3,447
438,17	2,879
438,38	2,235
438,60	2,290
438,81	1,438
439,02	1,361
439,23	1,601
439,44	1,207
439,66	1,259
439,87	1,203
440,08	1,624
440,29	1,683
440,50	1,579
440,72	1,445
440,93	1,491
441,14	1,512
441,35	1,087
441,56	1,632
441,77	1,575
441,99	1,248
442,20	1,667
442,41	1,390
442,62	1,214
442,83	1,456
443,04	1,030
443,26	1,448
443,47	1,595
443,68	1,125
443,89	1,229
444,10	1,356
444,31	1,434
444,53	1,571
444,74	1,429
444,95	1,012
445,16	1,356
445,37	0,986
445,58	1,135
445,80	0,919
446,01	1,516
446,22	1,400
446,43	1,379
446,64	1,076
446,85	1,110
447,06	0,890
447,28	0,987
447,49	1,146
447,70	1,029
447,91	1,087
448,12	1,065
448,33	0,982
448,54	0,737
448,76	0,831
448,97	0,945
449,18	1,109
449,39	1,194
449,60	0,965
449,81	1,171
450,02	1,188
450,23	1,224
450,45	0,963
450,66	0,905
450,87	0,812
451,08	0,814
451,29	1,109
451,50	1,087
451,71	0,830
451,92	1,124
452,13	0,635
452,35	0,919
452,56	0,823
452,77	1,307
452,98	0,827
453,19	1,007
453,40	1,105
453,61	1,097
453,82	0,877
454,03	0,858
454,25	0,810
454,46	0,852
454,67	0,645
454,88	1,047
455,09	1,191
455,30	0,979
455,51	0,892
455,72	0,956
455,93	0,907
456,14	0,929
456,35	0,709
456,56	0,672
456,78	0,910
456,99	1,070
457,20	0,659
457,41	0,776
457,62	0,760
457,83	1,021
458,04	0,710
458,25	0,607
458,46	0,782
458,67	0,790
458,88	0,718
459,09	0,629
459,30	0,646
459,51	0,687
459,73	0,285
459,94	0,960
460,15	0,567
460,36	0,666
460,57	0,586
460,78	0,626
460,99	0,747
461,20	0,575
461,41	0,731
461,62	0,551
461,83	0,470
462,04	0,380
462,25	0,863
462,46	0,550
462,67	0,603
462,88	0,598
463,09	0,483
463,30	0,547
463,51	0,484
463,72	0,636
463,93	0,490
464,15	0,435
464,36	0,370
464,57	0,334
464,78	0,525
464,99	0,657
465,20	0,325
465,41	0,379
465,62	0,748
465,83	0,317
466,04	0,389
466,25	0,524
466,46	0,649
466,67	0,611
466,88	0,515
467,09	0,477
467,30	0,419
467,51	0,488
467,72	0,374
467,93	0,376
468,14	0,389
468,35	0,588
468,56	0,517
468,77	0,402
468,98	0,608
469,19	0,457
469,40	0,585
469,61	0,537
469,82	0,591
470,03	0,378
470,24	0,358
470,45	0,574
470,66	0,727
470,87	0,481
471,08	0,679
471,29	0,520
471,50	0,637
471,71	0,412
471,92	0,539
472,13	0,685
472,34	0,304
472,55	0,604
472,76	0,616
472,97	0,564
473,18	0,526
473,39	0,649
473,60	0,310
473,81	0,667
474,01	0,754
474,22	0,666
474,43	0,715
474,64	0,740
474,85	0,611
475,06	0,665
475,27	0,649
475,48	0,532
475,69	0,749
475,90	0,498
476,11	0,626
476,32	0,454
476,53	0,614
476,74	0,481
476,95	0,601
477,16	0,786
477,37	0,756
477,58	0,512
477,79	0,673
478,00	0,617
478,21	0,851
478,41	0,798
478,62	0,739
478,83	0,707
479,04	0,842
479,25	0,743
479,46	0,697
479,67	0,772
479,88	0,739
480,09	1,023
480,30	0,922
480,51	1,107
480,72	0,799
480,93	0,919
481,14	0,887
481,34	1,099
481,55	0,976
481,76	1,304
481,97	1,099
482,18	0,982
482,39	1,260
482,60	1,344
482,81	1,499
483,02	2,174
483,23	2,881
483,44	3,858
483,65	5,193
483,85	6,816
484,06	9,629
484,27	12,658
484,48	16,839
484,69	21,506
484,90	27,107
485,11	32,023
485,32	39,283
485,53	45,819
485,73	53,404
485,94	59,596
486,15	66,562
486,36	72,495
486,57	77,132
486,78	80,955
486,99	85,011
487,20	86,468
487,41	88,518
487,61	88,617
487,82	90,081
488,03	90,687
488,24	91,328
488,45	91,680
488,66	91,628
488,87	91,911
489,08	92,375
489,28	91,500
489,49	91,725
489,70	92,667
489,91	93,577
490,12	92,886
490,33	91,960
490,54	93,871
490,74	92,726
490,95	92,455
491,16	93,796
491,37	93,239
491,58	92,052
491,79	92,931
492,00	92,509
492,20	93,723
492,41	93,456
492,62	93,667
492,83	94,354
493,04	95,137
493,25	94,598
493,45	95,348
493,66	95,451
493,87	95,464
494,08	94,920
494,29	95,434
494,50	95,543
494,70	95,351
494,91	95,088
495,12	95,709
495,33	94,578
495,54	94,659
495,75	93,776
495,95	94,291
496,16	93,075
496,37	93,437
496,58	95,560
496,79	95,138
496,99	94,449
497,20	95,173
497,41	95,048
497,62	95,605
497,83	95,713
498,04	95,534
498,24	97,370
498,45	98,115
498,66	97,473
498,87	97,989
499,08	97,830
499,28	96,895
499,49	96,716
499,70	97,282
499,91	97,262
500,12	96,561
500,32	96,461
500,53	96,109
500,74	96,929
500,95	97,221
501,15	95,213
501,36	96,452
501,57	95,802
501,78	95,523
501,99	94,880
502,19	94,410
502,40	94,239
502,61	92,978
502,82	91,913
503,02	92,325
503,23	91,458
503,44	89,215
503,65	89,842
503,86	89,043
504,06	88,506
504,27	88,767
504,48	87,662
504,69	88,534
504,89	87,307
505,10	87,897
505,31	87,862
505,52	88,319
505,72	87,469
505,93	87,352
506,14	86,556
506,35	85,610
506,55	84,268
506,76	81,645
506,97	79,181
507,18	76,886
507,38	72,609
507,59	70,212
507,80	66,021
508,01	60,636
508,21	55,581
508,42	50,761
508,63	45,007
508,84	38,829
509,04	32,935
509,25	27,232
509,46	21,965
509,67	17,364
509,87	13,264
510,08	10,125
510,29	7,394
510,49	5,403
510,70	3,665
510,91	2,976
511,12	2,156
511,32	1,832
511,53	1,611
511,74	1,109
511,94	0,880
512,15	1,064
512,36	0,801
512,57	0,874
512,77	0,785
512,98	0,774
513,19	0,908
513,39	0,775
513,60	0,810
513,81	0,786
514,01	0,907
514,22	1,035
514,43	1,065
514,64	0,902
514,84	1,058
515,05	0,893
515,26	0,818
515,46	0,859
515,67	0,806
515,88	0,705
516,08	0,976
516,29	0,656
516,50	0,764
516,70	0,810
516,91	0,973
517,12	0,921
517,32	0,782
517,53	0,802
517,74	0,870
517,95	1,029
518,15	0,856
518,36	1,043
518,57	0,714
518,77	0,859
518,98	1,044
519,19	0,896
519,39	0,785
519,60	0,804
519,80	0,809
520,01	0,778
520,22	0,886
520,42	0,805
520,63	1,059
520,84	0,805
521,04	0,849
521,25	0,877
521,46	0,781
521,66	0,930
521,87	0,891
522,08	0,908
522,28	1,028
522,49	0,754
522,70	0,953
522,90	0,914
523,11	0,870
523,31	0,968
523,52	1,033
523,73	0,915
523,93	1,012
524,14	0,812
524,35	0,920
524,55	1,036
524,76	0,968
524,97	0,988
525,17	1,073
525,38	1,178
525,58	0,875
525,79	0,929
526,00	0,874
526,20	1,067
526,41	0,823
526,61	1,026
526,82	0,854
527,03	0,970
527,23	1,024
527,44	0,998
527,64	1,021
527,85	0,828
528,06	1,292
528,26	0,902
528,47	1,047
528,68	1,197
528,88	0,960
529,09	0,995
529,29	1,138
529,50	0,968
529,70	1,152
529,91	0,962
530,12	0,937
530,32	1,021
530,53	1,089
530,73	0,735
530,94	1,144
531,15	1,068
531,35	0,980
531,56	1,175
531,76	1,140
531,97	1,092
532,17	1,118
532,38	1,187
532,59	1,040
532,79	1,264
533,00	0,942
533,20	0,975
533,41	1,037
533,61	0,877
533,82	0,820
534,03	0,974
534,23	0,956
534,44	1,093
534,64	1,123
534,85	0,969
535,05	1,051
535,26	0,968
535,46	1,004
535,67	0,954
535,88	1,078
536,08	1,028
536,29	1,191
536,49	1,053
536,70	1,095
536,90	1,203
537,11	1,113
537,31	1,208
537,52	1,130
537,72	1,137
537,93	1,142
538,13	1,003
538,34	1,174
538,55	1,199
538,75	0,850
538,96	0,959
539,16	1,134
539,37	1,089
539,57	0,971
539,78	1,137
539,98	1,043
540,19	1,273
540,39	0,992
540,60	1,096
540,80	1,085
541,01	1,384
541,21	1,232
541,42	1,129
541,62	1,108
541,83	0,991
542,03	0,965
542,24	1,121
542,44	1,108
542,65	0,921
542,85	1,163
543,06	1,031
543,26	0,935
543,47	1,104
543,67	1,135
543,88	1,010
544,08	1,020
544,29	1,216
544,49	1,018
544,70	1,028
544,90	1,142
545,11	1,024
545,31	0,821
545,52	1,050
545,72	0,991
545,93	1,011
546,13	1,059
546,34	1,070
546,54	0,990
546,75	0,992
546,95	1,161
547,15	0,854
547,36	1,120
547,56	0,991
547,77	1,057
547,97	1,016
548,18	0,917
548,38	1,032
548,59	1,143
548,79	1,176
549,00	0,984
549,20	1,161
549,41	1,219
549,61	1,238
549,81	1,304
550,02	1,254
550,22	1,336
550,43	1,544
550,63	1,617
550,84	1,649
551,04	2,113
551,25	2,302
551,45	2,971
551,65	3,424
551,86	4,243
552,06	5,350
552,27	6,484
552,47	8,323
552,68	10,691
552,88	13,432
553,08	16,659
553,29	20,032
553,49	23,633
553,70	28,149
553,90	33,151
554,11	38,705
554,31	43,033
554,51	49,103
554,72	55,123
554,92	60,268
555,13	66,234
555,33	72,121
555,53	76,693
555,74	81,623
555,94	85,860
556,15	87,515
556,35	88,822
556,56	90,999
556,76	90,871
556,96	93,460
557,17	93,710
557,37	93,592
557,58	94,749
557,78	94,512
557,98	95,803
558,19	94,721
558,39	94,640
558,59	95,093
558,80	94,794
559,00	93,983
559,21	94,454
559,41	92,847
559,61	92,755
559,82	93,327
560,02	92,323
560,23	92,117
560,43	91,296
560,63	91,764
560,84	91,280
561,04	91,071
561,24	90,554
561,45	90,356
561,65	90,283
561,85	91,867
562,06	91,124
562,26	91,463
562,47	91,651
562,67	92,813
562,87	93,555
563,08	94,683
563,28	95,311
563,48	96,019
563,69	95,834
563,89	97,395
564,09	96,895
564,30	97,375
564,50	97,543
564,70	97,905
564,91	98,083
565,11	95,747
565,31	96,850
565,52	97,800
565,72	96,271
565,92	97,321
566,13	96,003
566,33	95,900
566,53	95,773
566,74	95,170
566,94	96,187
567,14	96,647
567,35	95,296
567,55	95,495
567,75	94,549
567,96	94,042
568,16	94,751
568,36	94,017
568,57	94,116
568,77	93,359
568,97	93,569
569,18	91,931
569,38	92,744
569,58	92,749
569,79	92,756
569,99	91,074
570,19	91,331
570,39	90,959
570,60	89,697
570,80	89,329
571,00	90,521
571,21	90,307
571,41	89,107
571,61	89,359
571,82	86,652
572,02	86,866
572,22	85,479
572,42	83,564
572,63	81,798
572,83	80,341
573,03	78,195
573,24	76,374
573,44	73,626
573,64	68,537
573,84	66,649
574,05	63,061
574,25	59,749
574,45	56,319
574,66	54,280
574,86	51,783
575,06	48,681
575,26	45,671
575,47	43,869
575,67	41,518
575,87	39,342
576,07	36,703
576,28	32,951
576,48	29,682
576,68	26,299
576,88	22,377
577,09	18,428
577,29	14,837
577,49	10,955
577,69	8,228
577,90	6,486
578,10	4,495
578,30	3,561
578,50	2,546
578,71	2,153
578,91	1,437
579,11	1,284
579,31	1,066
579,52	0,887
579,72	0,836
579,92	0,819
580,12	0,622
580,33	0,691
580,53	0,540
580,73	0,550
580,93	0,694
581,13	0,702
581,34	0,547
581,54	0,591
581,74	0,677
581,94	0,603
582,15	0,753
582,35	0,473
582,55	0,516
582,75	0,673
582,95	0,747
583,16	0,592
583,36	0,632
583,56	0,617
583,76	0,520
583,96	0,386
584,17	0,533
584,37	0,481
584,57	0,565
584,77	0,464
584,97	0,367
585,18	0,627
585,38	0,565
585,58	0,636
585,78	0,599
585,98	0,540
586,19	0,573
586,39	0,593
586,59	0,605
586,79	0,612
586,99	0,348
587,20	0,570
587,40	0,575
587,60	0,423
587,80	0,576
588,00	0,645
588,20	0,671
588,41	0,618
588,61	0,702
588,81	0,434
589,01	0,568
589,21	0,637
589,41	0,501
589,62	0,555
589,82	0,563
590,02	0,650
590,22	0,548
590,42	0,595
590,62	0,568
590,83	0,541
591,03	0,533
591,23	0,581
591,43	0,849
591,63	0,723
591,83	0,514
592,03	0,704
592,24	0,705
592,44	0,448
592,64	0,541
592,84	0,662
593,04	0,556
593,24	0,526
593,44	0,428
593,65	0,498
593,85	0,653
594,05	0,598
594,25	0,531
594,45	0,457
594,65	0,634
594,85	0,324
595,06	0,466
595,26	0,758
595,46	0,490
595,66	0,453
595,86	0,520
596,06	0,602
596,26	0,591
596,46	0,748
596,66	0,628
596,87	0,604
597,07	0,615
597,27	0,399
597,47	0,675
597,67	0,612
597,87	0,471
598,07	0,534
598,27	0,605
598,47	0,672
598,67	0,557
598,88	0,604
599,08	0,609
599,28	0,634
599,48	0,596
599,68	0,727
599,88	0,538
600,08	0,663
600,28	0,782
600,48	0,623
600,68	0,623
600,88	0,590
601,09	0,653
601,29	0,643
601,49	0,527
601,69	0,689
601,89	0,576
602,09	0,732
602,29	0,592
602,49	0,432
602,69	0,730
602,89	0,541
603,09	0,666
603,29	0,740
603,49	0,637
603,69	0,595
603,90	0,338
604,10	0,638
604,30	0,603
604,50	0,559
604,70	0,539
604,90	0,705
605,10	0,586
605,30	0,651
605,50	0,583
605,70	0,700
605,90	0,372
606,10	0,663
606,30	0,534
606,50	0,785
606,70	0,540
606,90	0,527
607,10	0,513
607,30	0,702
607,50	0,569
607,70	0,731
607,90	0,740
608,10	0,765
608,30	0,621
608,50	0,621
608,70	0,843
608,90	0,664
609,11	0,561
609,31	0,676
609,51	0,609
609,71	0,446
609,91	0,553
610,11	0,761
610,31	0,718
610,51	0,583
610,71	0,548
610,91	0,615
611,11	0,599
611,31	0,599
611,51	0,575
611,71	0,376
611,91	0,844
612,11	0,683
612,31	0,589
612,51	0,789
612,71	0,674
612,91	0,404
613,11	0,545
613,31	0,569
613,51	0,605
613,71	0,576
613,91	0,647
614,11	0,570
614,31	0,430
614,50	0,750
614,70	0,638
614,90	0,511
615,10	0,654
615,30	0,676
615,50	0,544
615,70	0,670
615,90	0,680
616,10	0,691
616,30	0,703
616,50	0,549
616,70	0,591
616,90	0,660
617,10	0,712
617,30	0,573
617,50	0,720
617,70	0,535
617,90	0,531
618,10	0,719
618,30	0,535
618,50	0,761
618,70	0,591
618,90	0,597
619,10	0,628
619,30	0,332
619,49	0,652
619,69	0,594
619,89	0,510
620,09	0,322
620,29	0,534
620,49	0,662
620,69	0,667
620,89	0,477
621,09	0,476
621,29	0,374
621,49	0,560
621,69	0,675
621,89	0,791
622,09	0,594
622,29	0,518
622,48	0,591
622,68	0,629
622,88	0,584
623,08	0,492
623,28	0,527
623,48	0,663
623,68	0,622
623,88	0,550
624,08	0,445
624,28	0,696
624,48	0,640
624,67	0,310
624,87	0,475
625,07	0,579
625,27	0,511
625,47	0,647
625,67	0,749
625,87	0,371
626,07	0,473
626,27	0,304
626,47	0,627
626,66	0,451
626,86	0,578
627,06	0,744
627,26	0,424
627,46	0,358
627,66	0,404
627,86	0,528
628,06	0,588
628,25	0,544
628,45	0,668
628,65	0,407
628,85	0,544
629,05	0,676
629,25	0,375
629,45	0,645
629,65	0,383
629,84	0,383
630,04	0,498
630,24	0,471
630,44	0,381
630,64	0,549
630,84	0,444
631,04	0,602
631,23	0,553
631,43	0,512
631,63	0,408
631,83	0,302
632,03	0,628
632,23	0,615
632,42	0,542
632,62	0,466
632,82	0,494
633,02	0,648
633,22	0,588
633,42	0,582
633,62	0,482
633,81	0,461
634,01	0,679
634,21	0,514
634,41	0,783
634,61	0,645
634,80	0,725
635,00	0,721
635,20	0,794
635,40	0,433
635,60	0,622
635,80	0,684
635,99	0,744
636,19	0,412
636,39	0,680
636,59	0,401
636,79	0,798
636,98	0,611
637,18	0,349
637,38	0,574
637,58	0,506
637,78	0,702
637,97	0,534
638,17	0,604
638,37	0,665
638,57	0,595
638,77	0,869
638,96	0,458
639,16	0,641
639,36	0,424
639,56	1,030
639,76	0,412
639,95	0,827
640,15	0,734
640,35	0,892
640,55	0,623
640,75	0,914
640,94	0,703
641,14	0,925
641,34	0,562
641,54	0,668
641,73	0,625
641,93	0,652
642,13	0,510
642,33	0,736
642,53	0,810
642,72	0,591
642,92	0,840
643,12	0,426
643,32	0,765
643,51	0,721
643,71	0,589
643,91	0,664
644,11	0,828
644,30	0,665
644,50	0,858
644,70	0,795
644,90	0,985
645,09	0,822
645,29	0,773
645,49	0,884
645,69	0,640
645,88	0,965
646,08	0,666
646,28	0,825
646,48	0,464
646,67	0,503
646,87	1,026
647,07	0,910
647,26	1,014
647,46	0,877
647,66	0,614
647,86	1,104
648,05	0,721
648,25	1,495
648,45	0,402
648,65	0,688
648,84	0,560
649,04	0,930
649,24	1,264
649,43	0,874
649,63	0,738
649,83	0,705
650,03	0,825
650,22	0,808
650,42	0,857
650,62	0,744
650,81	0,814
651,01	0,623
651,21	1,016
651,40	0,920
651,60	0,746
651,80	0,653
652,00	0,853
652,19	1,074
652,39	0,968
652,59	1,160
652,78	0,714
652,98	0,141
653,18	1,004
653,37	1,212
653,57	1,092
653,77	0,878
653,96	0,780
654,16	1,084
654,36	0,814
654,55	0,665
654,75	0,682
654,95	0,638
655,14	0,759
655,34	0,974
655,54	1,127
655,73	0,374
655,93	0,698
656,13	0,904
656,32	0,317
656,52	0,794
656,72	1,043
656,91	1,032
657,11	0,431
657,31	0,505
657,50	0,837
657,70	0,894
657,90	1,017
658,09	0,859
658,29	0,848
658,49	0,497
658,68	0,443
658,88	0,776
659,07	0,427
659,27	0,663
659,47	0,723
659,66	0,777
659,86	0,568
660,06	0,580
660,25	0,672
660,45	0,877
660,64	0,492
660,84	0,392
661,04	0,709
661,23	0,979
661,43	0,817
661,63	0,981
661,82	0,390
662,02	0,860
662,21	0,671
662,41	1,189
662,61	1,025
662,80	0,922
663,00	0,217
663,19	0,795
663,39	0,285
663,59	0,999
663,78	0,765
663,98	0,812
664,17	0,741
664,37	0,534
664,57	0,771
664,76	0,705
664,96	0,485
665,15	0,468
665,35	0,745
665,55	0,410
665,74	0,599
665,94	0,903
666,13	0,507
666,33	0,810
666,53	0,994
666,72	0,582
666,92	0,899
667,11	0,674
667,31	0,322
667,50	0,480
667,70	0,707
667,90	0,212
668,09	0,771
668,29	0,327
668,48	0,740
668,68	0,601
668,87	0,798
669,07	0,616
669,26	0,561
669,46	0,649
669,66	0,554
669,85	0,505
670,05	0,631
670,24	0,712
670,44	0,669
670,63	0,592
670,83	0,413
671,02	0,509
671,22	0,287
671,42	0,734
671,61	0,385
671,81	0,385
672,00	0,613
672,20	0,577
672,39	0,585
672,59	0,450
672,78	0,377
672,98	0,595
673,17	0,222
673,37	0,255
673,56	0,689
673,76	0,218
673,95	0,357
674,15	0,621
674,34	0,436
674,54	0,478
674,73	0,910
674,93	0,418
675,13	0,558
675,32	0,603
675,52	0,434
675,71	0,597
675,91	0,531
676,10	0,501
676,30	0,487
676,49	0,176
676,69	0,435
676,88	0,527
677,08	0,269
677,27	0,339
677,47	0,546
677,66	0,685
677,86	0,448
678,05	0,256
678,24	0,477
678,44	0,697
678,63	0,641
678,83	0,229
679,02	0,553
679,22	0,599
679,41	0,530
679,61	0,449
679,80	0,432
680,00	0,219
680,19	0,497
680,39	0,412
680,58	0,436
680,78	0,241
680,97	0,552
681,17	0,538
681,36	0,181
681,56	0,393
681,75	0,335
681,94	0,331
682,14	0,537
682,33	0,754
682,53	0,319
682,72	0,392
682,92	0,475
683,11	0,258
683,31	0,456
683,50	0,298
683,69	0,257
683,89	0,473
684,08	0,167
684,28	0,204
684,47	0,211
684,67	0,168
684,86	0,296
685,06	0,163
685,25	0,289
685,44	0,285
685,64	0,474
685,83	0,380
686,03	0,127
686,22	0,214
686,42	0,176
686,61	0,145
686,80	0,082
687,00	0,086
687,19	0,355
687,39	0,284
687,58	0,388
687,77	0,422
687,97	0,348
688,16	0,322
688,36	0,174
688,55	0,104
688,74	0,132
688,94	0,235
689,13	0,181
689,33	0,104
689,52	0,350
689,71	0,319
689,91	0,117
690,10	0,285
690,30	-0,012
690,49	0,092
690,68	0,318
690,88	0,115
691,07	0,206
691,27	0,176
691,46	0,245
691,65	0,122
691,85	0,287
692,04	0,214
692,23	0,075
692,43	0,238
692,62	0,200
692,82	0,281
693,01	0,219
693,20	0,169
693,40	0,164
693,59	0,292
693,78	0,287
693,98	0,122
694,17	0,087
694,36	0,311
694,56	0,173
694,75	0,303
694,94	0,342
695,14	0,183
695,33	0,163
695,53	0,334
695,72	0,229
695,91	0,005
696,11	0,141
696,30	0,255
696,49	0,215
696,69	0,168
696,88	0,117
697,07	0,218
697,27	0,463
697,46	0,302
697,65	0,216
697,85	0,059
698,04	0,207
698,23	0,298
698,43	0,430
698,62	0,206
698,81	0,486
699,01	0,643
699,20	0,386
699,39	0,274
699,58	0,458
699,78	0,482
699,97	0,511
700,16	0,259
700,36	0,693
700,55	0,285
700,74	0,630
700,94	0,548
701,13	0,455
701,32	0,146
701,52	0,359
701,71	0,594
701,90	0,865
702,09	0,650
702,29	0,672
702,48	0,342
702,67	1,118
702,87	1,034
703,06	0,451
703,25	1,363
703,44	0,631
703,64	0,553
703,83	0,344
704,02	0,994
704,22	0,856
704,41	0,604
704,60	1,495
704,79	0,673
704,99	0,877
705,18	1,101
705,37	0,776
705,56	0,615
705,76	1,246
705,95	2,039
706,14	1,161
706,33	1,026
706,53	0,852
706,72	0,356
706,91	1,661
707,11	0,258
707,30	1,213
707,49	1,163
707,68	1,409
707,88	1,432
708,07	0,122
708,26	1,019
708,45	0,805
708,64	1,818
708,84	0,458
709,03	1,622
709,22	1,588
709,41	2,572
709,61	1,827
709,80	1,335
709,99	1,743
710,18	2,590
710,38	0,189
710,57	0,540
710,76	0,688
710,95	1,352
711,14	2,615
711,34	2,237
711,53	3,045
711,72	2,427
711,91	2,768
712,11	2,527
712,30	0,654
712,49	0,881
712,68	0,594
712,87	1,184
713,07	2,850
713,26	2,749
713,45	1,748
713,64	1,833
713,83	1,011
714,03	1,701
714,22	3,620
714,41	1,350
714,60	1,709
714,79	-0,144
714,99	2,274
715,18	3,075
715,37	4,730
715,56	3,894
715,75	3,302
715,94	3,297
716,14	5,205
716,33	3,382
716,52	4,350
716,71	3,985
716,90	3,774
717,10	3,396
717,29	3,095
717,48	2,725
717,67	2,933
717,86	1,211
718,05	2,518
718,24	2,735
718,44	2,928
718,63	1,399
718,82	2,998
719,01	2,179
719,20	5,206
719,39	2,745
719,59	-0,195
719,78	1,937
719,97	1,874
720,16	4,167
720,35	1,514
720,54	1,817
720,73	4,778
720,93	3,688
721,12	1,868
721,31	1,166
721,50	3,927
721,69	4,387
721,88	4,608
722,07	3,001
722,27	4,918
722,46	2,999
722,65	2,859
722,84	4,113
723,03	3,161
723,22	4,271
723,41	6,561
723,60	2,044
723,79	7,013
723,99	7,293
724,18	6,847
724,37	-2,997
724,56	5,707
724,75	2,174
724,94	8,784
725,13	4,034
725,32	4,230
725,51	4,000
725,71	7,720
725,90	4,631
726,09	4,018
726,28	3,718
726,47	1,183
726,66	8,664
726,85	7,773
727,04	3,466
727,23	3,056
727,42	8,136
727,61	1,749
727,81	0,216
728,00	3,326
728,19	9,751
728,38	1,965
728,57	5,625
728,76	1,717
728,95	7,604
729,14	3,139
729,33	5,484
729,52	4,274
729,71	4,338
729,90	9,231
730,09	10,070
730,28	7,881
730,48	4,853
730,67	6,138
730,86	8,983
731,05	-2,567
731,24	1,463
731,43	6,969
731,62	5,384
731,81	2,611
732,00	7,665
732,19	0,000
732,38	6,923
732,57	6,235
732,76	2,736
732,95	4,762
733,14	-0,861
733,33	3,175
733,52	10,534
733,71	9,326
733,90	4,520
734,09	5,541
734,28	2,756
734,47	7,778
734,66	0,000
734,85	-0,429
735,04	6,419
735,23	10,364
735,42	3,279
735,61	9,038
735,81	6,953
736,00	5,271
736,19	1,976
736,38	5,838
736,57	10,974
736,76	4,672
736,95	3,025
737,14	11,962
737,33	10,184
737,52	9,538
737,71	6,393
737,90	11,437
738,09	10,502
738,28	11,360
738,47	2,555
738,66	0,160
738,85	0,150
739,04	3,945
739,22	6,020
739,41	2,574
739,60	5,119
739,79	7,014
739,98	3,047
740,17	14,676
740,36	16,275
740,55	15,127
740,74	11,492
740,93	12,620
741,12	10,179
741,31	3,169
741,50	0,567
741,69	9,027
741,88	-0,988
742,07	13,768
742,26	11,810
742,45	10,041
742,64	8,592
742,83	7,788
743,02	3,158
743,21	17,329
743,40	1,035
743,59	13,419
743,78	10,568
743,97	5,192
744,16	9,449
744,34	3,263
744,53	10,515
744,72	8,559
744,91	0,840
745,10	12,579
745,29	16,532
745,48	17,727
745,67	6,606
745,86	5,960
746,05	14,455
746,24	13,814
746,43	9,208
746,62	17,026
746,81	17,079
747,00	20,569
747,18	1,525
747,37	16,632
747,56	8,235
747,75	-2,709
747,94	14,806
748,13	19,911
748,32	14,762
748,51	15,736
748,70	14,317
748,89	7,963
749,08	-3,779
749,26	14,758
749,45	9,115
749,64	6,045
749,83	20,899
750,02	20,380
750,21	7,379
750,40	17,206
750,59	9,920
750,78	11,222
750,96	12,707
751,15	8,411
751,34	-12,784
751,53	3,552
751,72	18,028
751,91	13,990
752,10	15,969
752,29	16,533
752,47	2,292
752,66	17,778
752,85	8,197
753,04	7,542
753,23	19,505
753,42	13,747
753,61	14,107
753,80	13,746
753,98	27,778
754,17	21,581
754,36	4,194
754,55	9,036
754,74	8,117
754,93	18,457
755,12	19,288
755,30	14,610
755,49	11,337
755,68	20,859
755,87	0,000
756,06	13,889
756,25	17,933
756,43	12,081
756,62	31,366
756,81	10,596
757,00	6,250
757,19	11,458
757,38	1,158
757,56	7,200
757,75	12,628
757,94	1,521
758,13	17,123
758,32	15,430
758,51	15,488
758,69	14,286
758,88	-2,020
759,07	18,563
759,26	17,668
759,45	21,053
759,63	15,152
759,82	36,491
760,01	11,355
760,20	33,962
760,39	22,397
760,57	5,923
760,76	10,801
760,95	23,958
761,14	18,613
761,33	28,387
761,51	30,714
761,70	34,572
761,89	9,778
762,08	27,881
762,27	15,884
762,45	15,217
762,64	11,558
762,83	29,880
763,02	17,826
763,21	-4,000
763,39	21,329
763,58	14,870
763,77	18,565
763,96	20,319
764,14	23,750
764,33	12,857
764,52	9,375
764,71	15,738
764,89	16,518
765,08	9,852
765,27	13,617
765,46	17,040
765,65	27,059
765,83	30,317
766,02	4,286
766,21	19,126
766,40	24,125
766,58	19,048
766,77	14,220
766,96	13,415
767,15	9,244
767,33	35,266
767,52	33,624
767,71	18,421
767,90	16,583
768,08	28,743
768,27	8,943
768,46	46,491
768,64	18,056
768,83	33,333
769,02	1,970
769,21	14,583
769,39	16,429
769,58	16,017
769,77	29,255
769,96	38,739
770,14	31,148
770,33	22,430
770,52	30,216
770,70	20,541
770,89	33,514
771,08	3,012
771,27	20,000
771,45	10,000
771,64	1,818
771,83	25,980
772,01	38,144
772,20	18,905
772,39	10,759
772,57	23,383
772,76	8,784
772,95	36,782
773,14	-0,680
773,32	2,825
773,51	18,452
773,70	30,216
773,88	5,161
774,07	38,579
774,26	-12,903
774,44	32,331
774,63	38,922
774,82	24,026
775,00	41,121
775,19	11,310
775,38	26,064
775,56	44,099
775,75	35,165
775,94	6,667
776,12	47,059
776,31	40,602
776,50	28,767
776,68	18,280
776,87	51,196
777,06	45,283
777,24	20,168
777,43	37,968
777,62	42,697
777,80	39,623
777,99	46,667
778,18	37,356
778,36	50,000
778,55	25,424
778,74	20,312
778,92	28,395
779,11	36,364
779,29	-10,638
779,48	33,333
779,67	39,640
779,85	-1,754
780,04	39,855
780,23	41,667
780,41	71,186
780,60	8,054
780,79	13,710
780,97	20,261
781,16	5,319
781,34	64,865
781,53	41,964
781,72	38,739
781,90	38,323
782,09	36,047
782,28	60,544
782,46	51,429
782,65	33,099
782,83	18,868
783,02	66,667
783,21	76,692
783,39	67,227
783,58	57,391
783,76	27,211
783,95	53,521
784,14	39,474
784,32	15,294
784,51	69,595
784,69	9,375
784,88	30,841
785,06	58,278
785,25	31,915
785,44	38,710
785,62	29,286
785,81	29,630
785,99	45,865
786,18	24,324
786,37	63,736
786,55	43,750
786,74	56,364
786,92	11,189
787,11	21,528
787,29	41,071
787,48	38,710
787,67	30,189
787,85	54,430
788,04	36,937
788,22	13,861
788,41	39,370
788,59	57,237
788,78	45,055
788,96	29,752
789,15	45,000
789,34	32,692
789,52	35,484
789,71	65,468
789,89	22,078
790,08	23,750
790,26	47,134
790,45	125,000
790,63	8,046
790,82	66,154
791,00	29,204
791,19	64,000
791,38	37,143
791,56	36,364
791,75	-6,944
791,93	63,000
792,12	73,913
792,30	41,606
792,49	27,273
792,67	25,735
792,86	31,200
793,04	8,333
793,23	80,000
793,41	38,406
793,60	35,417
793,78	49,524
793,97	60,417
794,15	87,218
794,34	36,000
794,52	9,677
794,71	47,287
794,89	24,242
795,08	86,400
795,26	64,000
795,45	48,611
795,63	58,065
795,82	47,253
796,00	92,000
796,19	49,593
796,37	43,511
796,56	0,000
796,74	32,632
796,93	40,909
797,11	68,675
797,30	48,333
797,48	32,812
797,67	45,528
797,85	82,308
798,04	51,695
798,22	67,949
798,41	24,038
798,59	71,429
798,77	33,735
798,96	41,975
799,14	30,645
799,33	54,128
799,51	19,444
799,70	44,615
799,88	55,046
800,07	40,458
800,25	89,157
800,44	74,074
800,62	63,889
800,80	46,479
800,99	78,082
801,17	62,931
801,36	56,429
801,54	30,000
801,73	30,526
801,91	52,893
802,10	8,235
802,28	44,000
802,46	26,316
802,65	41,727
802,83	44,000
803,02	45,968
803,20	110,843
803,39	63,218
803,57	62,992
803,75	52,033
803,94	35,714
804,12	72,414
804,31	18,841
804,49	44,800
804,67	29,412
804,86	21,239
805,04	44,578
805,23	66,372
805,41	70,000
805,59	72,603
805,78	64,800
805,96	28,916
806,15	86,139
806,33	90,789
806,51	40,000
806,70	42,105
806,88	44,186
807,07	56,757
807,25	49,451
807,43	41,071
807,62	14,159
807,80	37,143
807,99	54,615
808,17	-9,449
808,35	47,000
808,54	41,304
808,72	83,784
808,90	45,205
809,09	9,783
809,27	58,667
809,46	74,725
809,64	57,317
809,82	54,967
810,01	67,188
810,19	56,566
810,37	32,031
810,56	123,333
810,74	90,909
810,92	36,667
811,11	14,035
811,29	70,755
811,48	32,308
811,66	61,798
811,84	53,846
812,03	26,230
812,21	50,877
812,39	36,522
812,58	64,211
812,76	47,482
812,94	32,530
813,13	43,617
813,31	55,000
813,49	54,630
813,68	7,273
813,86	17,978
814,04	0,826
814,23	51,807
814,41	11,236
814,59	-1,942
814,78	41,912
814,96	37,736
815,14	45,794
815,33	15,504
815,51	35,433
815,69	48,571
815,87	36,634
816,06	29,565
816,24	54,037
816,42	24,265
816,61	40,881
816,79	45,690
816,97	46,591
817,16	43,195
817,34	46,032
817,52	41,322
817,70	67,327
817,89	49,630
818,07	30,822
818,25	24,490
818,44	78,205
818,62	14,729
818,80	36,842
818,98	40,127
819,17	40,336
819,35	39,362
819,53	60,448
819,72	37,975
819,90	39,535
820,08	7,692
820,26	45,690
820,45	30,872
820,63	84,821
820,81	40,800
820,99	63,121
821,18	59,184
821,36	45,570
821,54	41,379
821,73	40,000
821,91	39,474
822,09	38,710
822,27	38,710
822,46	16,912
822,64	14,400
822,82	34,807
823,00	-1,657
823,19	30,220
823,37	28,485
823,55	28,409
823,73	69,655
823,91	27,536
824,10	36,559
824,28	49,246
824,46	1,942
824,64	38,158
824,83	40,373
825,01	41,333
825,19	31,452
825,37	40,000
825,56	41,509
825,74	44,388
825,92	22,930
826,10	56,818
826,28	34,524
826,47	9,474
826,65	44,681
826,83	39,655
827,01	46,821
827,19	32,143
827,38	40,741
827,56	43,750
827,74	24,022
827,92	1,744
828,10	0,000
828,29	46,154
828,47	34,553
828,65	14,615
828,83	6,667
829,01	33,696
829,20	34,615
829,38	22,727
829,56	40,761
829,74	22,642
829,92	21,429
830,10	33,908
830,29	40,201
830,47	30,653
830,65	7,927
830,83	14,732
831,01	51,190
831,20	38,835
831,38	18,182
831,56	40,930
831,74	50,237
831,92	50,000
832,10	38,571
832,29	29,054
832,47	18,539
832,65	18,627
832,83	24,883
833,01	36,500
833,19	21,719
833,37	15,385
833,56	11,392
833,74	28,431
833,92	20,370
834,10	24,481
834,28	25,316
834,46	33,032
834,64	20,370
834,83	40,455
835,01	32,780
835,19	21,200
835,37	19,835
835,55	43,229
835,73	25,616
835,91	25,830
836,09	32,319
836,28	18,081
836,46	19,600
836,64	28,947
836,82	5,882
837,00	27,174
837,18	17,844
837,36	27,888
837,54	16,364
837,72	7,759
837,91	30,597
838,09	11,155
838,27	16,333
838,45	16,667
838,63	17,647
838,81	6,329
838,99	17,742
839,17	22,973
839,35	26,596
839,53	23,509
839,72	22,932
839,90	22,337
840,08	26,769
840,26	32,143
840,44	20,544
840,62	6,207
840,80	24,150
840,98	1,176
841,16	8,745
841,34	13,043
841,52	20,183
841,70	24,615
841,89	4,435
842,07	14,734
842,25	19,253
842,43	-3,448
842,61	16,491
842,79	15,254
842,97	18,567
843,15	24,092
843,33	10,726
843,51	12,048
843,69	24,786
843,87	10,075
844,05	13,374
844,23	19,820
844,41	5,643
844,59	21,614
844,77	15,686
844,95	12,717
845,13	24,308
845,31	9,884
845,50	17,277
845,68	15,434
845,86	4,598
846,04	23,184
846,22	19,346
846,40	19,892
846,58	10,541
846,76	24,462
846,94	23,441
847,12	19,430
847,30	10,567
847,48	23,839
847,66	15,025
847,84	-2,186
848,02	22,222
848,20	13,178
848,38	7,977
848,56	16,193
848,74	17,661
848,92	12,219
849,10	15,250
849,28	10,526
849,46	10,933
849,64	18,014
849,82	11,728
850,00	25,701
850,18	15,106
850,36	13,466
850,54	24,311
850,72	-2,571
850,90	18,913
851,08	12,691
851,26	10,284
851,44	11,726
851,62	16,512
851,80	7,709
851,98	9,011
852,16	8,747
852,34	14,433
852,52	2,679
852,70	1,139
852,87	5,936
853,05	2,144
853,23	14,639
853,41	14,512
853,59	10,788
853,77	15,476
853,95	14,768
854,13	5,973
854,31	20,123
854,49	3,792
854,67	3,240
854,85	8,903
855,03	19,639
855,21	21,474
855,39	7,445
855,57	8,244
855,75	14,781
855,93	-1,373
856,11	17,215
856,28	9,410
856,46	9,964
856,64	12,381
856,82	12,887
857,00	6,085
857,18	7,040
857,36	9,444
857,54	8,997
857,72	10,175
857,90	10,886
858,08	18,039
858,26	11,594
858,44	8,187
858,61	7,491
858,79	11,073
858,97	14,336
859,15	14,241
859,33	9,219
859,51	6,030
859,69	-4,651
859,87	13,674
860,05	-0,533
860,23	4,383
860,40	10,320
860,58	2,459
860,76	9,206
860,94	2,602
861,12	14,615
861,30	3,611
861,48	8,429
861,66	9,206
861,84	3,886
862,01	8,542
862,19	-1,356
862,37	6,354
862,55	9,222
862,73	10,217
862,91	0,587
863,09	7,887
863,27	4,310
863,44	3,103
863,62	4,755
863,80	2,532
863,98	4,303
864,16	-1,012
864,34	8,628
864,52	9,920
864,69	8,626
864,87	7,959
865,05	10,748
865,23	7,974
865,41	3,898
865,59	7,537
865,76	10,349
865,94	8,786
866,12	7,484
866,30	9,818
866,48	13,097
866,66	5,108
866,83	7,761
867,01	4,731
867,19	8,973
867,37	2,458
867,55	8,722
867,73	5,889
867,90	6,347
868,08	3,265
868,26	4,289
868,44	2,462
868,62	7,371
868,79	5,155
868,97	2,645
869,15	2,088
869,33	8,547
869,51	1,974
869,69	2,927
869,86	4,795
870,04	8,046
870,22	9,800
870,40	5,146
870,57	4,383
870,75	7,182
870,93	9,053
871,11	8,658
871,29	5,137
871,46	8,940
871,64	9,414
871,82	7,104
872,00	11,728
872,18	0,316
872,35	9,365
872,53	2,522
872,71	5,612
872,89	12,845
873,06	4,361
873,24	5,238
873,42	5,655
873,60	0,632
873,77	1,431
873,95	4,860
874,13	1,163
874,31	3,199
874,49	4,356
874,66	1,598
874,84	6,419
875,02	6,599
875,20	8,571
875,37	5,352
875,55	4,294
875,73	4,720
875,91	1,952
876,08	2,559
876,26	2,739
876,44	6,603
876,61	7,252
876,79	7,612
876,97	3,193
877,15	3,700
877,32	2,302
877,50	4,387
877,68	3,342
877,86	1,359
878,03	3,722
878,21	4,671
878,39	5,854
878,56	-1,405
878,74	4,587
878,92	0,404
879,10	3,613
879,27	5,243
879,45	5,332
879,63	3,882
879,80	3,817
879,98	1,505
880,16	4,367
880,34	3,316
880,51	1,577
880,69	-0,074
880,87	1,841
881,04	2,098
881,22	4,514
881,40	3,359
881,57	3,933
881,75	4,017
881,93	6,864
882,10	3,233
882,28	3,310
882,46	4,315
882,63	2,452
882,81	6,802
882,99	2,803
883,16	5,322
883,34	1,537
883,52	2,012
883,69	4,759
883,87	2,865
884,05	2,923
884,22	2,414
884,40	4,631
884,58	1,418
884,75	4,567
884,93	3,041
885,11	4,488
885,28	1,497
885,46	0,984
885,64	2,667
885,81	1,943
885,99	2,602
886,17	2,270
886,34	3,177
886,52	2,681
886,70	3,949
886,87	1,523
887,05	2,413
887,22	2,656
887,40	3,626
887,58	0,321
887,75	3,928
887,93	6,051
888,11	2,958
888,28	3,397
888,46	3,376
888,63	0,512
888,81	1,720
888,99	4,596
889,16	3,244
889,34	2,485
889,51	2,801
889,69	0,050
889,87	6,163
890,04	1,379
890,22	2,097
890,39	2,978
890,57	3,182
890,75	1,964
890,92	2,818
891,10	1,876
891,27	2,931
891,45	3,256
891,63	5,122
891,80	3,583
891,98	1,793
892,15	2,749
892,33	2,953
892,51	3,946
892,68	3,080
892,86	1,915
893,03	1,373
893,21	3,851
893,38	3,811
893,56	3,157
893,74	1,845
893,91	1,630
894,09	2,637
894,26	1,058
894,44	1,860
894,61	2,467
894,79	1,571
894,96	1,323
895,14	4,068
895,32	2,329
895,49	2,983
895,67	3,378
895,84	2,074
896,02	1,418
896,19	0,887
896,37	1,830
896,54	1,113
896,72	2,516
896,89	2,184
897,07	2,620
897,25	3,749
897,42	3,181
897,60	3,364
897,77	1,207
897,95	1,308
898,12	3,318
898,30	2,879
898,47	0,660
898,65	2,193
898,82	0,699
899,00	1,691
899,17	4,098
899,35	-0,276
899,52	3,305
899,70	3,090
899,87	1,184
900,05	1,104
900,22	1,676
900,40	0,794
900,57	1,336
900,75	0,897
900,92	2,781
901,10	2,903
901,27	1,702
901,45	3,106
901,62	2,623
901,80	1,007
901,97	1,583
902,15	1,477
902,32	3,270
902,50	1,076
902,67	3,872
902,85	0,784
903,02	4,087
903,20	2,355
903,37	0,107
903,54	1,473
903,72	4,073
903,89	1,299
904,07	0,998
904,24	1,760
904,42	1,549
904,59	1,714
904,77	2,511
904,94	0,342
905,12	-0,319
905,29	0,316
905,47	0,837
905,64	1,604
905,81	1,670
905,99	1,645
906,16	0,902
906,34	1,712
906,51	1,727
906,69	2,277
906,86	1,843
907,03	0,774
907,21	1,693
907,38	1,191
907,56	2,037
907,73	2,708
907,91	1,353
908,08	1,404
908,25	1,840
908,43	0,805
908,60	1,165
908,78	1,410
908,95	2,131
909,13	2,448
909,30	3,170
909,47	1,272
909,65	2,106
909,82	2,031
910,00	1,641
910,17	1,278
910,34	2,002
910,52	0,374
910,69	0,631
910,87	1,472
911,04	1,575
911,21	3,513
911,39	0,547
911,56	2,086
911,73	1,593
911,91	2,354
912,08	2,680
912,26	0,815
912,43	2,900
912,60	1,045
912,78	1,364
912,95	1,260
913,13	1,876
913,30	1,898
913,47	2,404
913,65	2,024
913,82	2,420
913,99	1,047
914,17	1,370
914,34	0,689
914,51	1,915
914,69	2,956
914,86	3,053
915,03	2,362
915,21	1,148
915,38	1,590
915,56	0,611
915,73	0,284
915,90	2,006
916,08	2,008
916,25	1,478
916,42	1,493
916,60	1,723
916,77	0,910
916,94	2,058
917,12	1,182
917,29	1,075
917,46	0,494
917,64	1,280
917,81	0,685
917,98	0,873
918,16	1,284
918,33	1,800
918,50	0,484
918,67	1,673
918,85	0,272
919,02	1,891
919,19	1,720
919,37	0,183
919,54	1,369
919,71	2,199
919,89	0,651
920,06	1,076
920,23	1,330
920,41	0,474
920,58	0,650
920,75	3,030
920,92	0,812
921,10	1,232
921,27	0,500
921,44	1,329
921,62	1,495
921,79	0,943
921,96	1,521
922,13	1,126
922,31	0,948
922,48	1,031
922,65	0,608
922,82	0,518
923,00	1,762
923,17	2,004
923,34	1,356
923,52	0,936
923,69	2,297
923,86	1,611
924,03	1,840
924,21	1,063
924,38	1,233
924,55	1,823
924,72	0,850
924,90	1,235
925,07	2,009
925,24	1,580
925,41	1,506
925,59	0,571
925,76	0,647
925,93	0,704
926,10	1,134
926,28	1,225
926,45	0,862
926,62	1,217
926,79	2,050
926,96	2,473
927,14	2,488
927,31	1,324
927,48	1,213
927,65	1,859
927,83	1,721
928,00	1,895
928,17	1,760
928,34	1,670
928,51	1,425
928,69	1,838
928,86	1,158
929,03	0,747
929,20	0,280
929,37	0,723
929,55	1,188
929,72	1,861
929,89	1,675
930,06	0,835
930,23	1,242
930,41	1,311
930,58	1,557
930,75	0,975
930,92	1,321
931,09	1,986
931,27	0,722
931,44	2,046
931,61	2,502
931,78	1,522
931,95	1,490
932,12	0,902
932,30	1,668
932,47	0,640
932,64	1,847
932,81	0,994
932,98	1,861
933,16	1,108
933,33	1,499
933,50	1,568
933,67	1,859
933,84	2,946
934,01	1,611
934,18	1,847
934,36	1,763
934,53	1,831
934,70	0,885
934,87	1,316
935,04	1,914
935,21	1,973
935,38	1,863
935,56	1,879
935,73	1,158
935,90	2,083
936,07	1,747
936,24	2,861
936,41	2,189
936,58	1,641
936,76	1,945
936,93	1,851
937,10	2,309
937,27	2,011
937,44	1,553
937,61	1,969
937,78	1,722
937,95	2,377
938,13	0,971
938,30	1,327
938,47	1,384
938,64	1,740
938,81	0,974
938,98	0,778
939,15	1,589
939,32	1,339
939,49	1,135
939,66	1,610
939,84	0,747
940,01	0,547
940,18	0,850
940,35	0,349
940,52	0,945
940,69	0,809
940,86	0,771
941,03	0,453
941,20	0,608
941,37	0,984
941,54	1,783
941,71	1,611
941,89	1,125
942,06	0,650
942,23	1,398
942,40	0,463
942,57	0,484
942,74	0,978
942,91	1,952
943,08	2,222
943,25	2,286
943,42	0,600
943,59	2,587
943,76	1,441
943,93	0,448
944,10	0,135
944,27	0,367
944,44	0,899
944,61	1,173
944,79	2,271
944,96	2,431
945,13	0,890
945,30	1,497
945,47	1,255
945,64	1,577
945,81	1,609
945,98	1,291
946,15	1,046
946,32	2,471
946,49	1,511
946,66	2,218
946,83	1,664
947,00	2,062
947,17	0,299
947,34	0,702
947,51	1,431
947,68	2,030
947,85	0,772
948,02	1,370
948,19	1,072
948,36	1,354
948,53	0,408
948,70	0,680
948,87	3,211
949,04	1,835
949,21	0,977
949,38	2,361
949,55	1,437
949,72	1,139
949,89	2,071
950,06	1,662
950,23	0,437
950,40	1,628
950,57	1,158
950,74	2,028
950,91	1,247
951,08	1,840
951,25	2,123
951,42	1,243
951,59	1,748
951,76	0,159
951,93	2,032
952,10	0,363
952,27	1,352
952,44	2,682
952,61	1,317
952,77	1,790
952,94	0,782
953,11	2,146
953,28	4,282
953,45	2,563
953,62	2,575
953,79	2,716
953,96	3,214
954,13	4,580
954,30	3,354
954,47	2,687
954,64	0,057
954,81	4,255
954,98	2,921
955,15	0,302
955,32	5,688
955,49	3,081
955,65	3,323
955,82	4,416
955,99	4,428
956,16	6,752
956,33	1,734
956,50	1,106
956,67	1,452
956,84	6,784
957,01	0,821
957,18	6,084
957,35	2,558
957,52	-0,083
957,68	6,353
957,85	5,451
958,02	4,829
958,19	0,094
958,36	6,153
958,53	1,983
958,70	3,907
958,87	2,994
959,04	2,658
959,21	6,094
959,37	5,086
959,54	5,759
959,71	5,696
959,88	2,209
960,05	7,218
960,22	11,195
960,39	7,663
960,56	4,348
960,72	4,709
960,89	0,671
961,06	1,939
961,23	3,364
961,40	6,461
961,57	0,319
961,74	10,138
961,90	11,176
962,07	7,324
962,24	6,421
962,41	11,207
962,58	6,355
962,75	17,094
962,92	7,368
963,08	2,708
963,25	9,761
963,42	16,867
963,59	2,669
963,76	9,940
963,93	13,646
964,10	9,276
964,26	5,476
964,43	5,116
964,60	8,817
964,77	15,213
964,94	12,346
965,10	4,178
965,27	8,939
965,44	2,857
965,61	7,877
965,78	11,801
965,95	21,393
966,11	-0,606
966,28	18,436
966,45	5,882
966,62	4,530
966,79	13,993
966,95	17,438
967,12	26,349
967,29	19,444
967,46	26,690
967,63	22,353
967,79	41,611
967,96	38,532
968,13	19,524
968,30	27,572
968,47	23,846
968,63	31,863
968,80	27,586
968,97	19,075
969,14	39,548
969,31	38,776
969,47	42,391
969,64	19,231
969,81	9,032
969,98	17,368
970,14	15,054
970,31	31,447
970,48	32,215
970,65	-9,091
970,81	20,979
970,98	31,771
971,15	41,818
971,32	44,697
971,48	69,643
971,65	3,311
971,82	27,273
971,99	46,203
972,15	26,744
972,32	61,111
972,49	40,984
972,66	23,140
972,82	44,521
972,99	5,000
973,16	86,755
973,33	33,333
973,49	48,780
973,66	47,619
973,83	46,914
974,00	65,823
974,16	34,545
974,33	36,000
974,50	42,424
974,67	5,952
974,83	114,286
975,00	127,273
975,17	85,484
975,33	81,609
975,50	122,951
975,67	113,462
975,84	31,707
976,00	101,316
976,17	102,174
976,34	117,647
976,50	39,560
976,67	102,381
976,84	193,750
977,00	56,410
977,17	204,444
977,34	215,385
977,50	39,286
977,67	100,000
977,84	161,017
978,01	74,324
978,17	72,414
978,34	266,667
978,51	144,000
978,67	134,694
978,84	98,182
979,01	44,737
979,17	71,429
979,34	150,000
979,51	115,909
979,67	245,833
979,84	176,271
980,01	163,462
980,17	238,235
980,34	102,740
980,51	522,222
980,67	88,889
980,84	135,714
981,01	252,941
981,17	88,235
981,34	112,857
981,50	115,789
981,67	188,095
981,84	150,000
982,00	6600,000
982,17	82,813
982,34	153,659
982,50	0,000
982,67	-400,000
982,84	395,000
983,00	68,519
983,17	-314,286
983,33	400,000
983,50	70,732
983,67	142,029
983,83	214,286
984,00	291,304
984,17	900,000
984,33	57,143
984,50	221,622
984,66	475,000
984,83	212,500
985,00	292,308
985,16	196,774
985,33	2800,000
985,49	123,256
985,66	127,500
985,83	-2700,000
985,99	255,556
986,16	468,421
986,32	69,863
986,49	-1100,000
986,66	780,000
986,82	72,727
986,99	-680,000
987,15	157,576
987,32	423,529
987,49	157,143
987,65	-139,130
987,82	-285,000
987,98	113,636
988,15	242,857
988,31	208,571
988,48	152,941
988,65	650,000
988,81	76,364
988,98	202,703
989,14	930,000
989,31	125,424
989,47	-50,000
989,64	227,778
989,80	74,468
989,97	169,091
990,14	450,000
990,30	-325,000
990,47	-200,000
990,63	63,158
990,80	950,000
990,96	858,333
991,13	216,667
991,29	147,059
991,46	160,417
991,62	0,000
991,79	-670,000
991,95	282,353
992,12	1133,333
992,29	-457,143
992,45	128,571
992,62	-117,857
992,78	-200,000
992,95	277,419
993,11	962,500
993,28	-5900,000
993,44	-168,966
993,61	126,316
993,77	0,000
993,94	200,000
994,10	771,429
994,27	5,263
994,43	118,750
994,60	528,571
994,76	230,303
994,93	-430,000
995,09	-406,250
995,26	166,667
995,42	650,000
995,59	210,000
995,75	-550,000
995,92	-1100,000
996,08	-1080,000
996,25	248,485
996,41	1160,000
996,58	380,000
996,74	-320,000
996,91	104,839
997,07	268,000
997,23	158,824
997,40	700,000
997,56	-1033,333
997,73	182,609
997,89	1060,000
998,06	133,333
998,22	202,128
998,39	161,224
998,55	368,421
998,72	-6700,000
998,88	124,000
999,05	546,667
999,21	282,353
999,37	130,233
999,54	193,548
999,70	276,190
999,87	700,000
1000,03	320,000
1000,20	321,429
1000,36	-687,500
1000,52	1300,000
1000,69	452,000
1000,85	-250,000
1001,02	190,476
1001,18	340,000
1001,35	0,000
1001,51	471,429
1001,67	225,000
1001,84	34,146
1002,00	-545,455
1002,17	1025,000
1002,33	-775,000
1002,50	508,333
1002,66	762,500
1002,82	97,561
1002,99	-218,182
1003,15	-4300,000
1003,32	-150,000
1003,48	-1433,333
1003,64	247,826
1003,81	-163,158
1003,97	143,478
1004,14	-50,909
1004,30	309,091
1004,46	-2700,000
1004,63	-323,077
1004,79	194,595
1004,95	-1040,000
1005,12	-107,692
1005,28	205,556
1005,45	-983,333
1005,61	323,077
1005,77	-1114,286
1005,94	265,217
1006,10	-550,000
1006,26	-51,852
1006,43	272,727
1006,59	335,484
1006,76	-248,000
1006,92	308,696
1007,08	100,000
1007,25	286,111
1007,41	122,727
1007,57	-429,412
1007,74	82,609
1007,90	-271,429
1008,06	-413,333
1008,23	-194,737
1008,39	227,778
1008,55	130,588
1008,72	-562,500
1008,88	-125,714
1009,04	-522,222
1009,21	171,875
1009,37	325,806
1009,53	-310,000
1009,70	13,636
1009,86	347,368
1010,02	165,909
1010,19	626,667
1010,35	6000,000
1010,51	205,714
1010,68	340,909
1010,84	200,000
1011,00	492,857
1011,17	2700,000
1011,33	234,615
1011,49	281,250
1011,66	243,750
1011,82	-758,333
1011,98	580,000
1012,14	430,769
1012,31	254,545
1012,47	-671,429
1012,63	5400,000
1012,80	450,000
1012,96	136,111
1013,12	-151,852
1013,29	225,000
1013,45	-147,059
1013,61	-480,000
1013,77	-444,444
1013,94	375,000
1014,10	3200,000
1014,26	11,765
1014,43	260,526
1014,59	0,000
1014,75	670,000
1014,91	268,571
1015,08	219,231
1015,24	420,000
1015,40	373,333
1015,56	429,412
1015,73	187,755
1015,89	622,222
1016,05	116,216
1016,21	155,556
1016,38	178,947
1016,54	-120,000
1016,70	305,263
1016,86	-438,462
1017,03	0,000
1017,19	937,500
1017,35	313,333
1017,51	733,333
1017,68	928,571
1017,84	331,579
1018,00	228,571
1018,16	-468,750
1018,33	700,000
1018,49	528,571
1018,65	-290,909
1018,81	-19,512
1018,97	300,000
1019,14	-771,429
1019,30	342,857
1019,46	176,923
1019,62	1850,000
1019,79	-757,143
1019,95	-900,000
1020,11	780,000
1020,27	150,000
1020,43	-612,500
1020,60	0,000
1020,76	95,588
1020,92	10800,000
1021,08	-4,444
1021,24	-3350,000
1021,41	254,545
1021,57	-254,167
1021,73	0,000
1021,89	-200,000
1022,05	302,857
1022,21	-115,385
1022,38	347,368
1022,54	1100,000
1022,70	155,556
1022,86	-1550,000
1023,02	500,000
1023,19	-215,000
1023,35	84,906
1023,51	280,645
1023,67	121,053
1023,83	600,000
1023,99	222,857
1024,16	-73,846
1024,32	375,000
1024,48	265,306
1024,64	-1000,000
1024,80	475,000
1024,96	230,769
1025,12	2866,667
1025,29	-700,000
1025,45	220,833
1025,61	2933,333
1025,77	319,048
1025,93	-23,077
1026,09	4350,000
1026,26	-1185,714
1026,42	-1325,000
1026,58	151,923
1026,74	914,286
1026,90	263,158
1027,06	-530,000
1027,22	-491,667
1027,38	866,667
1027,55	-240,000
1027,71	587,500
1027,87	175,000
1028,03	175,758
1028,19	-136,364
1028,35	66,216
1028,51	-9,677
1028,67	-360,000
1028,83	133,333
1029,00	407,143
1029,16	-386,667
1029,32	252,941
1029,48	2450,000
1029,64	1042,857
1029,80	1116,667
1029,96	133,333
1030,12	62,500
1030,28	1425,000
1030,44	-2050,000
1030,61	112,500
1030,77	-147,826
1030,93	102,326
1031,09	-307,143
1031,25	-922,222
1031,41	-3200,000
1031,57	-52,632
1031,73	536,364
1031,89	-133,333
1032,05	1328,571
1032,21	810,000
1032,37	-23,529
1032,53	-135,000
1032,69	-5500,000
1032,86	1083,333
1033,02	406,250
1033,18	-476,923
1033,34	-384,615
1033,50	203,226
1033,66	-544,444
1033,82	335,714
1033,98	-400,000
1034,14	500,000
1034,30	-368,182
1034,46	270,833
1034,62	477,778
1034,78	153,968
1034,94	-32,258
1035,10	-190,909
1035,26	-644,444
1035,42	31,429
1035,58	1340,000
1035,74	-133,333
1035,90	-308,333
1036,06	147,170
1036,22	-232,000
1036,38	580,000
1036,54	740,000
1036,70	-2350,000
1036,86	-485,714
1037,02	-700,000
1037,18	-146,429
1037,34	434,783
1037,50	-453,333
1037,66	-3200,000
1037,82	-88,235
1037,98	400,000
1038,14	-89,655
1038,30	17,308
1038,46	97,917
1038,62	80,645
1038,78	157,143
1038,94	-65,789
1039,10	-208,333
1039,26	-373,684
1039,42	-1014,286
1039,58	130,189
1039,74	187,500
1039,90	-46,154
1040,06	200,000
>>>>>End Processed Spectral Data<<<<<
