SpectraSuite Data File
++++++++++++++++++++++++++++++++++++
Date: Thu Feb 02 17:30:33 EET 2017
User: optolab
Dark Spectrum Present: Yes
Reference Spectrum Present: Yes
Number of Sampled Component Spectra: 1
Spectrometers: USB4C02475
Integration Time (usec): 100000 (USB4C02475)
Spectra Averaged: 1 (USB4C02475)
Boxcar Smoothing: 0 (USB4C02475)
Correct for Electrical Dark: No (USB4C02475)
Strobe/Lamp Enabled: No (USB4C02475)
Correct for Detector Non-linearity: No (USB4C02475)
Correct for Stray Light: No (USB4C02475)
Number of Pixels in Processed Spectrum: 3648
>>>>>Begin Processed Spectral Data<<<<<
344,91	-1225,000
345,13	-1225,000
345,35	-1225,000
345,57	-158,824
345,79	26,087
346,00	11,765
346,22	-1428,571
346,44	-209,091
346,66	189,362
346,87	404,348
347,09	453,846
347,31	6100,000
347,53	-850,000
347,74	-148,837
347,96	-728,571
348,18	229,412
348,40	611,765
348,61	-128,205
348,83	6400,000
349,05	176,923
349,27	288,235
349,48	-3900,000
349,70	400,000
349,92	76,190
350,14	127,027
350,35	-346,154
350,57	-494,444
350,79	-33,333
351,01	-213,333
351,22	580,000
351,44	433,333
351,66	138,889
351,87	1000,000
352,09	76,316
352,31	189,286
352,53	228,571
352,74	-842,857
352,96	221,053
353,18	137,500
353,40	-250,000
353,61	533,333
353,83	172,917
354,05	365,625
354,26	310,714
354,48	-900,000
354,70	276,190
354,92	169,444
355,13	-106,977
355,35	142,593
355,57	206,250
355,78	221,429
356,00	208,511
356,22	159,091
356,44	190,698
356,65	307,143
356,87	127,778
357,09	302,857
357,30	81,818
357,52	-1566,667
357,74	261,290
357,95	122,857
358,17	98,551
358,39	132,000
358,60	108,333
358,82	322,727
359,04	312,821
359,26	120,455
359,47	-592,308
359,69	235,714
359,91	340,000
360,12	375,000
360,34	158,333
360,56	-1300,000
360,77	1133,333
360,99	370,833
361,21	91,304
361,42	-1325,000
361,64	22,222
361,86	126,866
362,07	493,333
362,29	202,500
362,51	148,649
362,72	-1520,000
362,94	470,370
363,16	91,429
363,37	836,364
363,59	-4500,000
363,81	962,500
364,02	114,667
364,24	252,273
364,46	333,333
364,67	116,667
364,89	552,941
365,11	256,757
365,32	192,593
365,54	175,000
365,76	163,636
365,97	212,195
366,19	143,860
366,41	290,000
366,62	123,000
366,84	475,000
367,05	74,510
367,27	1420,000
367,49	248,718
367,70	1088,889
367,92	170,833
368,14	-169,231
368,35	145,588
368,57	184,848
368,79	192,308
369,00	130,769
369,22	283,333
369,43	531,579
369,65	-41,379
369,87	-341,176
370,08	465,000
370,30	421,429
370,51	300,000
370,73	138,889
370,95	385,000
371,16	124,561
371,38	184,906
371,60	246,667
371,81	76,087
372,03	-1575,000
372,24	-178,125
372,46	1466,667
372,68	200,000
372,89	116,514
373,11	162,791
373,32	88,235
373,54	163,636
373,76	-44,444
373,97	136,364
374,19	-257,895
374,40	132,857
374,62	323,529
374,84	175,000
375,05	109,615
375,27	151,351
375,48	104,938
375,70	252,941
375,92	157,143
376,13	473,684
376,35	233,333
376,56	200,000
376,78	181,633
376,99	306,061
377,21	212,500
377,43	157,576
377,64	186,000
377,86	531,250
378,07	195,455
378,29	116,667
378,51	75,000
378,72	-204,545
378,94	43,478
379,15	152,273
379,37	368,750
379,58	213,333
379,80	43,182
380,01	170,000
380,23	147,826
380,45	206,250
380,66	102,778
380,88	118,919
381,09	339,130
381,31	187,179
381,52	52,174
381,74	167,857
381,95	225,000
382,17	380,000
382,39	104,839
382,60	558,824
382,82	265,517
383,03	2066,667
383,25	106,173
383,46	833,333
383,68	136,170
383,89	204,545
384,11	130,137
384,32	123,684
384,54	-671,429
384,76	205,882
384,97	-70,000
385,19	89,474
385,40	331,250
385,62	141,935
385,83	159,574
386,05	771,429
386,26	311,538
386,48	392,308
386,69	236,111
386,91	490,000
387,12	143,590
387,34	110,169
387,55	97,143
387,77	108,000
387,98	167,347
388,20	153,521
388,41	77,778
388,63	167,143
388,84	247,500
389,06	172,093
389,27	159,375
389,49	66,265
389,70	176,271
389,92	111,364
390,13	200,000
390,35	86,458
390,56	128,125
390,78	77,273
390,99	168,889
391,21	76,136
391,42	100,000
391,64	-40,000
391,85	105,172
392,07	-57,143
392,28	223,077
392,50	1480,000
392,71	5400,000
392,93	137,097
393,14	223,913
393,36	124,359
393,57	320,833
393,79	104,762
394,00	57,534
394,22	172,000
394,43	171,429
394,65	246,429
394,86	153,125
395,08	-837,500
395,29	46,809
395,50	500,000
395,72	400,000
395,93	456,000
396,15	-150,000
396,36	76,667
396,58	-276,190
396,79	225,581
397,01	252,381
397,22	137,681
397,44	80,851
397,65	125,676
397,87	162,857
398,08	253,846
398,29	583,333
398,51	234,146
398,72	193,478
398,94	123,256
399,15	168,333
399,37	141,304
399,58	90,476
399,80	193,333
400,01	229,412
400,22	400,000
400,44	261,905
400,65	150,685
400,87	5600,000
401,08	78,652
401,30	97,333
401,51	110,909
401,72	79,032
401,94	126,829
402,15	120,408
402,37	115,909
402,58	202,326
402,80	400,000
403,01	80,556
403,22	91,566
403,44	175,000
403,65	148,980
403,87	149,333
404,08	207,692
404,30	259,375
404,51	54,286
404,72	400,000
404,94	91,566
405,15	120,896
405,37	131,868
405,58	206,452
405,79	728,571
406,01	94,074
406,22	69,048
406,44	177,193
406,65	154,762
406,86	122,000
407,08	101,235
407,29	165,333
407,51	94,231
407,72	105,941
407,93	125,316
408,15	104,545
408,36	300,000
408,58	105,833
408,79	92,248
409,00	66,667
409,22	128,431
409,43	124,324
409,64	60,897
409,86	143,182
410,07	110,435
410,29	96,000
410,50	102,381
410,71	106,452
410,93	103,960
411,14	165,421
411,35	113,194
411,57	122,917
411,78	130,147
412,00	96,667
412,21	96,018
412,42	93,171
412,64	112,222
412,85	111,917
413,06	92,857
413,28	98,824
413,49	113,488
413,70	115,021
413,92	119,524
414,13	93,281
414,34	98,141
414,56	128,936
414,77	92,989
414,98	104,947
415,20	131,541
415,41	108,117
415,63	97,151
415,84	96,676
416,05	103,313
416,27	95,265
416,48	101,896
416,69	108,430
416,91	117,067
417,12	84,615
417,33	101,129
417,55	92,600
417,76	94,292
417,97	103,558
418,19	97,908
418,40	104,264
418,61	83,019
418,83	97,183
419,04	84,651
419,25	105,263
419,46	100,161
419,68	92,183
419,89	93,281
420,10	88,978
420,32	90,199
420,53	90,573
420,74	92,712
420,96	92,536
421,17	93,729
421,38	100,222
421,60	94,427
421,81	90,290
422,02	89,205
422,23	97,050
422,45	99,713
422,66	89,883
422,87	94,317
423,09	99,828
423,30	97,421
423,51	95,539
423,73	94,385
423,94	97,906
424,15	99,371
424,36	101,020
424,58	96,635
424,79	100,390
425,00	98,077
425,22	97,294
425,43	102,615
425,64	101,875
425,85	97,971
426,07	94,529
426,28	98,772
426,49	95,219
426,71	85,482
426,92	89,441
427,13	83,422
427,34	86,385
427,56	84,589
427,77	84,762
427,98	77,628
428,19	77,782
428,41	79,605
428,62	71,627
428,83	70,866
429,04	69,692
429,26	66,172
429,47	67,593
429,68	63,484
429,89	59,676
430,11	59,983
430,32	60,142
430,53	54,679
430,74	53,876
430,96	51,336
431,17	51,083
431,38	49,961
431,59	47,743
431,81	45,372
432,02	45,591
432,23	43,295
432,44	41,483
432,66	37,063
432,87	34,179
433,08	31,133
433,29	26,183
433,51	23,053
433,72	20,198
433,93	15,725
434,14	11,321
434,35	8,795
434,57	6,192
434,78	4,537
434,99	3,181
435,20	3,070
435,42	2,340
435,63	1,594
435,84	1,910
436,05	1,619
436,26	1,260
436,48	1,966
436,69	1,349
436,90	1,077
437,11	1,748
437,32	1,753
437,54	1,431
437,75	1,578
437,96	1,426
438,17	1,847
438,38	1,377
438,60	1,966
438,81	1,427
439,02	1,538
439,23	1,514
439,44	1,402
439,66	1,399
439,87	1,440
440,08	1,291
440,29	1,586
440,50	1,527
440,72	1,109
440,93	1,630
441,14	1,285
441,35	1,189
441,56	1,261
441,77	1,028
441,99	1,336
442,20	1,321
442,41	1,245
442,62	1,094
442,83	1,394
443,04	0,859
443,26	1,006
443,47	1,217
443,68	1,231
443,89	1,131
444,10	1,181
444,31	1,505
444,53	1,139
444,74	1,360
444,95	0,918
445,16	1,300
445,37	0,860
445,58	0,751
445,80	1,125
446,01	1,034
446,22	1,243
446,43	0,942
446,64	0,605
446,85	0,831
447,06	0,812
447,28	0,921
447,49	0,707
447,70	1,158
447,91	0,946
448,12	0,617
448,33	0,887
448,54	0,951
448,76	0,923
448,97	0,755
449,18	0,995
449,39	0,668
449,60	0,751
449,81	0,943
450,02	0,900
450,23	1,020
450,45	1,027
450,66	0,788
450,87	0,927
451,08	0,932
451,29	0,892
451,50	1,060
451,71	0,611
451,92	0,720
452,13	1,103
452,35	0,818
452,56	0,735
452,77	1,117
452,98	0,965
453,19	1,085
453,40	1,153
453,61	1,258
453,82	0,714
454,03	0,809
454,25	0,740
454,46	0,731
454,67	0,751
454,88	0,938
455,09	0,918
455,30	1,070
455,51	0,669
455,72	0,943
455,93	0,886
456,14	0,989
456,35	0,870
456,56	0,793
456,78	1,009
456,99	1,063
457,20	0,627
457,41	0,464
457,62	0,704
457,83	0,883
458,04	1,115
458,25	0,492
458,46	0,950
458,67	0,761
458,88	0,618
459,09	0,525
459,30	0,669
459,51	0,839
459,73	0,486
459,94	0,867
460,15	0,654
460,36	0,282
460,57	0,753
460,78	0,540
460,99	0,640
461,20	0,545
461,41	0,900
461,62	0,551
461,83	0,465
462,04	0,437
462,25	0,708
462,46	0,490
462,67	0,541
462,88	0,351
463,09	0,352
463,30	0,458
463,51	0,463
463,72	0,602
463,93	0,572
464,15	0,561
464,36	0,437
464,57	0,206
464,78	0,422
464,99	0,757
465,20	0,394
465,41	0,613
465,62	0,591
465,83	0,373
466,04	0,546
466,25	0,370
466,46	0,495
466,67	0,423
466,88	0,507
467,09	0,541
467,30	0,295
467,51	0,547
467,72	0,397
467,93	0,433
468,14	0,498
468,35	0,549
468,56	0,403
468,77	0,297
468,98	0,707
469,19	0,493
469,40	0,621
469,61	0,391
469,82	0,536
470,03	0,262
470,24	0,435
470,45	0,502
470,66	0,723
470,87	0,549
471,08	0,564
471,29	0,512
471,50	0,708
471,71	0,425
471,92	0,468
472,13	0,487
472,34	0,427
472,55	0,731
472,76	0,621
472,97	0,637
473,18	0,613
473,39	0,515
473,60	0,521
473,81	0,508
474,01	0,798
474,22	0,601
474,43	0,688
474,64	0,598
474,85	0,629
475,06	0,491
475,27	0,779
475,48	0,887
475,69	0,772
475,90	0,863
476,11	0,692
476,32	0,848
476,53	0,894
476,74	0,824
476,95	0,793
477,16	0,898
477,37	1,071
477,58	0,923
477,79	1,079
478,00	0,965
478,21	1,631
478,41	1,458
478,62	1,863
478,83	2,065
479,04	2,894
479,25	3,260
479,46	4,373
479,67	5,449
479,88	7,239
480,09	9,370
480,30	11,329
480,51	14,411
480,72	18,016
480,93	22,097
481,14	26,213
481,34	30,989
481,55	36,766
481,76	41,427
481,97	47,074
482,18	51,914
482,39	58,139
482,60	62,753
482,81	67,687
483,02	71,591
483,23	76,540
483,44	78,629
483,65	81,917
483,85	83,531
484,06	85,977
484,27	87,507
484,48	87,560
484,69	87,345
484,90	89,001
485,11	87,541
485,32	89,517
485,53	90,071
485,73	89,509
485,94	89,643
486,15	90,897
486,36	91,275
486,57	90,581
486,78	91,014
486,99	92,488
487,20	91,796
487,41	92,041
487,61	91,746
487,82	93,099
488,03	92,667
488,24	93,712
488,45	92,759
488,66	93,183
488,87	93,927
489,08	95,164
489,28	94,620
489,49	94,178
489,70	94,896
489,91	94,779
490,12	93,854
490,33	93,963
490,54	95,014
490,74	93,778
490,95	94,755
491,16	94,716
491,37	94,839
491,58	94,120
491,79	95,461
492,00	94,480
492,20	95,031
492,41	94,973
492,62	95,014
492,83	94,283
493,04	94,683
493,25	95,361
493,45	95,309
493,66	95,002
493,87	95,892
494,08	95,098
494,29	95,985
494,50	96,309
494,70	95,208
494,91	96,053
495,12	96,084
495,33	95,942
495,54	95,615
495,75	95,776
495,95	95,222
496,16	95,159
496,37	95,169
496,58	96,686
496,79	96,802
496,99	95,950
497,20	95,280
497,41	94,285
497,62	93,576
497,83	92,492
498,04	92,188
498,24	92,407
498,45	90,914
498,66	89,990
498,87	89,403
499,08	88,114
499,28	87,259
499,49	87,130
499,70	86,302
499,91	85,905
500,12	85,778
500,32	84,816
500,53	84,725
500,74	84,795
500,95	83,672
501,15	82,647
501,36	82,349
501,57	80,552
501,78	79,725
501,99	78,159
502,19	76,286
502,40	73,480
502,61	70,785
502,82	67,962
503,02	64,990
503,23	60,065
503,44	56,816
503,65	52,133
503,86	49,257
504,06	43,938
504,27	40,723
504,48	35,271
504,69	31,301
504,89	26,950
505,10	23,267
505,31	20,177
505,52	16,565
505,72	13,849
505,93	11,215
506,14	8,818
506,35	6,947
506,55	5,369
506,76	3,978
506,97	3,152
507,18	2,250
507,38	1,810
507,59	1,446
507,80	1,224
508,01	1,038
508,21	0,905
508,42	0,596
508,63	0,625
508,84	0,776
509,04	0,934
509,25	0,706
509,46	0,796
509,67	0,736
509,87	0,770
510,08	0,720
510,29	0,725
510,49	0,642
510,70	0,742
510,91	0,794
511,12	0,655
511,32	0,894
511,53	0,663
511,74	0,689
511,94	0,672
512,15	0,638
512,36	0,703
512,57	0,655
512,77	0,658
512,98	0,713
513,19	0,691
513,39	0,695
513,60	0,708
513,81	0,888
514,01	0,882
514,22	0,647
514,43	0,669
514,64	0,630
514,84	0,843
515,05	0,869
515,26	0,682
515,46	0,579
515,67	0,574
515,88	0,705
516,08	0,959
516,29	0,542
516,50	0,649
516,70	0,649
516,91	0,730
517,12	0,860
517,32	0,656
517,53	0,533
517,74	0,764
517,95	0,838
518,15	0,795
518,36	0,795
518,57	0,784
518,77	0,670
518,98	0,788
519,19	0,715
519,39	0,838
519,60	0,629
519,80	0,651
520,01	0,655
520,22	0,792
520,42	0,753
520,63	0,656
520,84	0,760
521,04	0,796
521,25	0,828
521,46	0,591
521,66	0,760
521,87	0,720
522,08	0,777
522,28	0,827
522,49	0,860
522,70	0,843
522,90	0,530
523,11	0,608
523,31	0,747
523,52	0,759
523,73	0,792
523,93	0,817
524,14	0,800
524,35	0,766
524,55	0,748
524,76	0,824
524,97	0,769
525,17	0,806
525,38	0,850
525,58	0,793
525,79	0,933
526,00	0,935
526,20	0,825
526,41	0,724
526,61	0,907
526,82	0,689
527,03	0,856
527,23	0,756
527,44	0,912
527,64	0,873
527,85	0,824
528,06	0,932
528,26	0,795
528,47	0,898
528,68	1,031
528,88	0,729
529,09	1,082
529,29	0,916
529,50	0,861
529,70	0,953
529,91	0,987
530,12	0,916
530,32	0,718
530,53	1,039
530,73	0,826
530,94	0,983
531,15	1,023
531,35	0,943
531,56	0,953
531,76	0,921
531,97	0,862
532,17	1,028
532,38	0,844
532,59	0,867
532,79	1,162
533,00	0,938
533,20	0,926
533,41	0,954
533,61	0,745
533,82	0,852
534,03	1,085
534,23	1,022
534,44	0,990
534,64	1,189
534,85	0,949
535,05	0,770
535,26	0,968
535,46	0,984
535,67	0,764
535,88	0,884
536,08	1,008
536,29	1,055
536,49	0,830
536,70	0,897
536,90	0,919
537,11	0,895
537,31	1,196
537,52	0,748
537,72	1,129
537,93	0,831
538,13	0,950
538,34	1,002
538,55	1,060
538,75	0,761
538,96	0,943
539,16	0,853
539,37	0,756
539,57	1,077
539,78	1,129
539,98	1,059
540,19	1,120
540,39	1,057
540,60	0,945
540,80	1,025
541,01	1,230
541,21	1,069
541,42	0,886
541,62	1,129
541,83	0,930
542,03	1,002
542,24	1,052
542,44	1,084
542,65	1,011
542,85	1,079
543,06	1,173
543,26	1,070
543,47	1,040
543,67	1,049
543,88	1,256
544,08	0,963
544,29	1,126
544,49	0,990
544,70	0,964
544,90	1,309
545,11	1,246
545,31	1,602
545,52	1,583
545,72	1,732
545,93	2,003
546,13	2,608
546,34	3,049
546,54	3,335
546,75	4,197
546,95	5,328
547,15	6,247
547,36	7,492
547,56	9,131
547,77	10,968
547,97	12,904
548,18	15,026
548,38	18,014
548,59	20,198
548,79	23,039
549,00	25,949
549,20	29,709
549,41	32,940
549,61	36,419
549,81	39,904
550,02	43,748
550,22	47,428
550,43	52,633
550,63	56,795
550,84	60,542
551,04	65,152
551,25	68,398
551,45	72,496
551,65	75,214
551,86	77,541
552,06	81,349
552,27	82,575
552,47	83,273
552,68	85,564
552,88	86,462
553,08	88,873
553,29	87,830
553,49	87,921
553,70	88,513
553,90	89,749
554,11	88,709
554,31	88,919
554,51	88,244
554,72	87,853
554,92	87,759
555,13	86,506
555,33	85,600
555,53	86,060
555,74	86,638
555,94	84,958
556,15	84,686
556,35	84,444
556,56	84,373
556,76	85,052
556,96	85,212
557,17	85,162
557,37	86,459
557,58	87,030
557,78	88,174
557,98	88,546
558,19	90,132
558,39	90,614
558,59	90,766
558,80	92,416
559,00	93,257
559,21	93,549
559,41	93,439
559,61	93,957
559,82	95,093
560,02	94,116
560,23	95,137
560,43	95,285
560,63	94,252
560,84	95,003
561,04	94,692
561,24	95,162
561,45	93,362
561,65	94,321
561,85	94,319
562,06	93,807
562,26	93,910
562,47	93,348
562,67	92,957
562,87	92,798
563,08	92,694
563,28	91,742
563,48	92,509
563,69	91,724
563,89	91,571
564,09	91,029
564,30	90,579
564,50	89,726
564,70	89,850
564,91	90,010
565,11	87,856
565,31	87,639
565,52	87,701
565,72	86,526
565,92	85,282
566,13	83,617
566,33	82,136
566,53	80,279
566,74	78,352
566,94	77,276
567,14	74,035
567,35	71,266
567,55	68,391
567,75	64,890
567,96	62,078
568,16	60,720
568,36	57,411
568,57	54,516
568,77	53,074
568,97	51,449
569,18	48,949
569,38	47,195
569,58	46,571
569,79	45,170
569,99	43,836
570,19	41,982
570,39	40,874
570,60	39,238
570,80	37,090
571,00	35,690
571,21	34,308
571,41	32,516
571,61	30,538
571,82	28,838
572,02	26,713
572,22	24,391
572,42	22,321
572,63	19,258
572,83	16,573
573,03	14,263
573,24	11,882
573,44	9,443
573,64	7,341
573,84	5,600
574,05	4,417
574,25	3,233
574,45	2,478
574,66	2,115
574,86	1,666
575,06	1,331
575,26	1,062
575,47	0,898
575,67	0,974
575,87	0,803
576,07	0,741
576,28	0,756
576,48	0,541
576,68	0,776
576,88	0,665
577,09	0,530
577,29	0,816
577,49	0,465
577,69	0,424
577,90	0,280
578,10	0,347
578,30	0,750
578,50	0,508
578,71	0,512
578,91	0,532
579,11	0,640
579,31	0,568
579,52	0,520
579,72	0,571
579,92	0,627
580,12	0,445
580,33	0,639
580,53	0,372
580,73	0,676
580,93	0,539
581,13	0,550
581,34	0,403
581,54	0,546
581,74	0,447
581,94	0,537
582,15	0,554
582,35	0,353
582,55	0,345
582,75	0,461
582,95	0,478
583,16	0,463
583,36	0,481
583,56	0,395
583,76	0,387
583,96	0,357
584,17	0,363
584,37	0,485
584,57	0,431
584,77	0,416
584,97	0,352
585,18	0,453
585,38	0,269
585,58	0,452
585,78	0,503
585,98	0,437
586,19	0,529
586,39	0,502
586,59	0,432
586,79	0,436
586,99	0,362
587,20	0,234
587,40	0,597
587,60	0,335
587,80	0,361
588,00	0,396
588,20	0,467
588,41	0,446
588,61	0,644
588,81	0,492
589,01	0,336
589,21	0,619
589,41	0,349
589,62	0,607
589,82	0,450
590,02	0,405
590,22	0,307
590,42	0,515
590,62	0,432
590,83	0,285
591,03	0,290
591,23	0,527
591,43	0,594
591,63	0,489
591,83	0,424
592,03	0,584
592,24	0,582
592,44	0,463
592,64	0,479
592,84	0,487
593,04	0,350
593,24	0,366
593,44	0,620
593,65	0,570
593,85	0,606
594,05	0,389
594,25	0,469
594,45	0,616
594,65	0,450
594,85	0,476
595,06	0,400
595,26	0,747
595,46	0,366
595,66	0,511
595,86	0,312
596,06	0,404
596,26	0,457
596,46	0,594
596,66	0,468
596,87	0,553
597,07	0,593
597,27	0,479
597,47	0,551
597,67	0,463
597,87	0,257
598,07	0,355
598,27	0,488
598,47	0,485
598,67	0,495
598,88	0,520
599,08	0,565
599,28	0,616
599,48	0,330
599,68	0,719
599,88	0,501
600,08	0,452
600,28	0,557
600,48	0,393
600,68	0,470
600,88	0,549
601,09	0,514
601,29	0,579
601,49	0,339
601,69	0,482
601,89	0,463
602,09	0,657
602,29	0,607
602,49	0,337
602,69	0,472
602,89	0,472
603,09	0,481
603,29	0,706
603,49	0,598
603,69	0,644
603,90	0,453
604,10	0,596
604,30	0,676
604,50	0,331
604,70	0,558
604,90	0,537
605,10	0,544
605,30	0,379
605,50	0,425
605,70	0,700
605,90	0,349
606,10	0,621
606,30	0,639
606,50	0,561
606,70	0,536
606,90	0,503
607,10	0,455
607,30	0,636
607,50	0,360
607,70	0,657
607,90	0,679
608,10	0,621
608,30	0,432
608,50	0,617
608,70	0,696
608,90	0,582
609,11	0,518
609,31	0,563
609,51	0,447
609,71	0,540
609,91	0,381
610,11	0,757
610,31	0,558
610,51	0,486
610,71	0,524
610,91	0,466
611,11	0,501
611,31	0,474
611,51	0,376
611,71	0,436
611,91	0,690
612,11	0,632
612,31	0,724
612,51	0,569
612,71	0,502
612,91	0,293
613,11	0,604
613,31	0,561
613,51	0,585
613,71	0,453
613,91	0,599
614,11	0,710
614,31	0,402
614,50	0,510
614,70	0,524
614,90	0,495
615,10	0,543
615,30	0,572
615,50	0,560
615,70	0,690
615,90	0,512
616,10	0,615
616,30	0,476
616,50	0,490
616,70	0,303
616,90	0,482
617,10	0,469
617,30	0,605
617,50	0,606
617,70	0,475
617,90	0,623
618,10	0,605
618,30	0,408
618,50	0,571
618,70	0,524
618,90	0,382
619,10	0,527
619,30	0,288
619,49	0,597
619,69	0,574
619,89	0,648
620,09	0,389
620,29	0,514
620,49	0,714
620,69	0,532
620,89	0,461
621,09	0,335
621,29	0,500
621,49	0,474
621,69	0,304
621,89	0,665
622,09	0,492
622,29	0,394
622,48	0,419
622,68	0,480
622,88	0,534
623,08	0,411
623,28	0,291
623,48	0,554
623,68	0,450
623,88	0,539
624,08	0,437
624,28	0,619
624,48	0,548
624,67	0,384
624,87	0,475
625,07	0,472
625,27	0,350
625,47	0,462
625,67	0,427
625,87	0,317
626,07	0,424
626,27	0,487
626,47	0,502
626,66	0,417
626,86	0,532
627,06	0,535
627,26	0,491
627,46	0,429
627,66	0,438
627,86	0,520
628,06	0,510
628,25	0,473
628,45	0,464
628,65	0,430
628,85	0,287
629,05	0,542
629,25	0,260
629,45	0,488
629,65	0,298
629,84	0,469
630,04	0,371
630,24	0,531
630,44	0,268
630,64	0,561
630,84	0,406
631,04	0,663
631,23	0,399
631,43	0,373
631,63	0,190
631,83	0,486
632,03	0,457
632,23	0,470
632,42	0,513
632,62	0,344
632,82	0,344
633,02	0,509
633,22	0,436
633,42	0,526
633,62	0,382
633,81	0,338
634,01	0,558
634,21	0,483
634,41	0,683
634,61	0,632
634,80	0,623
635,00	0,586
635,20	0,626
635,40	0,443
635,60	0,368
635,80	0,585
635,99	0,794
636,19	0,658
636,39	0,524
636,59	0,565
636,79	0,721
636,98	0,622
637,18	0,322
637,38	0,547
637,58	0,221
637,78	0,740
637,97	0,562
638,17	0,670
638,37	0,593
638,57	0,398
638,77	0,602
638,96	0,418
639,16	0,842
639,36	0,459
639,56	0,681
639,76	0,412
639,95	0,709
640,15	0,561
640,35	0,455
640,55	0,447
640,75	0,932
640,94	0,388
641,14	0,746
641,34	0,741
641,54	0,618
641,73	0,750
641,93	0,703
642,13	0,677
642,33	0,632
642,53	0,655
642,72	0,669
642,92	0,755
643,12	0,492
643,32	0,719
643,51	0,567
643,71	0,756
643,91	0,603
644,11	0,767
644,30	0,583
644,50	0,725
644,70	0,516
644,90	0,802
645,09	0,872
645,29	0,688
645,49	0,762
645,69	0,546
645,88	0,987
646,08	0,622
646,28	0,905
646,48	0,472
646,67	0,488
646,87	0,775
647,07	0,515
647,26	0,820
647,46	0,695
647,66	0,554
647,86	1,217
648,05	0,804
648,25	1,122
648,45	0,658
648,65	0,428
648,84	0,437
649,04	0,883
649,24	0,871
649,43	0,654
649,63	0,684
649,83	0,611
650,03	0,801
650,22	0,777
650,42	0,667
650,62	0,720
650,81	0,588
651,01	0,934
651,21	0,707
651,40	0,541
651,60	0,625
651,80	0,988
652,00	0,983
652,19	0,549
652,39	0,659
652,59	1,070
652,78	0,599
652,98	0,414
653,18	0,427
653,37	0,602
653,57	0,984
653,77	0,753
653,96	0,492
654,16	0,681
654,36	0,577
654,55	0,691
654,75	0,475
654,95	0,681
655,14	0,845
655,34	1,051
655,54	1,050
655,73	0,886
655,93	0,593
656,13	0,452
656,32	0,608
656,52	0,830
656,72	0,634
656,91	0,926
657,11	0,664
657,31	0,600
657,50	0,543
657,70	0,729
657,90	0,999
658,09	0,781
658,29	0,675
658,49	0,620
658,68	0,695
658,88	0,741
659,07	0,880
659,27	0,733
659,47	0,601
659,66	0,362
659,86	0,655
660,06	0,649
660,25	0,707
660,45	0,582
660,64	0,465
660,84	0,619
661,04	0,613
661,23	0,919
661,43	0,826
661,63	0,619
661,82	0,728
662,02	1,025
662,21	0,593
662,41	0,822
662,61	0,846
662,80	0,571
663,00	0,173
663,19	0,786
663,39	0,432
663,59	0,715
663,78	0,894
663,98	0,487
664,17	0,750
664,37	0,827
664,57	0,651
664,76	0,501
664,96	0,613
665,15	0,409
665,35	0,568
665,55	0,478
665,74	0,641
665,94	0,582
666,13	0,357
666,33	0,768
666,53	0,593
666,72	0,649
666,92	0,561
667,11	0,790
667,31	0,223
667,50	0,339
667,70	0,830
667,90	0,547
668,09	0,525
668,29	0,523
668,48	0,610
668,68	0,666
668,87	0,806
669,07	0,240
669,26	0,513
669,46	0,577
669,66	0,562
669,85	0,505
670,05	0,316
670,24	0,624
670,44	0,425
670,63	0,117
670,83	0,593
671,02	0,415
671,22	0,566
671,42	0,348
671,61	0,487
671,81	0,777
672,00	0,590
672,20	0,471
672,39	0,473
672,59	0,488
672,78	0,226
672,98	0,482
673,17	0,489
673,37	0,067
673,56	0,624
673,76	0,284
673,95	0,452
674,15	0,462
674,34	0,464
674,54	0,435
674,73	0,704
674,93	0,333
675,13	0,530
675,32	0,617
675,52	0,720
675,71	0,460
675,91	0,476
676,10	0,481
676,30	0,336
676,49	0,305
676,69	0,448
676,88	0,290
677,08	0,229
677,27	0,267
677,47	0,462
677,66	0,433
677,86	0,493
678,05	0,390
678,24	0,165
678,44	0,704
678,63	0,342
678,83	0,341
679,02	0,467
679,22	0,518
679,41	0,559
679,61	0,339
679,80	0,337
680,00	0,148
680,19	0,246
680,39	0,331
680,58	0,163
680,78	0,367
680,97	0,450
681,17	0,476
681,36	0,170
681,56	0,241
681,75	0,039
681,94	0,270
682,14	0,383
682,33	0,488
682,53	0,227
682,72	0,317
682,92	0,427
683,11	0,153
683,31	0,451
683,50	0,198
683,69	0,221
683,89	0,190
684,08	0,268
684,28	0,250
684,47	0,125
684,67	0,144
684,86	0,247
685,06	0,469
685,25	0,347
685,44	0,169
685,64	0,356
685,83	0,294
686,03	0,164
686,22	0,307
686,42	0,434
686,61	0,227
686,80	0,210
687,00	0,014
687,19	0,386
687,39	0,258
687,58	0,221
687,77	0,287
687,97	0,378
688,16	0,235
688,36	0,070
688,55	0,100
688,74	0,009
688,94	0,124
689,13	0,198
689,33	0,162
689,52	0,268
689,71	0,257
689,91	0,085
690,10	0,236
690,30	0,285
690,49	0,064
690,68	0,365
690,88	0,222
691,07	0,238
691,27	0,165
691,46	0,347
691,65	0,217
691,85	0,283
692,04	0,079
692,23	0,119
692,43	0,170
692,62	0,180
692,82	0,289
693,01	0,092
693,20	0,351
693,40	0,160
693,59	0,024
693,78	0,168
693,98	0,094
694,17	0,154
694,36	0,390
694,56	0,206
694,75	0,256
694,94	0,120
695,14	0,345
695,33	0,374
695,53	0,194
695,72	0,224
695,91	-0,042
696,11	0,306
696,30	0,322
696,49	0,132
696,69	0,289
696,88	0,274
697,07	0,265
697,27	0,303
697,46	0,231
697,65	0,216
697,85	0,064
698,04	0,372
698,23	0,152
698,43	0,499
698,62	-0,180
698,81	0,394
699,01	0,369
699,20	0,105
699,39	0,375
699,58	0,150
699,78	0,168
699,97	0,393
700,16	-0,250
700,36	0,426
700,55	0,328
700,74	0,333
700,94	0,027
701,13	0,246
701,32	0,282
701,52	0,478
701,71	0,420
701,90	0,747
702,09	0,716
702,29	1,098
702,48	0,285
702,67	0,940
702,87	0,985
703,06	0,238
703,25	0,909
703,44	0,255
703,64	0,663
703,83	0,688
704,02	1,081
704,22	0,753
704,41	0,805
704,60	1,246
704,79	0,433
704,99	1,158
705,18	1,338
705,37	0,672
705,56	0,724
705,76	1,156
705,95	1,403
706,14	0,406
706,33	1,006
706,53	0,791
706,72	1,214
706,91	1,450
707,11	1,397
707,30	1,145
707,49	1,779
707,68	1,205
707,88	1,941
708,07	0,512
708,26	1,890
708,45	0,831
708,64	2,051
708,84	1,213
709,03	2,190
709,22	-0,223
709,41	3,606
709,61	1,479
709,80	2,136
709,99	2,434
710,18	1,603
710,38	1,227
710,57	0,127
710,76	-0,590
710,95	2,333
711,14	1,291
711,34	0,654
711,53	2,870
711,72	2,284
711,91	2,841
712,11	2,491
712,30	1,270
712,49	1,302
712,68	0,871
712,87	2,898
713,07	2,770
713,26	1,958
713,45	2,330
713,64	0,567
713,83	0,748
714,03	0,806
714,22	2,624
714,41	4,143
714,60	1,661
714,79	-0,336
714,99	2,084
715,18	2,440
715,37	3,822
715,56	0,349
715,75	2,551
715,94	4,331
716,14	5,760
716,33	2,341
716,52	3,197
716,71	3,294
716,90	2,608
717,10	1,281
717,29	3,883
717,48	2,002
717,67	2,933
717,86	3,518
718,05	1,815
718,24	1,784
718,44	4,050
718,63	1,034
718,82	4,247
719,01	3,487
719,20	3,937
719,39	4,444
719,59	0,977
719,78	1,804
719,97	3,882
720,16	2,823
720,35	1,376
720,54	0,419
720,73	5,870
720,93	4,049
721,12	-0,359
721,31	2,478
721,50	4,582
721,69	5,279
721,88	9,293
722,07	1,800
722,27	5,543
722,46	3,823
722,65	2,542
722,84	4,032
723,03	2,699
723,22	4,110
723,41	1,412
723,60	6,950
723,79	8,003
723,99	4,862
724,18	3,043
724,37	0,000
724,56	4,174
724,75	2,957
724,94	8,615
725,13	3,176
725,32	4,050
725,51	5,860
725,71	3,106
725,90	3,686
726,09	3,379
726,28	2,955
726,47	1,874
726,66	6,498
726,85	4,360
727,04	4,383
727,23	3,629
727,42	6,694
727,61	6,584
727,81	-1,622
728,00	3,326
728,19	4,875
728,38	-0,655
728,57	5,208
728,76	5,365
728,95	8,646
729,14	1,407
729,33	4,624
729,52	4,387
729,71	5,748
729,90	6,374
730,09	0,117
730,28	7,668
730,48	6,208
730,67	6,362
730,86	4,492
731,05	-0,467
731,24	0,000
731,43	3,717
731,62	4,696
731,81	4,313
732,00	13,413
732,19	1,322
732,38	3,333
732,57	5,257
732,76	7,387
732,95	1,158
733,14	1,435
733,33	0,000
733,52	6,742
733,71	11,047
733,90	6,497
734,09	5,811
734,28	3,412
734,47	4,028
734,66	4,679
734,85	5,000
735,04	8,274
735,23	11,064
735,42	5,601
735,61	8,746
735,81	8,580
736,00	3,846
736,19	6,991
736,38	2,246
736,57	6,722
736,76	9,927
736,95	5,414
737,14	7,018
737,33	7,921
737,52	11,538
737,71	3,443
737,90	11,747
738,09	1,826
738,28	7,025
738,47	-6,569
738,66	2,724
738,85	6,907
739,04	7,890
739,22	12,375
739,41	0,000
739,60	3,242
739,79	2,698
739,98	-3,943
740,17	6,485
740,36	1,989
740,55	9,554
740,74	14,237
740,93	15,296
741,12	15,000
741,31	7,218
741,50	4,537
741,69	2,478
741,88	1,779
742,07	7,428
742,26	6,667
742,45	7,992
742,64	8,044
742,83	15,221
743,02	-0,842
743,21	19,856
743,40	0,000
743,59	8,088
743,78	9,198
743,97	15,962
744,16	13,583
744,34	7,925
744,53	15,258
744,72	8,768
744,91	-0,840
745,10	16,352
745,29	8,871
745,48	10,909
745,67	8,656
745,86	12,804
746,05	12,796
746,24	5,979
746,43	4,497
746,62	21,121
746,81	13,483
747,00	3,720
747,18	14,379
747,37	8,000
747,56	10,824
747,75	-2,217
747,94	24,757
748,13	25,056
748,32	3,810
748,51	6,091
748,70	12,555
748,89	9,836
749,08	0,000
749,26	13,656
749,45	10,188
749,64	13,854
749,83	22,022
750,02	18,207
750,21	9,669
750,40	14,575
750,59	6,434
750,78	19,202
750,96	14,641
751,15	11,449
751,34	6,250
751,53	1,639
751,72	19,718
751,91	5,959
752,10	5,236
752,29	18,667
752,47	14,040
752,66	9,524
752,85	16,393
753,04	1,397
753,23	20,433
753,42	17,251
753,61	20,690
753,80	6,873
753,98	18,939
754,17	9,422
754,36	7,742
754,55	18,976
754,74	19,805
754,93	18,457
755,12	19,288
755,30	12,987
755,49	12,209
755,68	12,270
755,87	6,805
756,06	16,667
756,25	19,453
756,43	6,376
756,62	27,019
756,81	20,861
757,00	16,447
757,19	6,597
757,38	8,494
757,56	0,800
757,75	5,461
757,94	1,141
758,13	3,425
758,32	7,122
758,51	13,131
758,69	2,703
758,88	3,030
759,07	8,982
759,26	22,968
759,45	13,333
759,63	14,719
759,82	16,842
760,01	2,198
760,20	39,623
760,39	22,397
760,57	27,178
760,76	26,132
760,95	34,375
761,14	16,423
761,33	25,806
761,51	1,786
761,70	19,331
761,89	16,000
762,08	27,138
762,27	21,661
762,45	9,420
762,64	17,085
762,83	41,036
763,02	20,000
763,21	-3,500
763,39	12,587
763,58	17,100
763,77	16,034
763,96	25,498
764,14	8,750
764,33	24,762
764,52	4,018
764,71	22,951
764,89	44,196
765,08	5,911
765,27	22,979
765,46	25,561
765,65	20,392
765,83	33,937
766,02	-4,286
766,21	5,464
766,40	47,082
766,58	19,577
766,77	27,064
766,96	14,634
767,15	15,126
767,33	21,739
767,52	28,821
767,71	10,088
767,90	24,623
768,08	23,353
768,27	17,480
768,46	35,965
768,64	24,074
768,83	14,216
769,02	7,882
769,21	25,000
769,39	34,286
769,58	18,615
769,77	26,064
769,96	33,784
770,14	25,137
770,33	23,832
770,52	12,950
770,70	30,270
770,89	37,297
771,08	7,229
771,27	14,737
771,45	8,235
771,64	24,242
771,83	21,569
772,01	38,660
772,20	24,876
772,39	2,532
772,57	23,383
772,76	9,459
772,95	21,839
773,14	62,585
773,32	15,819
773,51	13,095
773,70	30,935
773,88	14,839
774,07	27,919
774,26	1,613
774,44	25,564
774,63	25,749
774,82	25,325
775,00	23,832
775,19	11,310
775,38	27,128
775,56	47,826
775,75	41,209
775,94	30,000
776,12	32,026
776,31	45,113
776,50	15,068
776,68	35,484
776,87	36,842
777,06	27,673
777,24	26,891
777,43	47,059
777,62	33,146
777,80	40,881
777,99	90,000
778,18	29,310
778,36	40,678
778,55	60,169
778,74	28,125
778,92	41,358
779,11	30,909
779,29	-3,546
779,48	16,312
779,67	14,414
779,85	20,175
780,04	57,971
780,23	41,667
780,41	47,458
780,60	34,899
780,79	25,806
780,97	47,059
781,16	17,553
781,34	47,973
781,53	51,786
781,72	18,018
781,90	35,928
782,09	30,233
782,28	29,252
782,46	56,429
782,65	32,394
782,83	13,836
783,02	66,667
783,21	35,338
783,39	36,134
783,58	43,478
783,76	50,340
783,95	66,197
784,14	94,737
784,32	-10,588
784,51	52,027
784,69	32,031
784,88	45,794
785,06	60,265
785,25	22,695
785,44	59,677
785,62	27,143
785,81	31,481
785,99	24,812
786,18	65,766
786,37	43,956
786,55	7,639
786,74	48,182
786,92	36,364
787,11	35,417
787,29	23,214
787,48	48,387
787,67	60,377
787,85	86,076
788,04	68,468
788,22	33,663
788,41	21,260
788,59	11,184
788,78	37,363
788,96	42,149
789,15	47,500
789,34	40,385
789,52	75,806
789,71	55,396
789,89	62,338
790,08	45,000
790,26	67,516
790,45	94,444
790,63	59,770
790,82	41,538
791,00	41,593
791,19	32,800
791,38	47,619
791,56	46,364
791,75	29,167
791,93	75,000
792,12	61,739
792,30	35,766
792,49	45,455
792,67	36,029
792,86	42,400
793,04	42,593
793,23	63,158
793,41	59,420
793,60	61,806
793,78	58,095
793,97	56,250
794,15	54,887
794,34	57,333
794,52	31,183
794,71	55,039
794,89	36,364
795,08	56,000
795,26	76,000
795,45	58,333
795,63	62,097
795,82	52,747
796,00	32,000
796,19	31,707
796,37	30,534
796,56	56,311
796,74	18,947
796,93	40,909
797,11	49,398
797,30	40,000
797,48	45,313
797,67	69,106
797,85	43,846
798,04	46,610
798,22	88,462
798,41	19,231
798,59	67,619
798,77	15,663
798,96	19,753
799,14	23,387
799,33	36,697
799,51	29,167
799,70	53,846
799,88	68,807
800,07	51,145
800,25	33,735
800,44	64,815
800,62	59,722
800,80	44,366
800,99	134,247
801,17	65,517
801,36	68,571
801,54	26,000
801,73	51,579
801,91	52,066
802,10	48,235
802,28	30,400
802,46	19,737
802,65	24,460
802,83	45,333
803,02	61,290
803,20	78,313
803,39	78,161
803,57	48,031
803,75	44,715
803,94	42,063
804,12	60,000
804,31	-4,348
804,49	17,600
804,67	27,206
804,86	49,558
805,04	-12,048
805,23	40,708
805,41	6,667
805,59	80,822
805,78	40,800
805,96	48,193
806,15	88,119
806,33	17,105
806,51	28,000
806,70	39,850
806,88	56,977
807,07	59,459
807,25	43,956
807,43	12,500
807,62	16,814
807,80	48,571
807,99	50,000
808,17	10,236
808,35	30,000
808,54	65,942
808,72	40,541
808,90	45,890
809,09	67,391
809,27	42,667
809,46	107,692
809,64	82,927
809,82	27,152
810,01	64,844
810,19	95,960
810,37	42,188
810,56	86,667
810,74	24,675
810,92	22,667
811,11	3,509
811,29	80,189
811,48	43,077
811,66	57,303
811,84	27,473
812,03	28,689
812,21	45,614
812,39	47,826
812,58	66,316
812,76	58,993
812,94	9,639
813,13	25,532
813,31	71,000
813,49	79,630
813,68	46,364
813,86	25,843
814,04	56,198
814,23	42,771
814,41	64,045
814,59	67,961
814,78	36,765
814,96	25,786
815,14	49,533
815,33	55,039
815,51	29,921
815,69	42,857
815,87	56,436
816,06	51,304
816,24	49,068
816,42	74,265
816,61	49,057
816,79	38,793
816,97	37,500
817,16	33,728
817,34	42,857
817,52	33,058
817,70	60,396
817,89	66,667
818,07	44,521
818,25	23,469
818,44	58,974
818,62	-7,752
818,80	4,511
818,98	47,134
819,17	63,866
819,35	44,149
819,53	33,582
819,72	65,190
819,90	34,109
820,08	13,675
820,26	38,793
820,45	18,121
820,63	51,786
820,81	53,600
820,99	34,043
821,18	26,531
821,36	56,329
821,54	33,103
821,73	40,556
821,91	42,982
822,09	49,194
822,27	36,774
822,46	43,382
822,64	33,600
822,82	24,309
823,00	24,862
823,19	53,297
823,37	50,303
823,55	15,909
823,73	61,379
823,91	34,058
824,10	22,581
824,28	29,146
824,46	31,068
824,64	17,763
824,83	75,155
825,01	10,000
825,19	28,226
825,37	43,478
825,56	39,151
825,74	33,163
825,92	33,121
826,10	37,500
826,28	9,524
826,47	33,684
826,65	46,809
826,83	28,448
827,01	46,821
827,19	45,833
827,38	48,765
827,56	46,023
827,74	19,553
827,92	9,302
828,10	23,077
828,29	46,154
828,47	40,650
828,65	22,308
828,83	2,424
829,01	32,609
829,20	44,505
829,38	44,886
829,56	33,152
829,74	23,899
829,92	26,984
830,10	50,575
830,29	25,628
830,47	35,176
830,65	9,756
830,83	13,393
831,01	32,143
831,20	43,204
831,38	44,498
831,56	31,163
831,74	48,815
831,92	25,000
832,10	44,762
832,29	37,162
832,47	15,169
832,65	30,392
832,83	28,638
833,01	25,000
833,19	31,674
833,37	39,367
833,56	36,709
833,74	25,490
833,92	18,519
834,10	21,162
834,28	30,802
834,46	37,104
834,64	28,241
834,83	27,727
835,01	31,950
835,19	38,400
835,37	19,421
835,55	19,271
835,73	26,108
835,91	19,188
836,09	33,840
836,28	36,162
836,46	7,200
836,64	28,195
836,82	19,910
837,00	27,174
837,18	20,446
837,36	33,068
837,54	16,818
837,72	24,138
837,91	18,284
838,09	16,733
838,27	16,333
838,45	20,567
838,63	12,868
838,81	17,300
838,99	27,419
839,17	17,568
839,35	20,922
839,53	30,877
839,72	0,376
839,90	18,213
840,08	30,769
840,26	23,413
840,44	22,961
840,62	21,724
840,80	32,653
840,98	20,392
841,16	3,802
841,34	16,722
841,52	29,358
841,70	20,308
841,89	14,919
842,07	22,884
842,25	18,678
842,43	5,603
842,61	17,193
842,79	14,407
842,97	15,309
843,15	28,383
843,33	23,028
843,51	11,145
843,69	30,769
843,87	14,925
844,05	21,884
844,23	28,829
844,41	13,480
844,59	13,833
844,77	13,725
844,95	21,965
845,13	20,000
845,31	2,907
845,50	23,037
845,68	9,325
845,86	10,920
846,04	19,832
846,22	13,351
846,40	12,903
846,58	20,228
846,76	22,043
846,94	25,187
847,12	17,098
847,30	10,309
847,48	13,622
847,66	17,241
847,84	9,016
848,02	9,662
848,20	14,212
848,38	14,245
848,56	21,023
848,74	23,628
848,92	7,980
849,10	11,250
849,28	18,421
849,46	13,867
849,64	12,471
849,82	11,420
850,00	18,925
850,18	23,404
850,36	5,077
850,54	12,782
850,72	17,481
850,90	19,130
851,08	13,129
851,26	15,536
851,44	14,381
851,62	15,116
851,80	13,656
851,98	12,527
852,16	16,076
852,34	10,928
852,52	9,598
852,70	-2,506
852,87	11,187
853,05	11,501
853,23	8,041
853,41	10,204
853,59	4,564
853,77	9,325
853,95	16,456
854,13	6,195
854,31	13,142
854,49	6,986
854,67	9,935
854,85	11,180
855,03	16,232
855,21	12,000
855,39	2,012
855,57	8,602
855,75	9,307
855,93	9,020
856,11	18,375
856,28	9,594
856,46	14,057
856,64	16,952
856,82	14,777
857,00	7,302
857,18	11,913
857,36	7,251
857,54	9,516
857,72	6,491
857,90	5,535
858,08	5,686
858,26	2,692
858,44	11,891
858,61	6,969
858,79	15,744
858,97	6,726
859,15	11,765
859,33	14,219
859,51	10,050
859,69	7,156
859,87	5,437
860,05	-3,908
860,23	7,468
860,40	11,566
860,58	5,082
860,76	3,333
860,94	8,943
861,12	10,462
861,30	5,965
861,48	10,857
861,66	5,079
861,84	4,783
862,01	11,193
862,19	4,915
862,37	6,203
862,55	7,637
862,73	1,393
862,91	3,524
863,09	11,756
863,27	10,345
863,44	2,257
863,62	10,326
863,80	6,610
863,98	8,309
864,16	1,156
864,34	12,588
864,52	4,558
864,69	10,526
864,87	5,210
865,05	7,891
865,23	2,222
865,41	8,065
865,59	11,440
865,76	14,101
865,94	10,724
866,12	11,613
866,30	5,189
866,48	8,813
866,66	1,344
866,83	10,305
867,01	5,115
867,19	5,982
867,37	4,010
867,55	3,226
867,73	4,928
867,90	5,749
868,08	5,562
868,26	5,270
868,44	4,455
868,62	9,337
868,79	6,987
868,97	4,030
869,15	2,436
869,33	4,884
869,51	6,388
869,69	4,146
869,86	5,731
870,04	9,425
870,22	9,273
870,40	8,187
870,57	4,844
870,75	7,403
870,93	9,158
871,11	3,355
871,29	6,393
871,46	6,291
871,64	5,230
871,82	6,459
872,00	7,305
872,18	1,688
872,35	9,781
872,53	5,702
872,71	4,388
872,89	11,783
873,06	8,723
873,24	6,596
873,42	4,563
873,60	0,421
873,77	1,431
873,95	3,413
874,13	-2,537
874,31	8,978
874,49	2,420
874,66	4,511
874,84	5,115
875,02	5,041
875,20	6,995
875,37	5,709
875,55	6,870
875,73	2,010
875,91	2,045
876,08	-0,274
876,26	3,269
876,44	5,213
876,61	9,267
876,79	8,749
876,97	2,099
877,15	2,819
877,32	3,495
877,50	3,311
877,68	3,856
877,86	2,039
878,03	5,790
878,21	3,721
878,39	6,816
878,56	2,479
878,74	8,792
878,92	1,776
879,10	4,766
879,27	5,628
879,45	6,646
879,63	3,882
879,80	4,491
879,98	2,859
880,16	7,351
880,34	5,232
880,51	0,868
880,69	3,199
880,87	2,479
881,04	4,342
881,22	4,036
881,40	2,169
881,57	3,511
881,75	5,332
881,93	7,066
882,10	4,006
882,28	4,069
882,46	5,479
882,63	4,175
882,81	4,186
882,99	7,366
883,16	5,256
883,34	0,802
883,52	4,024
883,69	3,767
883,87	-0,521
884,05	2,558
884,22	2,414
884,40	5,484
884,58	0,645
884,75	4,507
884,93	3,345
885,11	4,851
885,28	2,371
885,46	-0,062
885,64	2,253
885,81	1,885
885,99	2,602
886,17	2,386
886,34	2,787
886,52	2,273
886,70	3,600
886,87	2,229
887,05	3,311
887,22	0,719
887,40	3,736
887,58	1,443
887,75	2,862
887,93	2,255
888,11	3,434
888,28	1,699
888,46	4,272
888,63	1,229
888,81	3,544
888,99	2,576
889,16	5,322
889,34	1,193
889,51	4,352
889,69	0,252
889,87	3,678
890,04	2,611
890,22	2,877
890,39	0,893
890,57	3,182
890,75	2,571
890,92	2,913
891,10	1,126
891,27	2,790
891,45	2,643
891,63	2,769
891,80	3,353
891,98	2,345
892,15	0,916
892,33	2,723
892,51	2,536
892,68	2,989
892,86	0,319
893,03	2,243
893,21	4,712
893,38	1,543
893,56	3,417
893,74	2,160
893,91	2,058
894,09	2,940
894,26	3,746
894,44	2,249
894,61	1,872
894,79	1,741
894,96	0,683
895,14	3,178
895,32	1,581
895,49	2,812
895,67	2,998
895,84	1,227
896,02	1,160
896,19	1,351
896,37	3,659
896,54	1,773
896,72	2,394
896,89	2,022
897,07	3,275
897,25	2,689
897,42	1,272
897,60	3,124
897,77	1,810
897,95	1,513
898,12	2,420
898,30	1,972
898,47	0,660
898,65	0,431
898,82	0,660
899,00	1,180
899,17	1,182
899,35	0,236
899,52	4,444
899,70	1,946
899,87	1,145
900,05	1,180
900,22	1,790
900,40	0,908
900,57	1,299
900,75	0,859
900,92	1,001
901,10	2,345
901,27	1,443
901,45	2,071
901,62	2,136
901,80	2,201
901,97	2,338
902,15	1,583
902,32	3,306
902,50	1,005
902,67	3,084
902,85	2,353
903,02	2,326
903,20	3,139
903,37	1,068
903,54	2,155
903,72	2,969
903,89	2,282
904,07	1,925
904,24	1,829
904,42	1,268
904,59	0,929
904,77	2,759
904,94	1,644
905,12	0,709
905,29	1,264
905,47	2,056
905,64	0,593
905,81	1,705
905,99	-0,140
906,16	0,902
906,34	1,746
906,51	2,591
906,69	2,484
906,86	1,340
907,03	1,648
907,21	0,266
907,38	0,851
907,56	2,169
907,73	2,073
907,91	1,804
908,08	1,571
908,25	2,324
908,43	0,738
908,60	-0,032
908,78	1,574
908,95	1,227
909,13	1,932
909,30	2,562
909,47	0,000
909,65	2,234
909,82	1,206
910,00	0,929
910,17	1,470
910,34	2,618
910,52	2,460
910,69	1,167
910,87	2,412
911,04	1,363
911,21	3,150
911,39	-0,213
911,56	1,401
911,73	1,472
911,91	1,961
912,08	2,025
912,26	0,483
912,43	3,374
912,60	2,240
912,78	2,844
912,95	1,080
913,13	1,617
913,30	2,461
913,47	2,983
913,65	2,342
913,82	2,132
913,99	1,280
914,17	0,811
914,34	1,206
914,51	2,001
914,69	2,324
914,86	2,910
915,03	1,786
915,21	1,521
915,38	1,417
915,56	1,862
915,73	1,706
915,90	1,365
916,08	1,132
916,25	2,259
916,42	1,775
916,60	1,612
916,77	1,903
916,94	1,279
917,12	0,141
917,29	1,627
917,46	1,043
917,64	1,586
917,81	1,177
917,98	1,910
918,16	1,713
918,33	2,065
918,50	2,206
918,67	1,161
918,85	0,326
919,02	1,425
919,19	1,381
919,37	1,126
919,54	1,711
919,71	2,603
919,89	0,990
920,06	2,587
920,23	1,970
920,41	1,721
920,58	1,638
920,75	1,414
920,92	0,634
921,10	1,899
921,27	0,875
921,44	1,821
921,62	1,323
921,79	1,663
921,96	1,594
922,13	1,727
922,31	1,775
922,48	0,614
922,65	1,726
922,82	1,134
923,00	1,328
923,17	0,464
923,34	1,285
923,52	0,608
923,69	1,477
923,86	2,285
924,03	1,793
924,21	2,315
924,38	1,636
924,55	1,893
924,72	1,535
924,90	1,118
925,07	2,104
925,24	0,495
925,41	1,412
925,59	1,918
925,76	0,739
925,93	3,339
926,10	1,814
926,28	0,885
926,45	0,726
926,62	1,217
926,79	2,710
926,96	2,738
927,14	2,114
927,31	1,854
927,48	1,495
927,65	1,838
927,83	1,412
928,00	1,292
928,17	2,020
928,34	1,453
928,51	1,972
928,69	1,731
928,86	1,049
929,03	1,976
929,20	1,657
929,37	1,680
929,55	1,897
929,72	1,354
929,89	1,026
930,06	2,170
930,23	2,835
930,41	1,707
930,58	2,104
930,75	0,747
930,92	1,809
931,09	2,335
931,27	0,722
931,44	1,800
931,61	1,957
931,78	2,415
931,95	1,367
932,12	2,204
932,30	1,098
932,47	0,351
932,64	1,340
932,81	1,197
932,98	0,496
933,16	1,068
933,33	1,196
933,50	1,364
933,67	1,536
933,84	1,543
934,01	1,369
934,18	1,245
934,36	0,972
934,53	2,334
934,70	1,126
934,87	0,708
935,04	1,535
935,21	0,947
935,38	0,741
935,56	1,744
935,73	0,439
935,90	1,547
936,07	0,824
936,24	1,587
936,41	0,966
936,58	0,909
936,76	1,434
936,93	0,532
937,10	1,291
937,27	1,601
937,44	1,215
937,61	1,507
937,78	1,214
937,95	1,506
938,13	0,933
938,30	1,921
938,47	0,461
938,64	0,860
938,81	-0,020
938,98	0,538
939,15	2,272
939,32	1,280
939,49	0,876
939,66	0,656
939,84	1,252
940,01	1,155
940,18	0,891
940,35	-0,103
940,52	1,233
940,69	0,728
940,86	1,888
941,03	1,031
941,20	0,689
941,37	-0,251
941,54	1,680
941,71	1,255
941,89	0,743
942,06	0,566
942,23	1,441
942,40	1,073
942,57	0,526
942,74	1,446
942,91	2,381
943,08	1,730
943,25	1,842
943,42	0,844
943,59	1,093
943,76	1,216
943,93	0,583
944,10	0,225
944,27	0,321
944,44	1,083
944,61	0,184
944,79	2,317
944,96	2,006
945,13	0,609
945,30	1,216
945,47	1,882
945,64	1,359
945,81	0,829
945,98	0,968
946,15	1,445
946,32	2,174
946,49	0,948
946,66	2,218
946,83	0,858
947,00	1,573
947,17	0,245
947,34	1,405
947,51	1,566
947,68	2,442
947,85	0,468
948,02	1,452
948,19	0,058
948,36	1,757
948,53	1,077
948,70	0,089
948,87	1,482
949,04	1,955
949,21	1,924
949,38	2,582
949,55	2,618
949,72	0,390
949,89	3,625
950,06	2,825
950,23	1,009
950,40	0,949
950,57	1,056
950,74	2,209
950,91	0,073
951,08	3,423
951,25	1,341
951,42	2,524
951,59	1,634
951,76	1,353
951,93	1,211
952,10	1,008
952,27	2,239
952,44	4,610
952,61	2,019
952,77	3,143
952,94	2,392
953,11	1,959
953,28	2,096
953,45	2,982
953,62	1,545
953,79	3,407
953,96	5,023
954,13	3,573
954,30	3,145
954,47	2,848
954,64	0,114
954,81	4,255
954,98	0,955
955,15	0,907
955,32	4,237
955,49	3,081
955,65	2,428
955,82	4,543
955,99	3,966
956,16	6,009
956,33	0,971
956,50	2,434
956,67	1,961
956,84	4,735
957,01	3,731
957,18	4,487
957,35	5,858
957,52	1,658
957,68	3,548
957,85	6,048
958,02	4,214
958,19	3,374
958,36	4,939
958,53	5,855
958,70	5,953
958,87	2,794
959,04	3,579
959,21	9,091
959,37	5,595
959,54	8,168
959,71	5,586
959,88	-1,047
960,05	10,244
960,22	7,673
960,39	5,779
960,56	9,463
960,72	11,080
960,89	5,369
961,06	5,402
961,23	1,376
961,40	10,866
961,57	5,911
961,74	5,069
961,90	10,015
962,07	12,407
962,24	7,544
962,41	10,517
962,58	12,040
962,75	11,795
962,92	3,509
963,08	-1,042
963,25	4,183
963,42	12,450
963,59	19,097
963,76	15,905
963,93	20,367
964,10	19,231
964,26	16,905
964,43	7,442
964,60	12,065
964,77	26,174
964,94	16,296
965,10	16,992
965,27	25,978
965,44	13,968
965,61	36,986
965,78	26,087
965,95	23,881
966,11	16,667
966,28	15,642
966,45	28,758
966,62	24,739
966,79	23,891
966,95	32,028
967,12	37,143
967,29	33,025
967,46	48,043
967,63	33,725
967,79	45,973
967,96	43,119
968,13	50,476
968,30	43,210
968,47	43,846
968,63	33,333
968,80	29,502
968,97	52,023
969,14	46,893
969,31	50,510
969,47	69,022
969,64	37,912
969,81	21,935
969,98	53,158
970,14	18,817
970,31	63,522
970,48	93,289
970,65	60,331
970,81	51,748
970,98	58,854
971,15	80,000
971,32	78,030
971,48	63,095
971,65	55,629
971,82	63,636
971,99	79,114
972,15	18,605
972,32	76,389
972,49	91,803
972,66	94,215
972,82	76,027
972,99	63,750
973,16	97,351
973,33	90,370
973,49	95,122
973,66	78,095
973,83	118,519
974,00	84,810
974,16	110,909
974,33	69,333
974,50	93,939
974,67	52,381
974,83	109,184
975,00	172,727
975,17	150,000
975,33	71,264
975,50	155,738
975,67	117,308
975,84	67,073
976,00	75,000
976,17	193,478
976,34	108,235
976,50	76,923
976,67	113,095
976,84	204,167
977,00	107,692
977,17	200,000
977,34	134,615
977,50	101,190
977,67	44,706
977,84	233,898
978,01	85,135
978,17	79,310
978,34	140,741
978,51	160,000
978,67	136,735
978,84	165,455
979,01	84,211
979,17	95,714
979,34	169,565
979,51	129,545
979,67	383,333
979,84	177,966
980,01	115,385
980,17	88,235
980,34	116,438
980,51	500,000
980,67	55,556
980,84	85,714
981,01	126,471
981,17	142,647
981,34	147,143
981,50	67,368
981,67	204,762
981,84	35,714
982,00	3000,000
982,17	162,500
982,34	175,610
982,50	0,000
982,67	-128,571
982,84	240,000
983,00	155,556
983,17	-442,857
983,33	233,333
983,50	134,146
983,67	147,826
983,83	161,905
984,00	430,435
984,17	477,778
984,33	-221,429
984,50	110,811
984,66	268,750
984,83	312,500
985,00	-123,077
985,16	154,839
985,33	4000,000
985,49	91,860
985,66	77,500
985,83	-1933,333
985,99	433,333
986,16	105,263
986,32	87,671
986,49	-1140,000
986,66	1480,000
986,82	251,515
986,99	-280,000
987,15	142,424
987,32	423,529
987,49	192,857
987,65	-152,174
987,82	-205,000
987,98	168,182
988,15	814,286
988,31	188,571
988,48	96,078
988,65	130,000
988,81	116,364
988,98	205,405
989,14	350,000
989,31	111,864
989,47	-50,000
989,64	127,778
989,80	97,872
989,97	125,455
990,14	300,000
990,30	-387,500
990,47	-33,333
990,63	297,368
990,80	916,667
990,96	675,000
991,13	230,000
991,29	129,412
991,46	120,833
991,62	0,000
991,79	-160,000
991,95	394,118
992,12	1583,333
992,29	-71,429
992,45	154,762
992,62	-100,000
992,78	-800,000
992,95	225,806
993,11	712,500
993,28	-6700,000
993,44	-227,586
993,61	147,368
993,77	0,000
993,94	225,641
994,10	757,143
994,27	-65,789
994,43	221,875
994,60	414,286
994,76	230,303
994,93	-390,000
995,09	-281,250
995,26	320,833
995,42	312,500
995,59	133,333
995,75	-375,000
995,92	-1057,143
996,08	-880,000
996,25	239,394
996,41	860,000
996,58	292,000
996,74	-490,000
996,91	132,258
997,07	184,000
997,23	162,745
997,40	1066,667
997,56	-1200,000
997,73	347,826
997,89	2220,000
998,06	154,386
998,22	131,915
998,39	206,122
998,55	321,053
998,72	-9300,000
998,88	112,000
999,05	540,000
999,21	470,588
999,37	241,860
999,54	245,161
999,70	14,286
999,87	1183,333
1000,03	213,333
1000,20	435,714
1000,36	-387,500
1000,52	900,000
1000,69	492,000
1000,85	-341,667
1001,02	266,667
1001,18	560,000
1001,35	0,000
1001,51	435,714
1001,67	300,000
1001,84	173,171
1002,00	-736,364
1002,17	1375,000
1002,33	-300,000
1002,50	625,000
1002,66	1075,000
1002,82	217,073
1002,99	-272,727
1003,15	-6600,000
1003,32	-114,286
1003,48	-766,667
1003,64	247,826
1003,81	-136,842
1003,97	107,246
1004,14	-76,364
1004,30	200,000
1004,46	-8900,000
1004,63	-392,308
1004,79	191,892
1004,95	-820,000
1005,12	69,231
1005,28	150,000
1005,45	-1033,333
1005,61	269,231
1005,77	-271,429
1005,94	178,261
1006,10	-800,000
1006,26	29,630
1006,43	260,606
1006,59	319,355
1006,76	-132,000
1006,92	226,087
1007,08	121,212
1007,25	233,333
1007,41	100,000
1007,57	-364,706
1007,74	265,217
1007,90	-71,429
1008,06	-186,667
1008,23	-94,737
1008,39	183,333
1008,55	92,941
1008,72	-687,500
1008,88	-28,571
1009,04	-788,889
1009,21	259,375
1009,37	303,226
1009,53	-445,000
1009,70	-3,030
1009,86	300,000
1010,02	152,273
1010,19	606,667
1010,35	7200,000
1010,51	222,857
1010,68	427,273
1010,84	565,000
1011,00	257,143
1011,17	4166,667
1011,33	130,769
1011,49	431,250
1011,66	378,125
1011,82	-791,667
1011,98	413,333
1012,14	507,692
1012,31	238,636
1012,47	-700,000
1012,63	2800,000
1012,80	144,444
1012,96	158,333
1013,12	-103,704
1013,29	329,167
1013,45	-97,059
1013,61	-1640,000
1013,77	-833,333
1013,94	250,000
1014,10	4200,000
1014,26	-58,824
1014,43	226,316
1014,59	0,000
1014,75	610,000
1014,91	211,429
1015,08	142,308
1015,24	320,000
1015,40	340,000
1015,56	594,118
1015,73	148,980
1015,89	211,111
1016,05	262,162
1016,21	292,593
1016,38	142,105
1016,54	-244,000
1016,70	373,684
1016,86	-507,692
1017,03	0,000
1017,19	750,000
1017,35	260,000
1017,51	1066,667
1017,68	671,429
1017,84	373,684
1018,00	190,476
1018,16	-381,250
1018,33	454,545
1018,49	557,143
1018,65	-495,455
1018,81	-26,829
1018,97	330,769
1019,14	-857,143
1019,30	385,714
1019,46	146,154
1019,62	2200,000
1019,79	-657,143
1019,95	-1275,000
1020,11	1100,000
1020,27	137,500
1020,43	-412,500
1020,60	0,000
1020,76	141,176
1020,92	9100,000
1021,08	-102,222
1021,24	-1850,000
1021,41	260,606
1021,57	-358,333
1021,73	0,000
1021,89	-377,273
1022,05	248,571
1022,21	-515,385
1022,38	252,632
1022,54	1540,000
1022,70	122,222
1022,86	-2000,000
1023,02	566,667
1023,19	-160,000
1023,35	205,660
1023,51	332,258
1023,67	147,368
1023,83	572,727
1023,99	280,000
1024,16	-10,769
1024,32	218,750
1024,48	146,939
1024,64	-320,000
1024,80	158,333
1024,96	530,769
1025,12	1666,667
1025,29	-650,000
1025,45	250,000
1025,61	2500,000
1025,77	247,619
1025,93	-361,538
1026,09	4500,000
1026,26	-985,714
1026,42	-1625,000
1026,58	130,769
1026,74	1128,571
1026,90	310,526
1027,06	-560,000
1027,22	-608,333
1027,38	1077,778
1027,55	-296,000
1027,71	700,000
1027,87	225,000
1028,03	65,152
1028,19	-166,667
1028,35	114,865
1028,51	-35,484
1028,67	-400,000
1028,83	157,143
1029,00	550,000
1029,16	-433,333
1029,32	417,647
1029,48	4350,000
1029,64	1185,714
1029,80	1216,667
1029,96	209,804
1030,12	-375,000
1030,28	1025,000
1030,44	-2700,000
1030,61	181,250
1030,77	-156,522
1030,93	172,093
1031,09	-192,857
1031,25	-933,333
1031,41	-2800,000
1031,57	57,895
1031,73	527,273
1031,89	-90,909
1032,05	785,714
1032,21	850,000
1032,37	-94,118
1032,53	-195,000
1032,69	-1100,000
1032,86	1516,667
1033,02	237,500
1033,18	-576,923
1033,34	-176,923
1033,50	135,484
1033,66	-477,778
1033,82	328,571
1033,98	-611,765
1034,14	466,667
1034,30	-154,545
1034,46	308,333
1034,62	600,000
1034,78	201,587
1034,94	-3,226
1035,10	-359,091
1035,26	-533,333
1035,42	77,143
1035,58	440,000
1035,74	-60,000
1035,90	-533,333
1036,06	200,000
1036,22	-292,000
1036,38	540,000
1036,54	700,000
1036,70	-1600,000
1036,86	-350,000
1037,02	-3700,000
1037,18	-132,143
1037,34	226,087
1037,50	-240,000
1037,66	-1266,667
1037,82	-135,294
1037,98	452,381
1038,14	-17,241
1038,30	65,385
1038,46	154,167
1038,62	22,581
1038,78	178,571
1038,94	-78,947
1039,10	-375,000
1039,26	-126,316
1039,42	-571,429
1039,58	150,943
1039,74	103,125
1039,90	-97,436
1040,06	176,471
>>>>>End Processed Spectral Data<<<<<
