SpectraSuite Data File
++++++++++++++++++++++++++++++++++++
Date: Thu Feb 02 17:31:45 EET 2017
User: optolab
Dark Spectrum Present: Yes
Reference Spectrum Present: Yes
Number of Sampled Component Spectra: 1
Spectrometers: USB4C02475
Integration Time (usec): 100000 (USB4C02475)
Spectra Averaged: 1 (USB4C02475)
Boxcar Smoothing: 0 (USB4C02475)
Correct for Electrical Dark: No (USB4C02475)
Strobe/Lamp Enabled: No (USB4C02475)
Correct for Detector Non-linearity: No (USB4C02475)
Correct for Stray Light: No (USB4C02475)
Number of Pixels in Processed Spectrum: 3648
>>>>>Begin Processed Spectral Data<<<<<
344,91	300,000
345,13	300,000
345,35	300,000
345,57	-117,647
345,79	41,304
346,00	-55,882
346,22	-1014,286
346,44	-163,636
346,66	242,553
346,87	369,565
347,09	707,692
347,31	4600,000
347,53	-1750,000
347,74	-86,047
347,96	-1171,429
348,18	205,882
348,40	552,941
348,61	-143,590
348,83	7600,000
349,05	376,923
349,27	288,235
349,48	-3750,000
349,70	464,286
349,92	147,619
350,14	121,622
350,35	-423,077
350,57	-350,000
350,79	-107,692
351,01	-626,667
351,22	530,000
351,44	566,667
351,66	300,000
351,87	750,000
352,09	102,632
352,31	282,143
352,53	268,571
352,74	-685,714
352,96	242,105
353,18	75,000
353,40	-675,000
353,61	580,000
353,83	154,167
354,05	271,875
354,26	214,286
354,48	-1380,000
354,70	266,667
354,92	361,111
355,13	-74,419
355,35	151,852
355,57	189,062
355,78	364,286
356,00	172,340
356,22	63,636
356,44	158,140
356,65	385,714
356,87	161,111
357,09	125,714
357,30	102,273
357,52	-833,333
357,74	280,645
357,95	220,000
358,17	105,797
358,39	248,000
358,60	213,889
358,82	245,455
359,04	166,667
359,26	129,545
359,47	-461,538
359,69	275,000
359,91	344,000
360,12	250,000
360,34	152,778
360,56	300,000
360,77	433,333
360,99	362,500
361,21	165,217
361,42	-2000,000
361,64	-292,593
361,86	150,746
362,07	726,667
362,29	112,500
362,51	267,568
362,72	-840,000
362,94	274,074
363,16	117,143
363,37	1045,455
363,59	-3400,000
363,81	1287,500
364,02	56,000
364,24	229,545
364,46	457,143
364,67	209,524
364,89	182,353
365,11	178,378
365,32	333,333
365,54	237,500
365,76	195,455
365,97	178,049
366,19	124,561
366,41	910,000
366,62	141,000
366,84	408,333
367,05	118,627
367,27	1520,000
367,49	300,000
367,70	644,444
367,92	195,833
368,14	-146,154
368,35	97,059
368,57	206,061
368,79	280,769
369,00	97,436
369,22	316,667
369,43	321,053
369,65	-210,345
369,87	-323,529
370,08	450,000
370,30	650,000
370,51	481,818
370,73	250,000
370,95	305,000
371,16	184,211
371,38	147,170
371,60	250,000
371,81	132,609
372,03	-1325,000
372,24	-68,750
372,46	2200,000
372,68	158,824
372,89	91,743
373,11	120,930
373,32	98,319
373,54	345,455
373,76	322,222
373,97	218,182
374,19	-236,842
374,40	125,714
374,62	500,000
374,84	350,000
375,05	194,231
375,27	216,216
375,48	116,049
375,70	447,059
375,92	232,143
376,13	305,263
376,35	391,667
376,56	265,000
376,78	48,980
376,99	342,424
377,21	90,625
377,43	163,636
377,64	114,000
377,86	143,750
378,07	125,000
378,29	163,889
378,51	108,333
378,72	-122,727
378,94	171,739
379,15	172,727
379,37	343,750
379,58	180,000
379,80	102,273
380,01	158,000
380,23	356,522
380,45	177,083
380,66	131,944
380,88	172,973
381,09	295,652
381,31	194,872
381,52	200,000
381,74	192,857
381,95	192,857
382,17	380,000
382,39	116,129
382,60	282,353
382,82	165,517
383,03	833,333
383,25	69,136
383,46	391,667
383,68	163,830
383,89	250,000
384,11	95,890
384,32	221,053
384,54	-942,857
384,76	226,471
384,97	215,000
385,19	331,579
385,40	400,000
385,62	112,903
385,83	172,340
386,05	657,143
386,26	203,846
386,48	546,154
386,69	213,889
386,91	840,000
387,12	161,538
387,34	157,627
387,55	231,429
387,77	280,000
387,98	91,837
388,20	97,183
388,41	41,270
388,63	115,714
388,84	235,000
389,06	216,279
389,27	271,875
389,49	81,928
389,70	127,119
389,92	56,818
390,13	161,538
390,35	95,833
390,56	115,625
390,78	272,727
390,99	213,333
391,21	97,727
391,42	134,783
391,64	-430,000
391,85	122,414
392,07	-207,143
392,28	123,077
392,50	1460,000
392,71	4800,000
392,93	125,806
393,14	202,174
393,36	106,410
393,57	366,667
393,79	120,635
394,00	80,822
394,22	138,000
394,43	185,714
394,65	157,143
394,86	206,250
395,08	-500,000
395,29	10,638
395,50	-4200,000
395,72	714,286
395,93	368,000
396,15	-85,714
396,36	163,333
396,58	-338,095
396,79	144,186
397,01	254,762
397,22	101,449
397,44	123,404
397,65	131,081
397,87	107,143
398,08	234,615
398,29	50,000
398,51	204,878
398,72	252,174
398,94	211,628
399,15	81,667
399,37	156,522
399,58	168,254
399,80	340,000
400,01	129,412
400,22	428,571
400,44	52,381
400,65	115,068
400,87	4400,000
401,08	132,584
401,30	100,000
401,51	130,909
401,72	195,161
401,94	131,707
402,15	163,265
402,37	172,727
402,58	290,698
402,80	443,750
403,01	102,778
403,22	107,229
403,44	105,556
403,65	79,592
403,87	146,667
404,08	128,846
404,30	150,000
404,51	84,286
404,72	954,545
404,94	131,325
405,15	129,851
405,37	130,769
405,58	387,097
405,79	664,286
406,01	90,370
406,22	64,286
406,44	207,018
406,65	153,571
406,86	98,000
407,08	133,333
407,29	108,000
407,51	77,885
407,72	123,762
407,93	107,595
408,15	121,591
408,36	357,143
408,58	103,333
408,79	100,000
409,00	108,511
409,22	137,255
409,43	88,288
409,64	105,769
409,86	111,364
410,07	89,565
410,29	68,667
410,50	107,143
410,71	104,839
410,93	133,663
411,14	155,140
411,35	95,139
411,57	89,583
411,78	113,971
412,00	102,667
412,21	87,611
412,42	103,902
412,64	115,556
412,85	83,420
413,06	106,696
413,28	89,020
413,49	109,767
413,70	91,416
413,92	100,000
414,13	100,791
414,34	101,487
414,56	102,979
414,77	98,155
414,98	106,360
415,20	107,885
415,41	91,234
415,63	92,877
415,84	103,601
416,05	88,855
416,27	94,708
416,48	85,545
416,69	102,326
416,91	110,400
417,12	86,199
417,33	90,745
417,55	99,400
417,76	98,943
417,97	95,693
418,19	102,092
418,40	110,021
418,61	94,683
418,83	102,113
419,04	81,085
419,25	94,258
419,46	93,579
419,68	95,723
419,89	88,801
420,10	94,758
420,32	101,589
420,53	93,079
420,74	94,146
420,96	93,483
421,17	92,360
421,38	91,565
421,60	91,104
421,81	82,683
422,02	85,378
422,23	84,491
422,45	86,411
422,66	74,582
422,87	69,720
423,09	77,425
423,30	76,068
423,51	66,320
423,73	69,803
423,94	66,282
424,15	67,622
424,36	67,845
424,58	65,209
424,79	58,881
425,00	57,692
425,22	54,471
425,43	53,574
425,64	52,753
425,85	45,547
426,07	37,086
426,28	41,217
426,49	37,284
426,71	36,224
426,92	35,213
427,13	33,066
427,34	34,059
427,56	35,140
427,77	33,375
427,98	35,184
428,19	33,036
428,41	36,416
428,62	30,452
428,83	30,264
429,04	28,356
429,26	26,243
429,47	24,233
429,68	18,289
429,89	16,662
430,11	13,657
430,32	12,371
430,53	8,387
430,74	8,001
430,96	6,589
431,17	4,226
431,38	2,418
431,59	2,806
431,81	2,392
432,02	1,957
432,23	1,922
432,44	2,008
432,66	1,791
432,87	0,972
433,08	1,619
433,29	1,045
433,51	2,178
433,72	1,497
433,93	0,989
434,14	1,317
434,35	1,294
434,57	0,894
434,78	2,416
434,99	1,012
435,20	1,567
435,42	1,464
435,63	1,028
435,84	1,865
436,05	1,218
436,26	0,401
436,48	1,522
436,69	1,336
436,90	1,305
437,11	1,748
437,32	1,009
437,54	1,477
437,75	1,158
437,96	1,224
438,17	1,282
438,38	1,165
438,60	1,419
438,81	0,840
439,02	1,312
439,23	1,302
439,44	1,040
439,66	1,138
439,87	1,148
440,08	0,834
440,29	1,534
440,50	1,084
440,72	0,974
440,93	1,245
441,14	1,090
441,35	0,898
441,56	1,215
441,77	0,802
441,99	0,866
442,20	0,989
442,41	0,854
442,62	0,515
442,83	0,857
443,04	0,625
443,26	0,822
443,47	0,953
443,68	0,689
443,89	0,863
444,10	0,684
444,31	1,454
444,53	1,028
444,74	0,784
444,95	0,500
445,16	0,601
445,37	0,697
445,58	0,745
445,80	0,682
446,01	0,848
446,22	0,961
446,43	0,656
446,64	0,459
446,85	0,607
447,06	0,872
447,28	0,642
447,49	0,823
447,70	0,702
447,91	0,989
448,12	0,492
448,33	0,431
448,54	0,719
448,76	0,794
448,97	0,663
449,18	0,780
449,39	0,876
449,60	0,599
449,81	0,855
450,02	0,747
450,23	0,829
450,45	0,706
450,66	0,716
450,87	0,697
451,08	0,788
451,29	1,148
451,50	0,792
451,71	0,857
451,92	0,841
452,13	0,844
452,35	0,972
452,56	0,456
452,77	0,953
452,98	0,737
453,19	0,636
453,40	0,936
453,61	0,804
453,82	0,639
454,03	0,621
454,25	0,593
454,46	0,263
454,67	0,815
454,88	0,951
455,09	0,701
455,30	0,690
455,51	0,627
455,72	0,688
455,93	0,643
456,14	0,688
456,35	0,555
456,56	0,726
456,78	0,627
456,99	0,951
457,20	0,672
457,41	0,624
457,62	0,415
457,83	0,725
458,04	0,811
458,25	0,564
458,46	0,692
458,67	0,844
458,88	0,576
459,09	0,508
459,30	0,375
459,51	0,704
459,73	0,402
459,94	0,576
460,15	0,573
460,36	0,490
460,57	0,586
460,78	0,611
460,99	0,559
461,20	0,461
461,41	0,676
461,62	0,551
461,83	0,494
462,04	0,413
462,25	0,590
462,46	0,573
462,67	0,319
462,88	0,598
463,09	0,434
463,30	0,564
463,51	0,549
463,72	0,589
463,93	0,446
464,15	0,626
464,36	0,545
464,57	0,264
464,78	0,397
464,99	0,620
465,20	0,309
465,41	0,464
465,62	0,511
465,83	0,361
466,04	0,526
466,25	0,497
466,46	0,601
466,67	0,499
466,88	0,435
467,09	0,406
467,30	0,307
467,51	0,425
467,72	0,335
467,93	0,466
468,14	0,325
468,35	0,607
468,56	0,513
468,77	0,371
468,98	0,762
469,19	0,573
469,40	0,545
469,61	0,484
469,82	0,540
470,03	0,519
470,24	0,647
470,45	0,661
470,66	0,784
470,87	0,477
471,08	0,838
471,29	0,397
471,50	0,625
471,71	0,618
471,92	0,775
472,13	0,828
472,34	0,938
472,55	1,056
472,76	1,151
472,97	0,999
473,18	1,497
473,39	1,488
473,60	1,667
473,81	2,243
474,01	2,745
474,22	3,416
474,43	4,184
474,64	5,305
474,85	6,400
475,06	7,849
475,27	9,831
475,48	11,781
475,69	13,940
475,90	16,119
476,11	19,057
476,32	21,836
476,53	25,701
476,74	29,167
476,95	33,534
477,16	37,477
477,37	41,449
477,58	45,194
477,79	50,504
478,00	53,940
478,21	58,237
478,41	61,842
478,62	66,527
478,83	68,578
479,04	70,395
479,25	73,677
479,46	77,243
479,67	79,934
479,88	80,463
480,09	82,402
480,30	83,724
480,51	84,236
480,72	84,798
480,93	86,400
481,14	85,748
481,34	87,465
481,55	87,836
481,76	88,791
481,97	88,669
482,18	88,295
482,39	90,231
482,60	90,330
482,81	91,125
483,02	90,949
483,23	92,046
483,44	91,642
483,65	92,112
483,85	92,685
484,06	92,143
484,27	92,963
484,48	93,026
484,69	93,135
484,90	94,482
485,11	93,653
485,32	94,143
485,53	94,263
485,73	93,793
485,94	93,120
486,15	95,453
486,36	95,458
486,57	94,149
486,78	93,730
486,99	95,929
487,20	95,051
487,41	94,485
487,61	94,743
487,82	95,201
488,03	94,151
488,24	93,772
488,45	93,546
488,66	94,293
488,87	94,362
489,08	94,574
489,28	94,590
489,49	93,728
489,70	93,117
489,91	93,774
490,12	93,780
490,33	93,472
490,54	94,504
490,74	93,062
490,95	92,750
491,16	93,095
491,37	92,337
491,58	91,359
491,79	90,258
492,00	89,570
492,20	89,434
492,41	88,254
492,62	87,215
492,83	86,393
493,04	85,716
493,25	84,028
493,45	83,347
493,66	83,267
493,87	83,502
494,08	82,091
494,29	80,543
494,50	80,841
494,70	79,690
494,91	79,190
495,12	78,383
495,33	76,725
495,54	75,939
495,75	75,315
495,95	73,659
496,16	71,903
496,37	70,909
496,58	69,482
496,79	67,418
496,99	65,035
497,20	62,059
497,41	59,389
497,62	55,752
497,83	52,852
498,04	49,187
498,24	45,857
498,45	41,740
498,66	38,996
498,87	35,734
499,08	31,601
499,28	28,268
499,49	25,449
499,70	22,927
499,91	19,851
500,12	17,147
500,32	14,838
500,53	12,454
500,74	10,607
500,95	8,924
501,15	7,418
501,36	6,011
501,57	4,994
501,78	3,994
501,99	3,190
502,19	2,540
502,40	2,092
502,61	1,398
502,82	1,323
503,02	1,089
503,23	0,918
503,44	0,830
503,65	0,639
503,86	0,699
504,06	0,576
504,27	0,765
504,48	0,436
504,69	0,587
504,89	0,499
505,10	0,518
505,31	0,609
505,52	0,558
505,72	0,649
505,93	0,527
506,14	0,369
506,35	0,625
506,55	0,481
506,76	0,350
506,97	0,553
507,18	0,540
507,38	0,443
507,59	0,413
507,80	0,395
508,01	0,535
508,21	0,387
508,42	0,326
508,63	0,501
508,84	0,509
509,04	0,631
509,25	0,476
509,46	0,380
509,67	0,728
509,87	0,554
510,08	0,531
510,29	0,519
510,49	0,674
510,70	0,718
510,91	0,603
511,12	0,748
511,32	0,483
511,53	0,456
511,74	0,432
511,94	0,167
512,15	0,574
512,36	0,349
512,57	0,591
512,77	0,388
512,98	0,348
513,19	0,708
513,39	0,666
513,60	0,372
513,81	0,535
514,01	0,638
514,22	0,581
514,43	0,449
514,64	0,700
514,84	0,723
515,05	0,680
515,26	0,620
515,46	0,353
515,67	0,422
515,88	0,538
516,08	0,620
516,29	0,440
516,50	0,431
516,70	0,567
516,91	0,644
517,12	0,696
517,32	0,336
517,53	0,321
517,74	0,545
517,95	0,610
518,15	0,693
518,36	0,726
518,57	0,487
518,77	0,460
518,98	0,699
519,19	0,513
519,39	0,691
519,60	0,396
519,80	0,477
520,01	0,688
520,22	0,609
520,42	0,579
520,63	0,603
520,84	0,597
521,04	0,492
521,25	0,551
521,46	0,510
521,66	0,457
521,87	0,667
522,08	0,646
522,28	0,667
522,49	0,580
522,70	0,495
522,90	0,498
523,11	0,372
523,31	0,628
523,52	0,611
523,73	0,565
523,93	0,747
524,14	0,677
524,35	0,636
524,55	0,637
524,76	0,737
524,97	0,622
525,17	0,600
525,38	0,600
525,58	0,604
525,79	0,642
526,00	0,632
526,20	0,665
526,41	0,625
526,61	0,634
526,82	0,569
527,03	0,848
527,23	0,793
527,44	0,512
527,64	0,635
527,85	0,395
528,06	0,842
528,26	0,713
528,47	0,758
528,68	0,878
528,88	0,634
529,09	0,615
529,29	0,958
529,50	0,700
529,70	0,688
529,91	0,520
530,12	0,738
530,32	0,529
530,53	0,878
530,73	0,582
530,94	1,037
531,15	0,652
531,35	0,828
531,56	0,845
531,76	0,706
531,97	0,772
532,17	0,774
532,38	0,861
532,59	0,863
532,79	0,819
533,00	0,780
533,20	0,742
533,41	0,697
533,61	0,568
533,82	0,541
534,03	0,586
534,23	0,735
534,44	0,994
534,64	0,835
534,85	0,606
535,05	0,620
535,26	0,718
535,46	0,777
535,67	0,561
535,88	0,615
536,08	0,720
536,29	0,833
536,49	0,855
536,70	1,017
536,90	0,865
537,11	0,854
537,31	0,898
537,52	0,924
537,72	0,935
537,93	1,027
538,13	0,970
538,34	0,962
538,55	1,211
538,75	0,971
538,96	1,146
539,16	1,440
539,37	1,662
539,57	2,039
539,78	2,266
539,98	2,522
540,19	3,314
540,39	3,693
540,60	4,176
540,80	5,240
541,01	6,175
541,21	7,442
541,42	8,189
541,62	9,704
541,83	10,998
542,03	12,766
542,24	14,813
542,44	16,677
542,65	18,425
542,85	20,415
543,06	22,988
543,26	25,084
543,47	27,120
543,67	29,918
543,88	31,962
544,08	34,880
544,29	36,443
544,49	38,630
544,70	41,379
544,90	44,047
545,11	46,288
545,31	48,034
545,52	51,015
545,72	53,063
545,93	55,939
546,13	58,009
546,34	61,024
546,54	63,271
546,75	65,888
546,95	67,757
547,15	70,026
547,36	72,338
547,56	74,783
547,77	75,811
547,97	77,961
548,18	78,933
548,38	79,569
548,59	81,331
548,79	80,670
549,00	81,285
549,20	81,100
549,41	81,129
549,61	81,563
549,81	80,188
550,02	80,645
550,22	80,096
550,43	80,312
550,63	80,381
550,84	80,029
551,04	80,590
551,25	79,160
551,45	80,623
551,65	80,541
551,86	81,512
552,06	81,171
552,27	81,748
552,47	81,976
552,68	84,576
552,88	84,690
553,08	86,103
553,29	85,715
553,49	85,943
553,70	86,526
553,90	88,589
554,11	88,614
554,31	88,251
554,51	89,342
554,72	88,869
554,92	88,603
555,13	88,694
555,33	86,896
555,53	87,359
555,74	88,035
555,94	87,358
556,15	86,697
556,35	85,229
556,56	85,982
556,76	85,167
556,96	85,848
557,17	85,297
557,37	85,126
557,58	83,979
557,78	83,422
557,98	84,118
558,19	82,588
558,39	81,485
558,59	80,559
558,80	80,141
559,00	78,120
559,21	75,975
559,41	73,874
559,61	72,044
559,82	71,072
560,02	67,478
560,23	66,267
560,43	64,418
560,63	62,276
560,84	59,709
561,04	58,113
561,24	55,844
561,45	54,012
561,65	52,321
561,85	50,670
562,06	49,165
562,26	47,684
562,47	46,972
562,67	44,896
562,87	44,277
563,08	43,362
563,28	43,077
563,48	41,678
563,69	40,800
563,89	40,213
564,09	39,652
564,30	38,338
564,50	36,907
564,70	36,374
564,91	34,845
565,11	33,258
565,31	31,559
565,52	30,138
565,72	28,108
565,92	26,338
566,13	24,972
566,33	23,500
566,53	21,772
566,74	20,233
566,94	19,195
567,14	17,411
567,35	15,804
567,55	13,844
567,75	12,250
567,96	10,422
568,16	9,292
568,36	7,619
568,57	6,092
568,77	4,764
568,97	3,892
569,18	3,000
569,38	2,344
569,58	1,927
569,79	1,475
569,99	1,262
570,19	1,001
570,39	0,880
570,60	0,690
570,80	0,517
571,00	0,490
571,21	0,593
571,41	0,565
571,61	0,604
571,82	0,724
572,02	0,496
572,22	0,367
572,42	0,452
572,63	0,607
572,83	0,543
573,03	0,329
573,24	0,315
573,44	0,536
573,64	0,512
573,84	0,269
574,05	0,336
574,25	0,412
574,45	0,339
574,66	0,533
574,86	0,381
575,06	0,397
575,26	0,393
575,47	0,484
575,67	0,433
575,87	0,429
576,07	0,332
576,28	0,549
576,48	0,411
576,68	0,543
576,88	0,508
577,09	0,272
577,29	0,518
577,49	0,342
577,69	0,188
577,90	0,291
578,10	0,262
578,30	0,467
578,50	0,274
578,71	0,398
578,91	0,377
579,11	0,497
579,31	0,524
579,52	0,327
579,72	0,361
579,92	0,409
580,12	0,360
580,33	0,340
580,53	0,325
580,73	0,405
580,93	0,284
581,13	0,297
581,34	0,370
581,54	0,498
581,74	0,399
581,94	0,390
582,15	0,410
582,35	0,244
582,55	0,360
582,75	0,457
582,95	0,452
583,16	0,467
583,36	0,296
583,56	0,388
583,76	0,291
583,96	0,349
584,17	0,307
584,37	0,261
584,57	0,327
584,77	0,265
584,97	0,228
585,18	0,251
585,38	0,133
585,58	0,312
585,78	0,351
585,98	0,333
586,19	0,376
586,39	0,455
586,59	0,269
586,79	0,370
586,99	0,172
587,20	0,325
587,40	0,524
587,60	0,162
587,80	0,306
588,00	0,330
588,20	0,463
588,41	0,432
588,61	0,410
588,81	0,270
589,01	0,402
589,21	0,534
589,41	0,327
589,62	0,208
589,82	0,578
590,02	0,347
590,22	0,365
590,42	0,402
590,62	0,410
590,83	0,332
591,03	0,203
591,23	0,432
591,43	0,477
591,63	0,350
591,83	0,395
592,03	0,354
592,24	0,394
592,44	0,324
592,64	0,314
592,84	0,469
593,04	0,242
593,24	0,345
593,44	0,417
593,65	0,408
593,85	0,335
594,05	0,328
594,25	0,415
594,45	0,429
594,65	0,306
594,85	0,241
595,06	0,313
595,26	0,559
595,46	0,243
595,66	0,317
595,86	0,287
596,06	0,350
596,26	0,348
596,46	0,446
596,66	0,323
596,87	0,578
597,07	0,394
597,27	0,323
597,47	0,339
597,67	0,373
597,87	0,210
598,07	0,417
598,27	0,392
598,47	0,459
598,67	0,345
598,88	0,447
599,08	0,343
599,28	0,472
599,48	0,181
599,68	0,250
599,88	0,315
600,08	0,285
600,28	0,439
600,48	0,419
600,68	0,373
600,88	0,482
601,09	0,375
601,29	0,516
601,49	0,297
601,69	0,425
601,89	0,369
602,09	0,445
602,29	0,426
602,49	0,273
602,69	0,293
602,89	0,358
603,09	0,371
603,29	0,406
603,49	0,475
603,69	0,377
603,90	0,222
604,10	0,376
604,30	0,464
604,50	0,490
604,70	0,431
604,90	0,468
605,10	0,468
605,30	0,491
605,50	0,249
605,70	0,487
605,90	0,207
606,10	0,376
606,30	0,386
606,50	0,437
606,70	0,386
606,90	0,205
607,10	0,451
607,30	0,462
607,50	0,371
607,70	0,525
607,90	0,545
608,10	0,519
608,30	0,467
608,50	0,366
608,70	0,553
608,90	0,349
609,11	0,405
609,31	0,486
609,51	0,350
609,71	0,399
609,91	0,167
610,11	0,549
610,31	0,421
610,51	0,497
610,71	0,286
610,91	0,337
611,11	0,352
611,31	0,552
611,51	0,239
611,71	0,333
611,91	0,544
612,11	0,267
612,31	0,478
612,51	0,511
612,71	0,419
612,91	0,309
613,11	0,250
613,31	0,344
613,51	0,267
613,71	0,385
613,91	0,381
614,11	0,503
614,31	0,268
614,50	0,411
614,70	0,354
614,90	0,351
615,10	0,315
615,30	0,433
615,50	0,437
615,70	0,500
615,90	0,356
616,10	0,299
616,30	0,298
616,50	0,251
616,70	0,355
616,90	0,229
617,10	0,597
617,30	0,470
617,50	0,352
617,70	0,383
617,90	0,416
618,10	0,427
618,30	0,317
618,50	0,357
618,70	0,410
618,90	0,322
619,10	0,316
619,30	0,116
619,49	0,581
619,69	0,396
619,89	0,261
620,09	0,349
620,29	0,474
620,49	0,385
620,69	0,331
620,89	0,342
621,09	0,327
621,29	0,363
621,49	0,337
621,69	0,265
621,89	0,415
622,09	0,535
622,29	0,316
622,48	0,431
622,68	0,332
622,88	0,354
623,08	0,430
623,28	0,310
623,48	0,460
623,68	0,293
623,88	0,298
624,08	0,312
624,28	0,495
624,48	0,355
624,67	0,298
624,87	0,341
625,07	0,426
625,27	0,261
625,47	0,366
625,67	0,477
625,87	0,359
626,07	0,435
626,27	0,224
626,47	0,431
626,66	0,274
626,86	0,302
627,06	0,426
627,26	0,405
627,46	0,287
627,66	0,264
627,86	0,408
628,06	0,393
628,25	0,296
628,45	0,412
628,65	0,415
628,85	0,403
629,05	0,493
629,25	0,178
629,45	0,499
629,65	0,238
629,84	0,405
630,04	0,374
630,24	0,320
630,44	0,189
630,64	0,436
630,84	0,318
631,04	0,621
631,23	0,188
631,43	0,331
631,63	0,214
631,83	0,353
632,03	0,441
632,23	0,362
632,42	0,301
632,62	0,454
632,82	0,390
633,02	0,509
633,22	0,212
633,42	0,526
633,62	0,321
633,81	0,097
634,01	0,357
634,21	0,447
634,41	0,428
634,61	0,298
634,80	0,525
635,00	0,405
635,20	0,544
635,40	0,135
635,60	0,333
635,80	0,492
635,99	0,623
636,19	0,196
636,39	0,212
636,59	0,339
636,79	0,669
636,98	0,433
637,18	0,523
637,38	0,579
637,58	0,317
637,78	0,578
637,97	0,462
638,17	0,570
638,37	0,526
638,57	0,224
638,77	0,392
638,96	0,360
639,16	0,462
639,36	0,568
639,56	0,413
639,76	0,247
639,95	0,443
640,15	0,424
640,35	0,340
640,55	0,447
640,75	0,664
640,94	0,139
641,14	0,771
641,34	0,476
641,54	0,378
641,73	0,281
641,93	0,494
642,13	0,516
642,33	0,501
642,53	0,441
642,72	0,604
642,92	0,501
643,12	0,206
643,32	0,712
643,51	0,761
643,71	0,421
643,91	0,339
644,11	0,719
644,30	0,651
644,50	0,544
644,70	0,321
644,90	0,366
645,09	0,787
645,29	0,610
645,49	0,641
645,69	0,553
645,88	0,663
646,08	0,485
646,28	0,803
646,48	0,229
646,67	0,197
646,87	0,768
647,07	0,537
647,26	0,865
647,46	0,423
647,66	0,440
647,86	0,839
648,05	0,683
648,25	1,022
648,45	0,727
648,65	0,420
648,84	0,361
649,04	1,032
649,24	0,647
649,43	0,457
649,63	0,552
649,83	0,485
650,03	0,746
650,22	0,533
650,42	0,595
650,62	0,657
650,81	0,709
651,01	0,575
651,21	0,675
651,40	0,404
651,60	0,381
651,80	0,563
652,00	0,667
652,19	0,615
652,39	0,423
652,59	0,765
652,78	0,476
652,98	0,265
653,18	0,276
653,37	0,593
653,57	0,700
653,77	0,895
653,96	0,551
654,16	0,706
654,36	0,805
654,55	0,607
654,75	0,707
654,95	0,664
655,14	0,354
655,34	0,931
655,54	0,757
655,73	0,521
655,93	0,401
656,13	0,721
656,32	0,299
656,52	0,371
656,72	0,843
656,91	0,750
657,11	0,379
657,31	0,357
657,50	0,595
657,70	0,703
657,90	0,799
658,09	0,903
658,29	0,709
658,49	0,611
658,68	0,313
658,88	0,916
659,07	0,532
659,27	0,131
659,47	0,331
659,66	0,477
659,86	0,664
660,06	0,199
660,25	0,504
660,45	0,208
660,64	0,448
660,84	0,514
661,04	0,761
661,23	0,876
661,43	0,465
661,63	0,439
661,82	0,425
662,02	0,730
662,21	0,750
662,41	0,901
662,61	0,999
662,80	0,439
663,00	0,364
663,19	0,760
663,39	0,035
663,59	0,749
663,78	0,799
663,98	0,752
664,17	0,716
664,37	0,698
664,57	0,343
664,76	0,875
664,96	0,298
665,15	0,400
665,35	0,627
665,55	0,239
665,74	0,295
665,94	0,447
666,13	0,241
666,33	0,473
666,53	0,810
666,72	0,472
666,92	0,437
667,11	0,549
667,31	0,066
667,50	0,372
667,70	0,863
667,90	0,229
668,09	0,410
668,29	0,564
668,48	0,366
668,68	0,374
668,87	0,685
669,07	0,320
669,26	0,505
669,46	0,689
669,66	0,459
669,85	0,765
670,05	0,631
670,24	0,432
670,44	0,252
670,63	0,327
670,83	0,312
671,02	0,305
671,22	0,798
671,42	0,263
671,61	0,652
671,81	0,469
672,00	0,568
672,20	0,441
672,39	0,623
672,59	0,218
672,78	0,211
672,98	0,151
673,17	0,230
673,37	0,045
673,56	0,421
673,76	0,087
673,95	0,401
674,15	0,491
674,34	0,579
674,54	0,642
674,73	0,256
674,93	0,291
675,13	0,425
675,32	0,350
675,52	0,504
675,71	0,515
675,91	0,415
676,10	0,384
676,30	0,329
676,49	0,217
676,69	0,254
676,88	0,389
677,08	0,085
677,27	0,372
677,47	0,332
677,66	0,414
677,86	0,378
678,05	0,262
678,24	0,388
678,44	0,617
678,63	0,218
678,83	0,087
679,02	0,436
679,22	0,241
679,41	0,559
679,61	0,206
679,80	0,349
680,00	0,059
680,19	0,298
680,39	0,041
680,58	0,337
680,78	0,276
680,97	0,461
681,17	0,374
681,36	0,107
681,56	0,168
681,75	0,291
681,94	0,154
682,14	0,318
682,33	0,358
682,53	0,211
682,72	0,301
682,92	0,539
683,11	0,184
683,31	0,304
683,50	0,010
683,69	0,211
683,89	0,314
684,08	0,258
684,28	0,224
684,47	0,181
684,67	0,297
684,86	0,420
685,06	0,252
685,25	0,270
685,44	0,237
685,64	0,166
685,83	0,389
686,03	0,070
686,22	0,307
686,42	0,277
686,61	0,236
686,80	0,018
687,00	0,217
687,19	0,266
687,39	0,289
687,58	0,212
687,77	0,239
687,97	0,243
688,16	0,183
688,36	0,200
688,55	0,095
688,74	0,119
688,94	0,312
689,13	0,147
689,33	0,096
689,52	0,288
689,71	0,252
689,91	0,146
690,10	0,265
690,30	0,084
690,49	0,119
690,68	0,337
690,88	0,147
691,07	0,186
691,27	0,141
691,46	0,083
691,65	0,190
691,85	0,192
692,04	0,091
692,23	0,008
692,43	0,333
692,62	0,315
692,82	0,108
693,01	0,199
693,20	0,177
693,40	0,212
693,59	0,162
693,78	0,308
693,98	0,008
694,17	0,121
694,36	0,386
694,56	0,219
694,75	0,098
694,94	0,312
695,14	0,070
695,33	0,207
695,53	0,226
695,72	0,325
695,91	0,046
696,11	0,184
696,30	0,235
696,49	0,303
696,69	0,142
696,88	0,015
697,07	0,327
697,27	0,186
697,46	0,319
697,65	0,284
697,85	-0,018
698,04	0,425
698,23	0,176
698,43	0,449
698,62	0,148
698,81	0,375
699,01	0,294
699,20	0,267
699,39	0,389
699,58	0,128
699,78	0,130
699,97	0,236
700,16	0,048
700,36	0,434
700,55	0,397
700,74	0,289
700,94	0,521
701,13	0,654
701,32	0,155
701,52	0,409
701,71	0,491
701,90	0,512
702,09	0,640
702,29	0,874
702,48	0,330
702,67	0,571
702,87	0,764
703,06	0,639
703,25	1,324
703,44	0,188
703,64	0,650
703,83	0,917
704,02	0,404
704,22	0,753
704,41	0,232
704,60	0,966
704,79	0,946
704,99	1,589
705,18	1,067
705,37	0,776
705,56	1,484
705,76	0,795
705,95	1,739
706,14	1,645
706,33	0,552
706,53	0,973
706,72	0,377
706,91	1,177
707,11	0,860
707,30	0,606
707,49	2,213
707,68	1,387
707,88	0,267
708,07	0,829
708,26	0,920
708,45	0,493
708,64	0,935
708,84	0,647
709,03	2,433
709,22	1,226
709,41	1,761
709,61	0,841
709,80	1,839
709,99	0,962
710,18	3,053
710,38	0,975
710,57	0,699
710,76	-0,229
710,95	1,285
711,14	2,085
711,34	2,099
711,53	3,185
711,72	2,141
711,91	3,063
712,11	2,924
712,30	0,654
712,49	0,536
712,68	0,554
712,87	0,449
713,07	2,168
713,26	1,666
713,45	1,290
713,64	2,313
713,83	1,143
714,03	1,522
714,22	3,303
714,41	2,002
714,60	3,132
714,79	1,920
714,99	2,463
715,18	4,734
715,37	3,822
715,56	2,047
715,75	2,651
715,94	4,085
716,14	6,266
716,33	2,497
716,52	2,725
716,71	2,338
716,90	2,442
717,10	2,561
717,29	2,364
717,48	0,890
717,67	5,076
717,86	3,864
718,05	4,274
718,24	4,221
718,44	1,558
718,63	0,243
718,82	0,937
719,01	1,743
719,20	2,667
719,39	7,712
719,59	2,409
719,78	1,603
719,97	3,079
720,16	3,965
720,35	2,684
720,54	0,769
720,73	5,666
720,93	-1,302
721,12	-0,575
721,31	0,364
721,50	5,164
721,69	5,874
721,88	8,525
722,07	2,851
722,27	1,171
722,46	3,898
722,65	2,621
722,84	3,387
723,03	6,091
723,22	4,190
723,41	1,495
723,60	3,516
723,79	7,921
723,99	5,868
724,18	6,002
724,37	-3,088
724,56	6,133
724,75	2,609
724,94	8,361
725,13	6,266
725,32	5,851
725,51	1,488
725,71	6,300
725,90	3,592
726,09	3,653
726,28	3,622
726,47	-1,775
726,66	2,437
726,85	6,635
727,04	5,403
727,23	8,023
727,42	5,046
727,61	2,366
727,81	-1,297
728,00	3,326
728,19	7,151
728,38	2,948
728,57	2,500
728,76	6,974
728,95	8,750
729,14	3,571
729,33	3,871
729,52	3,712
729,71	1,844
729,90	6,374
730,09	7,260
730,28	5,857
730,48	2,257
730,67	4,576
730,86	9,220
731,05	0,000
731,24	2,805
731,43	5,923
731,62	6,987
731,81	3,292
732,00	9,940
732,19	3,245
732,38	2,692
732,57	7,090
732,76	5,472
732,95	1,931
733,14	1,291
733,33	-1,323
733,52	8,146
733,71	5,739
733,90	2,684
734,09	4,730
734,28	3,150
734,47	8,194
734,66	6,684
734,85	5,000
735,04	8,274
735,23	6,723
735,42	6,421
735,61	4,956
735,81	4,882
736,00	4,274
736,19	0,000
736,38	8,982
736,57	14,678
736,76	7,445
736,95	7,006
737,14	9,410
737,33	8,345
737,52	5,077
737,71	2,131
737,90	7,883
738,09	5,936
738,28	7,324
738,47	7,482
738,66	7,853
738,85	11,712
739,04	5,146
739,22	5,184
739,41	3,309
739,60	0,000
739,79	1,619
739,98	4,659
740,17	9,386
740,36	6,329
740,55	7,006
740,74	14,237
740,93	13,002
741,12	8,571
741,31	11,444
741,50	-3,781
741,69	16,814
741,88	2,174
742,07	13,406
742,26	14,857
742,45	11,885
742,64	8,592
742,83	17,876
743,02	6,316
743,21	10,469
743,40	-1,656
743,59	9,926
743,78	13,503
743,97	11,923
744,16	6,496
744,34	2,797
744,53	0,619
744,72	12,317
744,91	1,681
745,10	12,159
745,29	11,492
745,48	10,682
745,67	9,112
745,86	18,764
746,05	5,450
746,24	8,247
746,43	10,493
746,62	14,440
746,81	16,404
747,00	6,346
747,18	16,776
747,37	10,947
747,56	17,647
747,75	7,635
747,94	16,019
748,13	18,568
748,32	10,476
748,51	15,990
748,70	15,859
748,89	8,665
749,08	6,395
749,26	16,520
749,45	7,507
749,64	13,602
749,83	14,607
750,02	16,033
750,21	10,941
750,40	14,372
750,59	5,898
750,78	15,711
750,96	8,840
751,15	18,692
751,34	13,636
751,53	-1,366
751,72	8,169
751,91	20,984
752,10	4,450
752,29	8,533
752,47	-1,719
752,66	21,587
752,85	13,388
753,04	6,983
753,23	9,598
753,42	19,946
753,61	12,853
753,80	9,278
753,98	22,222
754,17	15,198
754,36	10,968
754,55	13,554
754,74	4,870
754,93	25,069
755,12	12,166
755,30	10,714
755,49	8,721
755,68	19,018
755,87	21,893
756,06	4,514
756,25	20,669
756,43	1,007
756,62	23,913
756,81	10,265
757,00	9,539
757,19	10,417
757,38	17,375
757,56	12,000
757,75	12,628
757,94	8,745
758,13	12,671
758,32	18,991
758,51	23,569
758,69	-2,703
758,88	11,111
759,07	17,964
759,26	12,367
759,45	4,912
759,63	10,823
759,82	12,281
760,01	7,692
760,20	29,874
760,39	18,297
760,57	10,801
760,76	10,105
760,95	14,236
761,14	25,182
761,33	27,419
761,51	20,000
761,70	17,472
761,89	13,778
762,08	30,855
762,27	9,747
762,45	17,754
762,64	19,095
762,83	28,685
763,02	15,217
763,21	0,500
763,39	24,825
763,58	22,305
763,77	21,941
763,96	29,084
764,14	23,750
764,33	12,381
764,52	18,750
764,71	16,066
764,89	16,518
765,08	4,926
765,27	21,277
765,46	24,664
765,65	10,980
765,83	28,959
766,02	-5,238
766,21	11,475
766,40	22,568
766,58	15,344
766,77	28,440
766,96	19,512
767,15	28,151
767,33	30,435
767,52	20,524
767,71	7,018
767,90	18,090
768,08	11,377
768,27	25,203
768,46	34,211
768,64	20,833
768,83	38,725
769,02	-7,389
769,21	12,500
769,39	14,286
769,58	37,662
769,77	31,383
769,96	16,216
770,14	40,984
770,33	35,514
770,52	46,763
770,70	20,000
770,89	40,541
771,08	1,807
771,27	17,368
771,45	29,412
771,64	39,394
771,83	21,078
772,01	35,052
772,20	30,846
772,39	5,696
772,57	13,930
772,76	25,676
772,95	14,368
773,14	31,293
773,32	33,333
773,51	40,476
773,70	46,043
773,88	23,226
774,07	32,995
774,26	8,065
774,44	36,090
774,63	44,910
774,82	29,221
775,00	21,963
775,19	21,429
775,38	40,426
775,56	41,615
775,75	23,626
775,94	7,500
776,12	28,105
776,31	24,812
776,50	9,589
776,68	30,645
776,87	43,062
777,06	40,252
777,24	57,143
777,43	21,390
777,62	47,191
777,80	46,541
777,99	41,667
778,18	28,736
778,36	48,305
778,55	-4,237
778,74	67,188
778,92	15,432
779,11	67,273
779,29	-19,858
779,48	31,206
779,67	37,838
779,85	36,842
780,04	44,928
780,23	39,881
780,41	50,847
780,60	29,530
780,79	44,355
780,97	10,458
781,16	30,319
781,34	38,514
781,53	65,179
781,72	38,739
781,90	35,329
782,09	73,256
782,28	47,619
782,46	38,571
782,65	44,366
782,83	25,157
783,02	87,719
783,21	35,338
783,39	57,983
783,58	57,391
783,76	32,653
783,95	44,366
784,14	90,789
784,32	-4,706
784,51	77,027
784,69	19,531
784,88	37,383
785,06	35,762
785,25	18,440
785,44	1,613
785,62	29,286
785,81	6,481
785,99	40,602
786,18	58,559
786,37	58,242
786,55	29,861
786,74	30,909
786,92	46,853
787,11	32,639
787,29	16,071
787,48	50,538
787,67	20,755
787,85	73,418
788,04	17,117
788,22	38,614
788,41	38,583
788,59	51,974
788,78	76,923
788,96	61,983
789,15	35,833
789,34	45,192
789,52	88,710
789,71	51,079
789,89	48,052
790,08	51,250
790,26	40,764
790,45	27,778
790,63	28,736
790,82	36,923
791,00	63,717
791,19	49,600
791,38	19,048
791,56	60,909
791,75	45,833
791,93	64,000
792,12	50,435
792,30	13,869
792,49	30,303
792,67	30,882
792,86	59,200
793,04	67,593
793,23	75,789
793,41	52,899
793,60	49,306
793,78	49,524
793,97	52,083
794,15	93,233
794,34	64,000
794,52	55,914
794,71	58,915
794,89	53,030
795,08	56,000
795,26	64,000
795,45	41,667
795,63	45,161
795,82	39,560
796,00	58,000
796,19	52,846
796,37	48,855
796,56	7,767
796,74	13,684
796,93	92,424
797,11	63,855
797,30	33,889
797,48	48,438
797,67	34,959
797,85	62,308
798,04	33,898
798,22	75,641
798,41	30,769
798,59	57,143
798,77	49,398
798,96	35,802
799,14	58,871
799,33	13,761
799,51	48,611
799,70	71,538
799,88	82,569
800,07	41,221
800,25	-3,614
800,44	111,111
800,62	100,000
800,80	59,859
800,99	123,288
801,17	75,862
801,36	53,571
801,54	75,000
801,73	51,579
801,91	38,843
802,10	41,176
802,28	23,200
802,46	-6,579
802,65	43,885
802,83	94,667
803,02	40,323
803,20	95,181
803,39	71,264
803,57	42,520
803,75	39,024
803,94	29,365
804,12	61,379
804,31	24,638
804,49	15,200
804,67	22,059
804,86	50,442
805,04	27,711
805,23	49,558
805,41	47,500
805,59	71,233
805,78	80,000
805,96	50,602
806,15	54,455
806,33	77,632
806,51	101,333
806,70	42,857
806,88	40,698
807,07	72,072
807,25	62,637
807,43	53,571
807,62	19,469
807,80	42,857
807,99	54,615
808,17	11,811
808,35	54,000
808,54	39,855
808,72	44,144
808,90	37,671
809,09	55,435
809,27	62,667
809,46	70,330
809,64	76,829
809,82	43,046
810,01	43,750
810,19	23,232
810,37	31,250
810,56	90,000
810,74	53,247
810,92	20,667
811,11	-1,754
811,29	81,132
811,48	26,923
811,66	4,494
811,84	15,385
812,03	31,967
812,21	39,474
812,39	34,783
812,58	100,000
812,76	69,784
812,94	36,145
813,13	46,809
813,31	64,000
813,49	41,667
813,68	0,000
813,86	38,202
814,04	28,099
814,23	63,253
814,41	16,854
814,59	66,019
814,78	46,324
814,96	23,270
815,14	40,187
815,33	41,085
815,51	51,181
815,69	41,905
815,87	46,535
816,06	22,609
816,24	57,143
816,42	59,559
816,61	37,107
816,79	59,483
816,97	60,227
817,16	36,686
817,34	76,984
817,52	39,669
817,70	68,317
817,89	21,481
818,07	35,616
818,25	16,327
818,44	51,282
818,62	81,395
818,80	19,549
818,98	63,057
819,17	65,546
819,35	42,021
819,53	37,313
819,72	43,671
819,90	37,209
820,08	57,265
820,26	57,759
820,45	38,255
820,63	86,607
820,81	76,800
820,99	58,865
821,18	40,816
821,36	45,570
821,54	42,759
821,73	9,444
821,91	41,228
822,09	26,613
822,27	58,065
822,46	14,706
822,64	19,200
822,82	31,492
823,00	13,260
823,19	43,407
823,37	63,030
823,55	26,136
823,73	23,448
823,91	47,101
824,10	30,108
824,28	49,246
824,46	-6,796
824,64	59,211
824,83	37,267
825,01	21,333
825,19	33,065
825,37	26,087
825,56	51,887
825,74	26,531
825,92	37,580
826,10	75,568
826,28	34,524
826,47	44,737
826,65	84,397
826,83	2,586
827,01	39,884
827,19	35,119
827,38	34,568
827,56	27,273
827,74	17,877
827,92	29,651
828,10	37,179
828,29	43,787
828,47	42,683
828,65	44,615
828,83	33,939
829,01	34,783
829,20	40,659
829,38	30,682
829,56	49,457
829,74	10,692
829,92	30,159
830,10	26,437
830,29	15,578
830,47	32,663
830,65	8,537
830,83	36,161
831,01	36,310
831,20	47,087
831,38	15,311
831,56	36,744
831,74	51,659
831,92	39,474
832,10	28,571
832,29	56,081
832,47	-2,809
832,65	22,549
832,83	30,047
833,01	21,500
833,19	4,525
833,37	22,624
833,56	27,848
833,74	20,588
833,92	29,167
834,10	19,087
834,28	30,380
834,46	16,290
834,64	37,500
834,83	25,909
835,01	32,780
835,19	5,600
835,37	24,793
835,55	7,813
835,73	23,645
835,91	33,210
836,09	14,829
836,28	24,723
836,46	13,200
836,64	35,338
836,82	21,719
837,00	41,304
837,18	22,677
837,36	25,498
837,54	19,545
837,72	21,983
837,91	10,448
838,09	25,100
838,27	27,333
838,45	13,830
838,63	16,176
838,81	18,143
838,99	25,000
839,17	13,851
839,35	35,106
839,53	16,491
839,72	11,278
839,90	15,464
840,08	30,769
840,26	21,032
840,44	29,305
840,62	19,655
840,80	28,231
840,98	3,529
841,16	1,141
841,34	10,368
841,52	20,183
841,70	14,154
841,89	8,871
842,07	26,019
842,25	26,149
842,43	17,672
842,61	39,649
842,79	20,339
842,97	12,052
843,15	24,092
843,33	19,243
843,51	20,482
843,69	23,362
843,87	13,806
844,05	11,550
844,23	27,027
844,41	6,897
844,59	18,444
844,77	14,846
844,95	21,098
845,13	13,231
845,31	10,756
845,50	24,346
845,68	21,222
845,86	16,667
846,04	25,140
846,22	13,896
846,40	12,903
846,58	16,524
846,76	21,774
846,94	20,948
847,12	14,508
847,30	15,722
847,48	8,978
847,66	21,675
847,84	9,016
848,02	17,874
848,20	16,279
848,38	22,792
848,56	22,443
848,74	22,196
848,92	8,229
849,10	6,500
849,28	8,097
849,46	17,333
849,64	18,707
849,82	10,494
850,00	18,458
850,18	20,213
850,36	14,790
850,54	10,526
850,72	9,769
850,90	17,826
851,08	10,503
851,26	7,440
851,44	3,319
851,62	15,349
851,80	15,859
851,98	10,989
852,16	23,404
852,34	16,082
852,52	14,955
852,70	-0,228
852,87	11,187
853,05	7,018
853,23	8,041
853,41	19,955
853,59	11,826
853,77	15,675
853,95	21,097
854,13	14,381
854,31	14,784
854,49	5,589
854,67	6,911
854,85	13,665
855,03	14,028
855,21	12,842
855,39	5,030
855,57	5,018
855,75	13,504
855,93	5,294
856,11	14,700
856,28	10,701
856,46	9,786
856,64	15,810
856,82	6,357
857,00	12,170
857,18	14,079
857,36	11,130
857,54	16,263
857,72	7,193
857,90	8,672
858,08	10,000
858,26	2,899
858,44	3,704
858,61	10,627
858,79	9,689
858,97	12,212
859,15	8,978
859,33	15,937
859,51	4,188
859,69	2,683
859,87	13,015
860,05	-0,355
860,23	10,877
860,40	4,626
860,58	8,033
860,76	8,254
860,94	11,870
861,12	9,077
861,30	4,239
861,48	8,286
861,66	5,397
861,84	7,175
862,01	10,604
862,19	8,305
862,37	8,321
862,55	8,213
862,73	5,882
862,91	5,286
863,09	8,929
863,27	8,046
863,44	3,808
863,62	10,598
863,80	3,657
863,98	-0,297
864,16	5,780
864,34	4,102
864,52	8,579
864,69	8,626
864,87	3,039
865,05	6,667
865,23	5,229
865,41	5,376
865,59	4,441
865,76	9,961
865,94	8,010
866,12	13,290
866,30	1,964
866,48	15,912
866,66	2,688
866,83	6,997
867,01	3,836
867,19	11,443
867,37	5,821
867,55	2,748
867,73	11,779
867,90	4,551
868,08	9,915
868,26	5,025
868,44	5,393
868,62	7,740
868,79	9,393
868,97	6,549
869,15	0,580
869,33	3,053
869,51	7,433
869,69	7,561
869,86	3,275
870,04	8,506
870,22	10,011
870,40	5,731
870,57	5,998
870,75	7,293
870,93	4,000
871,11	6,818
871,29	6,963
871,46	10,265
871,64	10,774
871,82	7,643
872,00	10,700
872,18	3,376
872,35	8,949
872,53	4,167
872,71	6,735
872,89	6,794
873,06	8,515
873,24	9,602
873,42	4,167
873,60	5,058
873,77	1,840
873,95	3,309
874,13	2,326
874,31	7,018
874,49	6,583
874,66	4,793
874,84	6,921
875,02	8,983
875,20	5,517
875,37	6,958
875,55	3,435
875,73	2,797
875,91	6,784
876,08	1,005
876,26	4,417
876,44	0,087
876,61	7,172
876,79	5,862
876,97	0,821
877,15	2,907
877,32	3,495
877,50	6,457
877,68	4,199
877,86	0,340
878,03	6,700
878,21	3,800
878,39	7,538
878,56	1,901
878,74	3,211
878,92	2,260
879,10	1,307
879,27	5,551
879,45	2,318
879,63	2,717
879,80	4,117
879,98	2,257
880,16	5,313
880,34	7,369
880,51	2,208
880,69	3,274
880,87	4,603
881,04	3,039
881,22	7,250
881,40	4,059
881,57	1,404
881,75	4,848
881,93	4,374
882,10	2,319
882,28	4,966
882,46	4,658
882,63	3,380
882,81	7,914
882,99	5,737
883,16	4,796
883,34	3,743
883,52	0,939
883,69	6,147
883,87	1,693
884,05	5,238
884,22	1,305
884,40	4,205
884,58	-0,258
884,75	3,365
884,93	2,068
885,11	5,882
885,28	2,246
885,46	-0,615
885,64	2,075
885,81	4,299
885,99	2,788
886,17	1,281
886,34	0,725
886,52	2,098
886,70	5,052
886,87	2,501
887,05	3,030
887,22	5,313
887,40	4,945
887,58	2,940
887,75	3,704
887,93	2,475
888,11	5,230
888,28	2,335
888,46	5,274
888,63	3,994
888,81	2,397
888,99	4,040
889,16	4,308
889,34	1,541
889,51	2,701
889,69	2,369
889,87	4,622
890,04	2,759
890,22	2,925
890,39	1,141
890,57	3,524
890,75	1,870
890,92	0,955
891,10	2,298
891,27	2,270
891,45	3,728
891,63	3,461
891,80	5,053
891,98	2,943
892,15	3,756
892,33	2,353
892,51	3,382
892,68	3,578
892,86	-0,091
893,03	3,707
893,21	3,353
893,38	0,681
893,56	2,249
893,74	2,880
893,91	2,616
894,09	3,415
894,26	2,821
894,44	1,384
894,61	3,488
894,79	1,868
894,96	2,304
895,14	3,220
895,32	3,245
895,49	3,110
895,67	2,449
895,84	2,031
896,02	1,976
896,19	1,985
896,37	2,079
896,54	2,722
896,72	0,041
896,89	1,739
897,07	3,520
897,25	2,852
897,42	2,227
897,60	4,045
897,77	4,425
897,95	2,657
898,12	3,279
898,30	1,262
898,47	1,980
898,65	0,196
898,82	0,699
899,00	2,635
899,17	3,073
899,35	0,512
899,52	4,444
899,70	2,938
899,87	0,611
900,05	1,104
900,22	2,400
900,40	1,437
900,57	2,709
900,75	0,000
900,92	1,965
901,10	0,484
901,27	2,110
901,45	3,249
901,62	3,597
901,80	1,269
901,97	2,770
902,15	1,372
902,32	3,737
902,50	0,897
902,67	3,693
902,85	1,889
903,02	2,960
903,20	2,462
903,37	2,100
903,54	1,796
903,72	1,864
903,89	2,317
904,07	1,711
904,24	2,761
904,42	2,993
904,59	0,357
904,77	2,335
904,94	0,788
905,12	1,630
905,29	1,475
905,47	2,579
905,64	1,465
905,81	1,009
905,99	0,420
906,16	0,555
906,34	1,232
906,51	2,936
906,69	1,553
906,86	1,843
907,03	1,312
907,21	1,926
907,38	2,825
907,56	1,939
907,73	2,675
907,91	1,643
908,08	2,842
908,25	3,583
908,43	0,638
908,60	0,129
908,78	1,738
908,95	3,100
909,13	4,928
909,30	3,426
909,47	1,697
909,65	3,510
909,82	1,936
910,00	1,610
910,17	1,502
910,34	2,741
910,52	2,180
910,69	0,915
910,87	2,130
911,04	1,847
911,21	2,544
911,39	1,125
911,56	2,864
911,73	1,562
911,91	1,056
912,08	1,965
912,26	1,631
912,43	3,699
912,60	1,344
912,78	2,496
912,95	1,170
913,13	1,790
913,30	2,106
913,47	2,606
913,65	3,672
913,82	1,988
913,99	0,786
914,17	2,125
914,34	1,866
914,51	3,372
914,69	2,496
914,86	3,338
915,03	2,160
915,21	1,406
915,38	2,313
915,56	2,445
915,73	1,734
915,90	1,505
916,08	3,055
916,25	1,366
916,42	1,522
916,60	2,724
916,77	1,710
916,94	1,752
917,12	2,534
917,29	2,812
917,46	2,416
917,64	1,752
917,81	1,314
917,98	1,092
918,16	1,927
918,33	3,098
918,50	2,179
918,67	1,862
918,85	2,011
919,02	1,347
919,19	1,512
919,37	2,043
919,54	1,474
919,71	2,072
919,89	1,563
920,06	1,844
920,23	1,714
920,41	2,469
920,58	2,028
920,75	3,283
920,92	2,536
921,10	0,924
921,27	1,400
921,44	1,846
921,62	1,372
921,79	1,613
921,96	1,374
922,13	2,553
922,31	0,729
922,48	1,546
922,65	1,556
922,82	0,641
923,00	1,642
923,17	0,709
923,34	0,833
923,52	0,491
923,69	2,203
923,86	2,092
924,03	1,816
924,21	1,819
924,38	2,537
924,55	1,613
924,72	0,732
924,90	1,118
925,07	1,347
925,24	0,707
925,41	1,529
925,59	0,731
925,76	0,924
925,93	2,521
926,10	1,588
926,28	0,545
926,45	0,431
926,62	1,781
926,79	0,888
926,96	2,120
927,14	1,673
927,31	1,192
927,48	0,932
927,65	1,773
927,83	2,162
928,00	1,572
928,17	0,978
928,34	0,781
928,51	0,373
928,69	1,026
928,86	0,590
929,03	0,703
929,20	0,710
929,37	0,915
929,55	1,125
929,72	0,719
929,89	0,921
930,06	0,647
930,23	0,952
930,41	0,479
930,58	1,662
930,75	0,643
930,92	0,996
931,09	1,147
931,27	0,413
931,44	0,839
931,61	1,775
931,78	1,238
931,95	0,327
932,12	1,864
932,30	1,444
932,47	-0,165
932,64	1,259
932,81	1,075
932,98	1,365
933,16	0,544
933,33	1,033
933,50	1,425
933,67	1,495
933,84	2,365
934,01	0,725
934,18	1,627
934,36	0,932
934,53	1,911
934,70	0,362
934,87	0,627
935,04	0,997
935,21	0,631
935,38	0,260
935,56	1,918
935,73	0,818
935,90	1,289
936,07	1,492
936,24	1,371
936,41	1,203
936,58	0,079
936,76	1,336
936,93	1,103
937,10	1,017
937,27	1,074
937,44	0,817
937,61	1,226
937,78	0,646
937,95	1,882
938,13	0,505
938,30	1,030
938,47	1,184
938,64	1,280
938,81	1,193
938,98	0,917
939,15	1,568
939,32	1,122
939,49	0,438
939,66	1,292
939,84	0,687
940,01	0,304
940,18	1,538
940,35	0,986
940,52	1,068
940,69	-0,162
940,86	1,563
941,03	0,309
941,20	0,729
941,37	0,356
941,54	2,198
941,71	2,092
941,89	0,998
942,06	0,356
942,23	1,506
942,40	1,431
942,57	1,009
942,74	1,467
942,91	1,738
943,08	1,794
943,25	2,486
943,42	1,066
943,59	0,781
943,76	1,013
943,93	0,852
944,10	0,428
944,27	0,504
944,44	1,175
944,61	0,989
944,79	1,738
944,96	2,313
945,13	0,820
945,30	1,520
945,47	2,244
945,64	0,558
945,81	0,707
945,98	1,315
946,15	1,793
946,32	2,743
946,49	1,742
946,66	1,657
946,83	0,702
947,00	2,449
947,17	1,087
947,34	2,512
947,51	1,863
947,68	1,152
947,85	1,543
948,02	3,124
948,19	2,087
948,36	2,880
948,53	1,135
948,70	2,929
948,87	3,026
949,04	3,729
949,21	2,748
949,38	3,432
949,55	4,662
949,72	2,441
949,89	4,401
950,06	4,154
950,23	3,162
950,40	4,273
950,57	4,532
950,74	6,012
950,91	4,769
951,08	5,742
951,25	4,767
951,42	7,724
951,59	5,661
951,76	6,805
951,93	7,972
952,10	8,343
952,27	8,492
952,44	11,106
952,61	10,799
952,77	12,833
952,94	12,649
953,11	12,640
953,28	14,442
953,45	16,123
953,62	16,339
953,79	18,074
953,96	17,278
954,13	18,520
954,30	22,746
954,47	19,344
954,64	19,783
954,81	22,116
954,98	21,798
955,15	18,138
955,32	21,474
955,49	24,005
955,65	23,131
955,82	25,615
955,99	26,173
956,16	29,710
956,33	23,232
956,50	25,074
956,67	26,362
956,84	30,106
957,01	24,776
957,18	28,973
957,35	27,723
957,52	28,690
957,68	31,436
957,85	30,324
958,02	29,763
958,19	29,991
958,36	31,716
958,53	28,140
958,70	29,581
958,87	28,743
959,04	31,595
959,21	37,063
959,37	37,030
959,54	30,785
959,71	41,621
959,88	28,837
960,05	40,279
960,22	36,855
960,39	33,794
960,56	32,864
960,72	35,457
960,89	39,060
961,06	36,011
961,23	39,450
961,40	39,794
961,57	36,901
961,74	39,478
961,90	42,525
962,07	40,359
962,24	39,165
962,41	45,172
962,58	39,632
962,75	41,709
962,92	39,123
963,08	41,667
963,25	29,283
963,42	45,984
963,59	36,550
963,76	42,346
963,93	47,862
964,10	38,462
964,26	45,000
964,43	46,744
964,60	39,211
964,77	38,031
964,94	41,728
965,10	38,162
965,27	45,251
965,44	49,841
965,61	48,630
965,78	36,957
965,95	50,000
966,11	38,485
966,28	32,402
966,45	43,137
966,62	39,721
966,79	27,986
966,95	41,637
967,12	44,127
967,29	43,519
967,46	49,822
967,63	60,000
967,79	58,389
967,96	46,789
968,13	51,905
968,30	71,193
968,47	52,692
968,63	51,961
968,80	48,659
968,97	54,335
969,14	70,621
969,31	33,673
969,47	50,543
969,64	40,110
969,81	23,226
969,98	50,000
970,14	38,172
970,31	54,088
970,48	48,322
970,65	76,033
970,81	36,364
970,98	66,146
971,15	65,455
971,32	56,818
971,48	89,881
971,65	56,954
971,82	84,545
971,99	59,494
972,15	10,465
972,32	76,389
972,49	55,738
972,66	55,372
972,82	77,397
972,99	78,750
973,16	84,768
973,33	45,926
973,49	68,293
973,66	43,810
973,83	106,173
974,00	53,165
974,16	72,727
974,33	142,667
974,50	69,697
974,67	67,857
974,83	109,184
975,00	116,364
975,17	104,839
975,33	73,563
975,50	86,885
975,67	126,923
975,84	79,268
976,00	86,842
976,17	26,087
976,34	96,471
976,50	51,648
976,67	117,857
976,84	112,500
977,00	70,513
977,17	106,667
977,34	184,615
977,50	98,810
977,67	102,353
977,84	100,000
978,01	71,622
978,17	115,517
978,34	140,741
978,51	148,000
978,67	122,449
978,84	169,091
979,01	100,000
979,17	98,571
979,34	143,478
979,51	138,636
979,67	133,333
979,84	145,763
980,01	111,538
980,17	108,824
980,34	90,411
980,51	177,778
980,67	111,111
980,84	30,000
981,01	217,647
981,17	91,176
981,34	95,714
981,50	94,737
981,67	209,524
981,84	157,143
982,00	7400,000
982,17	132,813
982,34	134,146
982,50	0,000
982,67	-600,000
982,84	495,000
983,00	129,630
983,17	-242,857
983,33	-166,667
983,50	112,195
983,67	97,101
983,83	371,429
984,00	313,043
984,17	755,556
984,33	-307,143
984,50	181,081
984,66	431,250
984,83	312,500
985,00	307,692
985,16	100,000
985,33	4100,000
985,49	104,651
985,66	115,000
985,83	-1200,000
985,99	266,667
986,16	221,053
986,32	47,945
986,49	-860,000
986,66	560,000
986,82	169,697
986,99	-180,000
987,15	196,970
987,32	258,824
987,49	242,857
987,65	-152,174
987,82	-235,000
987,98	166,667
988,15	471,429
988,31	77,143
988,48	160,784
988,65	150,000
988,81	90,909
988,98	294,595
989,14	620,000
989,31	130,508
989,47	10,714
989,64	311,111
989,80	89,362
989,97	181,818
990,14	514,286
990,30	-500,000
990,47	-58,333
990,63	160,526
990,80	516,667
990,96	816,667
991,13	180,000
991,29	121,569
991,46	120,833
991,62	0,000
991,79	-300,000
991,95	247,059
992,12	1016,667
992,29	-314,286
992,45	176,190
992,62	-64,286
992,78	-916,667
992,95	270,968
993,11	462,500
993,28	-2600,000
993,44	-217,241
993,61	105,263
993,77	0,000
993,94	171,795
994,10	1271,429
994,27	-65,789
994,43	187,500
994,60	607,143
994,76	263,636
994,93	-720,000
995,09	-325,000
995,26	433,333
995,42	587,500
995,59	133,333
995,75	-341,667
995,92	-757,143
996,08	-1900,000
996,25	121,212
996,41	1000,000
996,58	352,000
996,74	-550,000
996,91	129,032
997,07	312,000
997,23	96,078
997,40	1516,667
997,56	-900,000
997,73	252,174
997,89	440,000
998,06	178,947
998,22	270,213
998,39	187,755
998,55	531,579
998,72	-5800,000
998,88	132,000
999,05	513,333
999,21	388,235
999,37	239,535
999,54	267,742
999,70	61,905
999,87	800,000
1000,03	290,000
1000,20	378,571
1000,36	-787,500
1000,52	1450,000
1000,69	400,000
1000,85	-391,667
1001,02	347,619
1001,18	500,000
1001,35	0,000
1001,51	514,286
1001,67	195,000
1001,84	143,902
1002,00	-536,364
1002,17	275,000
1002,33	-537,500
1002,50	375,000
1002,66	800,000
1002,82	224,390
1002,99	-250,000
1003,15	-5200,000
1003,32	-35,714
1003,48	-966,667
1003,64	182,609
1003,81	-136,842
1003,97	110,145
1004,14	-143,636
1004,30	363,636
1004,46	-4600,000
1004,63	-246,154
1004,79	81,081
1004,95	-380,000
1005,12	-38,462
1005,28	236,111
1005,45	-1500,000
1005,61	592,308
1005,77	-442,857
1005,94	213,043
1006,10	-380,000
1006,26	-177,778
1006,43	254,545
1006,59	329,032
1006,76	-260,000
1006,92	386,957
1007,08	180,303
1007,25	116,667
1007,41	204,545
1007,57	-323,529
1007,74	160,870
1007,90	-292,857
1008,06	-466,667
1008,23	-410,526
1008,39	291,667
1008,55	114,118
1008,72	-725,000
1008,88	-102,857
1009,04	-655,556
1009,21	275,000
1009,37	387,097
1009,53	-435,000
1009,70	-33,333
1009,86	321,053
1010,02	202,273
1010,19	840,000
1010,35	11600,000
1010,51	211,429
1010,68	427,273
1010,84	365,000
1011,00	507,143
1011,17	3466,667
1011,33	215,385
1011,49	356,250
1011,66	340,625
1011,82	-733,333
1011,98	640,000
1012,14	600,000
1012,31	215,909
1012,47	-614,286
1012,63	4400,000
1012,80	344,444
1012,96	69,444
1013,12	-162,963
1013,29	400,000
1013,45	-76,471
1013,61	-1200,000
1013,77	-377,778
1013,94	300,000
1014,10	3800,000
1014,26	-85,294
1014,43	242,105
1014,59	0,000
1014,75	780,000
1014,91	242,857
1015,08	311,538
1015,24	420,000
1015,40	686,667
1015,56	682,353
1015,73	179,592
1015,89	55,556
1016,05	186,486
1016,21	303,704
1016,38	128,947
1016,54	-372,000
1016,70	257,895
1016,86	-430,769
1017,03	0,000
1017,19	875,000
1017,35	303,333
1017,51	233,333
1017,68	1728,571
1017,84	268,421
1018,00	61,905
1018,16	-468,750
1018,33	127,273
1018,49	428,571
1018,65	-290,909
1018,81	-48,780
1018,97	769,231
1019,14	-928,571
1019,30	395,238
1019,46	246,154
1019,62	2750,000
1019,79	-471,429
1019,95	-1550,000
1020,11	1320,000
1020,27	157,500
1020,43	-675,000
1020,60	0,000
1020,76	142,647
1020,92	7100,000
1021,08	-115,556
1021,24	-3600,000
1021,41	212,121
1021,57	-225,000
1021,73	0,000
1021,89	-222,727
1022,05	282,857
1022,21	-169,231
1022,38	505,263
1022,54	1400,000
1022,70	377,778
1022,86	-2900,000
1023,02	1011,111
1023,19	-415,000
1023,35	190,566
1023,51	212,903
1023,67	184,211
1023,83	236,364
1023,99	242,857
1024,16	-73,846
1024,32	331,250
1024,48	269,388
1024,64	40,000
1024,80	566,667
1024,96	446,154
1025,12	1233,333
1025,29	-875,000
1025,45	300,000
1025,61	2566,667
1025,77	361,905
1025,93	-246,154
1026,09	3850,000
1026,26	-1214,286
1026,42	-1525,000
1026,58	128,846
1026,74	385,714
1026,90	468,421
1027,06	-670,000
1027,22	-491,667
1027,38	955,556
1027,55	-208,000
1027,71	737,500
1027,87	197,500
1028,03	124,242
1028,19	-172,727
1028,35	64,865
1028,51	-17,742
1028,67	-360,000
1028,83	164,286
1029,00	607,143
1029,16	-433,333
1029,32	435,294
1029,48	3650,000
1029,64	1400,000
1029,80	1266,667
1029,96	223,529
1030,12	-75,000
1030,28	1475,000
1030,44	-2650,000
1030,61	256,250
1030,77	43,478
1030,93	204,651
1031,09	-250,000
1031,25	-755,556
1031,41	-1800,000
1031,57	15,789
1031,73	790,909
1031,89	-139,394
1032,05	885,714
1032,21	420,000
1032,37	-64,706
1032,53	60,000
1032,69	-5700,000
1032,86	1266,667
1033,02	181,250
1033,18	-476,923
1033,34	-346,154
1033,50	251,613
1033,66	-433,333
1033,82	292,857
1033,98	-382,353
1034,14	966,667
1034,30	-381,818
1034,46	270,833
1034,62	494,444
1034,78	139,683
1034,94	-22,581
1035,10	-250,000
1035,26	-822,222
1035,42	60,000
1035,58	1060,000
1035,74	-96,667
1035,90	-325,000
1036,06	130,189
1036,22	-140,000
1036,38	626,667
1036,54	260,000
1036,70	-3100,000
1036,86	-164,286
1037,02	-2050,000
1037,18	-96,429
1037,34	226,087
1037,50	-540,000
1037,66	-2966,667
1037,82	-123,529
1037,98	319,048
1038,14	-141,379
1038,30	36,538
1038,46	133,333
1038,62	141,935
1038,78	195,238
1038,94	-10,526
1039,10	-279,167
1039,26	-131,579
1039,42	-914,286
1039,58	147,170
1039,74	143,750
1039,90	-87,179
1040,06	364,706
>>>>>End Processed Spectral Data<<<<<
