SpectraSuite Data File
++++++++++++++++++++++++++++++++++++
Date: Thu Feb 02 17:32:45 EET 2017
User: optolab
Dark Spectrum Present: Yes
Reference Spectrum Present: Yes
Number of Sampled Component Spectra: 1
Spectrometers: USB4C02475
Integration Time (usec): 100000 (USB4C02475)
Spectra Averaged: 1 (USB4C02475)
Boxcar Smoothing: 0 (USB4C02475)
Correct for Electrical Dark: No (USB4C02475)
Strobe/Lamp Enabled: No (USB4C02475)
Correct for Detector Non-linearity: No (USB4C02475)
Correct for Stray Light: No (USB4C02475)
Number of Pixels in Processed Spectrum: 3648
>>>>>Begin Processed Spectral Data<<<<<
344,91	-1000,000
345,13	-1000,000
345,35	-1000,000
345,57	17,647
345,79	39,130
346,00	-50,000
346,22	-1128,571
346,44	-106,061
346,66	261,702
346,87	486,957
347,09	515,385
347,31	6500,000
347,53	-1675,000
347,74	-148,837
347,96	-871,429
348,18	258,824
348,40	523,529
348,61	-210,256
348,83	3500,000
349,05	251,282
349,27	329,412
349,48	-3250,000
349,70	542,857
349,92	166,667
350,14	135,135
350,35	-676,923
350,57	-327,778
350,79	-89,744
351,01	-433,333
351,22	390,000
351,44	258,333
351,66	444,444
351,87	950,000
352,09	138,158
352,31	208,929
352,53	234,286
352,74	-1000,000
352,96	263,158
353,18	162,500
353,40	-1137,500
353,61	360,000
353,83	222,917
354,05	190,625
354,26	232,143
354,48	-1160,000
354,70	200,000
354,92	269,444
355,13	-76,744
355,35	142,593
355,57	142,188
355,78	171,429
356,00	255,319
356,22	172,727
356,44	272,093
356,65	428,571
356,87	200,000
357,09	197,143
357,30	145,455
357,52	-1416,667
357,74	219,355
357,95	240,000
358,17	115,942
358,39	188,000
358,60	197,222
358,82	386,364
359,04	248,718
359,26	100,000
359,47	-384,615
359,69	367,857
359,91	216,000
360,12	235,000
360,34	83,333
360,56	-1800,000
360,77	1266,667
360,99	350,000
361,21	234,783
361,42	-2075,000
361,64	-244,444
361,86	158,209
362,07	686,667
362,29	165,000
362,51	129,730
362,72	-860,000
362,94	396,296
363,16	122,857
363,37	427,273
363,59	-6300,000
363,81	937,500
364,02	112,000
364,24	186,364
364,46	533,333
364,67	192,857
364,89	211,765
365,11	210,811
365,32	314,815
365,54	412,500
365,76	134,091
365,97	270,732
366,19	126,316
366,41	530,000
366,62	138,000
366,84	200,000
367,05	129,412
367,27	1000,000
367,49	241,026
367,70	833,333
367,92	185,417
368,14	-238,462
368,35	145,588
368,57	166,667
368,79	280,769
369,00	132,051
369,22	311,111
369,43	278,947
369,65	-37,931
369,87	-435,294
370,08	210,000
370,30	364,286
370,51	109,091
370,73	86,111
370,95	345,000
371,16	154,386
371,38	181,132
371,60	216,667
371,81	90,217
372,03	-1425,000
372,24	-71,875
372,46	1300,000
372,68	117,647
372,89	101,835
373,11	139,535
373,32	98,319
373,54	445,455
373,76	366,667
373,97	169,697
374,19	-252,632
374,40	102,857
374,62	452,941
374,84	195,833
375,05	155,769
375,27	259,459
375,48	103,704
375,70	394,118
375,92	137,500
376,13	515,789
376,35	191,667
376,56	295,000
376,78	79,592
376,99	272,727
377,21	218,750
377,43	254,545
377,64	130,000
377,86	375,000
378,07	84,091
378,29	191,667
378,51	117,857
378,72	-213,636
378,94	67,391
379,15	131,818
379,37	450,000
379,58	183,333
379,80	79,545
380,01	182,000
380,23	213,043
380,45	204,167
380,66	113,889
380,88	172,973
381,09	152,174
381,31	189,744
381,52	256,522
381,74	142,857
381,95	350,000
382,17	360,000
382,39	109,677
382,60	464,706
382,82	365,517
383,03	2266,667
383,25	122,222
383,46	541,667
383,68	121,277
383,89	536,364
384,11	108,219
384,32	231,579
384,54	-1014,286
384,76	176,471
384,97	120,000
385,19	231,579
385,40	284,375
385,62	216,129
385,83	155,319
386,05	714,286
386,26	319,231
386,48	392,308
386,69	200,000
386,91	300,000
387,12	156,410
387,34	91,525
387,55	234,286
387,77	208,000
387,98	110,204
388,20	174,648
388,41	79,365
388,63	158,571
388,84	245,000
389,06	162,791
389,27	100,000
389,49	102,410
389,70	138,983
389,92	172,727
390,13	169,231
390,35	103,125
390,56	167,187
390,78	286,364
390,99	140,000
391,21	60,227
391,42	-19,565
391,64	30,000
391,85	108,621
392,07	-135,714
392,28	257,692
392,50	1120,000
392,71	1700,000
392,93	83,871
393,14	200,000
393,36	156,410
393,57	325,000
393,79	117,460
394,00	78,082
394,22	138,000
394,43	135,714
394,65	107,143
394,86	253,125
395,08	-525,000
395,29	100,000
395,50	-4900,000
395,72	1042,857
395,93	332,000
396,15	-57,143
396,36	136,667
396,58	-357,143
396,79	102,326
397,01	240,476
397,22	126,087
397,44	114,894
397,65	118,919
397,87	141,429
398,08	250,000
398,29	225,000
398,51	182,927
398,72	169,565
398,94	220,930
399,15	60,000
399,37	186,957
399,58	107,937
399,80	340,000
400,01	229,412
400,22	400,000
400,44	304,762
400,65	106,849
400,87	3900,000
401,08	116,854
401,30	177,333
401,51	105,455
401,72	109,677
401,94	217,073
402,15	175,510
402,37	170,455
402,58	127,907
402,80	275,000
403,01	233,333
403,22	92,771
403,44	230,556
403,65	138,776
403,87	57,333
404,08	130,769
404,30	200,000
404,51	102,857
404,72	818,182
404,94	89,157
405,15	152,239
405,37	151,648
405,58	212,903
405,79	478,571
406,01	113,333
406,22	75,000
406,44	96,491
406,65	132,143
406,86	146,000
407,08	95,062
407,29	128,000
407,51	79,808
407,72	90,099
407,93	135,443
408,15	113,636
408,36	211,429
408,58	110,000
408,79	83,721
409,00	93,617
409,22	90,196
409,43	113,514
409,64	108,333
409,86	131,818
410,07	91,304
410,29	85,333
410,50	100,000
410,71	144,355
410,93	112,871
411,14	141,121
411,35	120,139
411,57	105,556
411,78	111,029
412,00	94,000
412,21	83,186
412,42	98,537
412,64	108,333
412,85	94,819
413,06	112,054
413,28	97,647
413,49	118,605
413,70	115,451
413,92	96,190
414,13	101,976
414,34	101,487
414,56	128,936
414,77	94,465
414,98	98,587
415,20	111,828
415,41	105,519
415,63	94,587
415,84	91,413
416,05	103,614
416,27	88,858
416,48	95,498
416,69	95,058
416,91	79,467
417,12	73,756
417,33	69,752
417,55	82,200
417,76	65,328
417,97	75,655
418,19	76,360
418,40	67,591
418,61	64,494
418,83	67,077
419,04	61,240
419,25	67,943
419,46	70,305
419,68	58,555
419,89	58,366
420,10	54,435
420,32	55,364
420,53	47,017
420,74	43,130
420,96	37,915
421,17	38,084
421,38	29,523
421,60	29,475
421,81	29,630
422,02	24,730
422,23	27,402
422,45	26,699
422,66	25,836
422,87	25,360
423,09	25,236
423,30	26,269
423,51	23,420
423,73	27,845
423,94	28,736
424,15	28,042
424,36	29,368
424,58	27,254
424,79	23,552
425,00	26,179
425,22	19,941
425,43	19,930
425,64	15,185
425,85	14,769
426,07	13,309
426,28	11,052
426,49	8,342
426,71	7,004
426,92	5,861
427,13	4,590
427,34	3,585
427,56	4,784
427,77	0,911
427,98	2,935
428,19	0,504
428,41	2,206
428,62	1,532
428,83	1,198
429,04	3,356
429,26	1,517
429,47	3,166
429,68	1,058
429,89	1,070
430,11	1,794
430,32	2,451
430,53	1,527
430,74	1,384
430,96	2,064
431,17	2,220
431,38	1,183
431,59	1,073
431,81	1,124
432,02	1,128
432,23	1,788
432,44	1,103
432,66	1,159
432,87	0,803
433,08	1,455
433,29	0,493
433,51	1,491
433,72	1,623
433,93	0,913
434,14	1,246
434,35	0,944
434,57	1,012
434,78	0,979
434,99	0,450
435,20	1,931
435,42	1,419
435,63	0,820
435,84	1,278
436,05	0,573
436,26	0,138
436,48	1,589
436,69	1,375
436,90	0,317
437,11	0,929
437,32	1,009
437,54	0,916
437,75	1,056
437,96	1,179
438,17	0,630
438,38	1,080
438,60	1,165
438,81	1,154
439,02	1,126
439,23	1,177
439,44	0,603
439,66	0,793
439,87	0,902
440,08	0,553
440,29	0,846
440,50	1,041
440,72	0,521
440,93	0,893
441,14	0,829
441,35	0,488
441,56	0,975
441,77	0,700
441,99	0,888
442,20	0,924
442,41	0,586
442,62	0,268
442,83	0,808
443,04	0,529
443,26	0,748
443,47	0,662
443,68	0,463
443,89	0,680
444,10	0,633
444,31	1,145
444,53	0,923
444,74	0,520
444,95	0,494
445,16	0,557
445,37	0,552
445,58	0,781
445,80	0,475
446,01	0,938
446,22	0,763
446,43	0,680
446,64	0,404
446,85	0,352
447,06	0,667
447,28	0,715
447,49	0,542
447,70	0,702
447,91	0,798
448,12	0,336
448,33	0,461
448,54	0,518
448,76	0,578
448,97	0,675
449,18	0,678
449,39	0,578
449,60	0,593
449,81	0,589
450,02	0,779
450,23	0,638
450,45	0,809
450,66	0,338
450,87	0,499
451,08	0,538
451,29	0,912
451,50	0,416
451,71	0,545
451,92	0,484
452,13	0,684
452,35	0,456
452,56	0,279
452,77	0,681
452,98	0,765
453,19	0,721
453,40	0,644
453,61	0,601
453,82	0,905
454,03	0,579
454,25	0,775
454,46	0,653
454,67	0,524
454,88	0,630
455,09	0,762
455,30	0,507
455,51	0,432
455,72	0,791
455,93	0,528
456,14	0,955
456,35	0,442
456,56	0,672
456,78	0,594
456,99	0,859
457,20	0,317
457,41	0,375
457,62	0,496
457,83	0,498
458,04	0,780
458,25	0,376
458,46	0,625
458,67	0,475
458,88	0,659
459,09	0,543
459,30	0,450
459,51	0,484
459,73	0,184
459,94	0,807
460,15	0,643
460,36	0,288
460,57	0,626
460,78	0,611
460,99	0,335
461,20	0,446
461,41	0,731
461,62	0,541
461,83	0,384
462,04	0,408
462,25	0,731
462,46	0,471
462,67	0,346
462,88	0,378
463,09	0,515
463,30	0,551
463,51	0,454
463,72	0,502
463,93	0,533
464,15	0,582
464,36	0,304
464,57	0,437
464,78	0,405
464,99	0,666
465,20	0,544
465,41	0,621
465,62	0,567
465,83	0,611
466,04	0,644
466,25	0,715
466,46	0,728
466,67	0,799
466,88	0,802
467,09	0,899
467,30	1,024
467,51	1,178
467,72	1,384
467,93	1,503
468,14	1,922
468,35	2,634
468,56	3,010
468,77	3,605
468,98	4,518
469,19	5,482
469,40	6,848
469,61	7,762
469,82	9,157
470,03	10,951
470,24	12,175
470,45	14,155
470,66	16,452
470,87	18,078
471,08	20,648
471,29	23,304
471,50	26,144
471,71	28,621
471,92	31,773
472,13	35,011
472,34	38,481
472,55	41,279
472,76	44,791
472,97	47,828
473,18	51,605
473,39	53,167
473,60	55,799
473,81	58,340
474,01	61,955
474,22	64,020
474,43	67,212
474,64	70,268
474,85	71,760
475,06	73,301
475,27	76,086
475,48	77,616
475,69	79,296
475,90	80,986
476,11	81,845
476,32	82,232
476,53	83,623
476,74	84,641
476,95	84,984
477,16	87,049
477,37	87,051
477,58	87,193
477,79	89,475
478,00	89,431
478,21	91,286
478,41	90,979
478,62	92,303
478,83	91,677
479,04	90,695
479,25	91,450
479,46	93,665
479,67	92,876
479,88	94,258
480,09	94,701
480,30	93,922
480,51	93,640
480,72	95,062
480,93	95,087
481,14	93,819
481,34	94,075
481,55	93,166
481,76	93,565
481,97	93,034
482,18	92,279
482,39	92,844
482,60	91,865
482,81	91,604
483,02	90,016
483,23	90,756
483,44	90,440
483,65	90,006
483,85	90,012
484,06	90,358
484,27	90,418
484,48	90,836
484,69	88,618
484,90	89,944
485,11	88,303
485,32	88,299
485,53	86,229
485,73	86,401
485,94	84,543
486,15	85,211
486,36	84,044
486,57	82,516
486,78	81,563
486,99	81,001
487,20	80,055
487,41	77,823
487,61	77,014
487,82	76,948
488,03	75,205
488,24	73,775
488,45	72,328
488,66	71,679
488,87	71,269
489,08	69,404
489,28	68,385
489,49	66,329
489,70	65,351
489,91	65,268
490,12	63,289
490,33	61,172
490,54	60,926
490,74	58,476
490,95	56,967
491,16	54,969
491,37	52,490
491,58	50,221
491,79	48,176
492,00	44,829
492,20	42,080
492,41	39,649
492,62	36,539
492,83	34,103
493,04	31,319
493,25	28,427
493,45	25,921
493,66	23,393
493,87	20,704
494,08	18,106
494,29	16,139
494,50	14,795
494,70	12,254
494,91	10,712
495,12	9,038
495,33	8,001
495,54	6,465
495,75	5,400
495,95	4,767
496,16	4,020
496,37	3,261
496,58	2,585
496,79	2,280
496,99	1,880
497,20	1,521
497,41	1,287
497,62	1,209
497,83	0,972
498,04	0,771
498,24	0,815
498,45	0,577
498,66	0,527
498,87	0,453
499,08	0,519
499,28	0,358
499,49	0,464
499,70	0,574
499,91	0,335
500,12	0,537
500,32	0,369
500,53	0,520
500,74	0,549
500,95	0,268
501,15	0,407
501,36	0,368
501,57	0,496
501,78	0,423
501,99	0,345
502,19	0,404
502,40	0,374
502,61	0,369
502,82	0,349
503,02	0,272
503,23	0,319
503,44	0,459
503,65	0,383
503,86	0,294
504,06	0,381
504,27	0,587
504,48	0,245
504,69	0,510
504,89	0,323
505,10	0,259
505,31	0,486
505,52	0,473
505,72	0,661
505,93	0,453
506,14	0,245
506,35	0,456
506,55	0,391
506,76	0,303
506,97	0,407
507,18	0,383
507,38	0,281
507,59	0,342
507,80	0,265
508,01	0,333
508,21	0,281
508,42	0,350
508,63	0,378
508,84	0,485
509,04	0,407
509,25	0,389
509,46	0,352
509,67	0,489
509,87	0,477
510,08	0,374
510,29	0,266
510,49	0,309
510,70	0,413
510,91	0,493
511,12	0,441
511,32	0,496
511,53	0,431
511,74	0,220
511,94	0,322
512,15	0,514
512,36	0,263
512,57	0,388
512,77	0,413
512,98	0,434
513,19	0,520
513,39	0,525
513,60	0,233
513,81	0,470
514,01	0,480
514,22	0,421
514,43	0,433
514,64	0,309
514,84	0,492
515,05	0,393
515,26	0,285
515,46	0,246
515,67	0,277
515,88	0,538
516,08	0,449
516,29	0,326
516,50	0,263
516,70	0,415
516,91	0,430
517,12	0,479
517,32	0,267
517,53	0,248
517,74	0,622
517,95	0,549
518,15	0,428
518,36	0,682
518,57	0,426
518,77	0,501
518,98	0,435
519,19	0,412
519,39	0,499
519,60	0,359
519,80	0,218
520,01	0,409
520,22	0,557
520,42	0,348
520,63	0,464
520,84	0,392
521,04	0,386
521,25	0,514
521,46	0,263
521,66	0,510
521,87	0,500
522,08	0,262
522,28	0,459
522,49	0,365
522,70	0,515
522,90	0,328
523,11	0,265
523,31	0,410
523,52	0,378
523,73	0,318
523,93	0,482
524,14	0,443
524,35	0,567
524,55	0,498
524,76	0,494
524,97	0,415
525,17	0,539
525,38	0,407
525,58	0,423
525,79	0,356
526,00	0,460
526,20	0,447
526,41	0,555
526,61	0,638
526,82	0,528
527,03	0,463
527,23	0,463
527,44	0,503
527,64	0,451
527,85	0,486
528,06	0,650
528,26	0,472
528,47	0,564
528,68	0,443
528,88	0,391
529,09	0,409
529,29	0,682
529,50	0,494
529,70	0,588
529,91	0,562
530,12	0,535
530,32	0,648
530,53	0,898
530,73	0,512
530,94	0,735
531,15	0,631
531,35	0,964
531,56	1,126
531,76	1,090
531,97	1,084
532,17	1,163
532,38	1,350
532,59	1,797
532,79	2,229
533,00	2,261
533,20	2,546
533,41	2,874
533,61	3,492
533,82	3,970
534,03	5,022
534,23	5,643
534,44	6,701
534,64	7,794
534,85	8,460
535,05	9,828
535,26	10,926
535,46	12,547
535,67	13,830
535,88	15,325
536,08	17,358
536,29	18,731
536,49	21,047
536,70	22,166
536,90	24,236
537,11	25,500
537,31	26,970
537,52	27,899
537,72	29,211
537,93	30,307
538,13	31,274
538,34	31,350
538,55	32,579
538,75	33,296
538,96	33,616
539,16	35,214
539,37	35,719
539,57	37,445
539,78	38,816
539,98	40,324
540,19	41,852
540,39	43,631
540,60	45,722
540,80	48,591
541,01	49,949
541,21	53,217
541,42	55,945
541,62	58,173
541,83	60,176
542,03	62,176
542,24	65,592
542,44	66,190
542,65	68,674
542,85	69,612
543,06	70,735
543,26	71,915
543,47	71,292
543,67	72,503
543,88	72,048
544,08	72,375
544,29	72,246
544,49	70,886
544,70	71,766
544,90	71,603
545,11	71,674
545,31	71,624
545,52	71,489
545,72	71,771
545,93	71,545
546,13	72,587
546,34	72,956
546,54	73,582
546,75	73,627
546,95	74,946
547,15	75,964
547,36	77,031
547,56	76,461
547,77	77,323
547,97	77,985
548,18	78,428
548,38	79,216
548,59	79,171
548,79	78,891
549,00	79,384
549,20	79,277
549,41	77,955
549,61	77,911
549,81	77,030
550,02	76,552
550,22	74,595
550,43	74,796
550,63	73,923
550,84	72,014
551,04	70,544
551,25	69,404
551,45	68,095
551,65	64,956
551,86	63,178
552,06	62,315
552,27	59,522
552,47	58,223
552,68	57,761
552,88	55,342
553,08	54,544
553,29	52,297
553,49	51,103
553,70	50,581
553,90	49,192
554,11	48,673
554,31	46,547
554,51	46,052
554,72	45,005
554,92	44,313
555,13	44,038
555,33	43,174
555,53	41,768
555,74	41,983
555,94	41,297
556,15	40,168
556,35	39,466
556,56	38,678
556,76	37,580
556,96	37,276
557,17	36,747
557,37	36,388
557,58	35,363
557,78	34,026
557,98	33,832
558,19	33,395
558,39	32,093
558,59	31,026
558,80	29,998
559,00	28,200
559,21	27,000
559,41	25,568
559,61	23,164
559,82	22,013
560,02	20,254
560,23	18,741
560,43	17,533
560,63	16,258
560,84	15,078
561,04	13,791
561,24	12,439
561,45	11,792
561,65	10,572
561,85	9,675
562,06	8,640
562,26	7,515
562,47	7,124
562,67	5,845
562,87	5,044
563,08	4,121
563,28	3,588
563,48	2,822
563,69	2,303
563,89	1,728
564,09	1,482
564,30	1,155
564,50	0,965
564,70	0,812
564,91	0,574
565,11	0,479
565,31	0,629
565,52	0,451
565,72	0,546
565,92	0,492
566,13	0,464
566,33	0,463
566,53	0,344
566,74	0,326
566,94	0,299
567,14	0,333
567,35	0,447
567,55	0,248
567,75	0,566
567,96	0,374
568,16	0,290
568,36	0,182
568,57	0,381
568,77	0,246
568,97	0,336
569,18	0,380
569,38	0,349
569,58	0,198
569,79	0,138
569,99	0,340
570,19	0,228
570,39	0,401
570,60	0,339
570,80	0,303
571,00	0,260
571,21	0,347
571,41	0,350
571,61	0,352
571,82	0,425
572,02	0,159
572,22	0,096
572,42	0,389
572,63	0,357
572,83	0,417
573,03	0,161
573,24	0,327
573,44	0,341
573,64	0,352
573,84	0,086
574,05	0,262
574,25	0,274
574,45	0,317
574,66	0,328
574,86	0,389
575,06	0,437
575,26	0,351
575,47	0,314
575,67	0,315
575,87	0,322
576,07	0,299
576,28	0,291
576,48	0,281
576,68	0,491
576,88	0,239
577,09	0,269
577,29	0,467
577,49	0,320
577,69	0,077
577,90	0,191
578,10	0,173
578,30	0,471
578,50	0,248
578,71	0,269
578,91	0,307
579,11	0,235
579,31	0,277
579,52	0,015
579,72	0,258
579,92	0,406
580,12	0,213
580,33	0,307
580,53	0,328
580,73	0,312
580,93	0,192
581,13	0,308
581,34	0,246
581,54	0,369
581,74	0,270
581,94	0,265
582,15	0,358
582,35	0,086
582,55	0,405
582,75	0,406
582,95	0,280
583,16	0,301
583,36	0,200
583,56	0,207
583,76	0,332
583,96	0,232
584,17	0,226
584,37	0,231
584,57	0,453
584,77	0,247
584,97	0,136
585,18	0,276
585,38	0,255
585,58	0,169
585,78	0,104
585,98	0,363
586,19	0,336
586,39	0,320
586,59	0,026
586,79	0,245
586,99	0,198
587,20	0,146
587,40	0,377
587,60	0,118
587,80	0,201
588,00	0,359
588,20	0,179
588,41	0,311
588,61	0,340
588,81	0,230
589,01	0,280
589,21	0,465
589,41	0,221
589,62	0,285
589,82	0,219
590,02	0,201
590,22	0,362
590,42	0,325
590,62	0,271
590,83	0,153
591,03	0,051
591,23	0,269
591,43	0,342
591,63	0,106
591,83	0,329
592,03	0,350
592,24	0,293
592,44	0,204
592,64	0,252
592,84	0,473
593,04	0,271
593,24	0,250
593,44	0,170
593,65	0,159
593,85	0,263
594,05	0,209
594,25	0,164
594,45	0,234
594,65	0,223
594,85	0,155
595,06	0,233
595,26	0,484
595,46	0,102
595,66	0,173
595,86	0,240
596,06	0,274
596,26	0,279
596,46	0,237
596,66	0,265
596,87	0,304
597,07	0,159
597,27	0,221
597,47	0,328
597,67	0,192
597,87	0,105
598,07	0,311
598,27	0,330
598,47	0,418
598,67	0,202
598,88	0,168
599,08	0,295
599,28	0,406
599,48	0,037
599,68	0,287
599,88	0,204
600,08	0,289
600,28	0,413
600,48	0,259
600,68	0,250
600,88	0,254
601,09	0,221
601,29	0,460
601,49	0,211
601,69	0,218
601,89	0,279
602,09	0,336
602,29	0,207
602,49	0,201
602,69	0,156
602,89	0,320
603,09	0,208
603,29	0,205
603,49	0,314
603,69	0,400
603,90	0,211
604,10	0,311
604,30	0,410
604,50	0,392
604,70	0,023
604,90	0,350
605,10	0,308
605,30	0,241
605,50	0,073
605,70	0,255
605,90	0,130
606,10	0,230
606,30	0,269
606,50	0,344
606,70	0,282
606,90	0,240
607,10	0,150
607,30	0,403
607,50	0,220
607,70	0,249
607,90	0,322
608,10	0,379
608,30	0,293
608,50	0,289
608,70	0,429
608,90	0,303
609,11	0,156
609,31	0,233
609,51	0,324
609,71	0,219
609,91	0,187
610,11	0,410
610,31	0,293
610,51	0,342
610,71	0,129
610,91	0,227
611,11	0,266
611,31	0,438
611,51	0,227
611,71	0,162
611,91	0,525
612,11	0,240
612,31	0,253
612,51	0,408
612,71	0,052
612,91	0,087
613,11	0,278
613,31	0,186
613,51	0,115
613,71	0,290
613,91	0,365
614,11	0,343
614,31	0,319
614,50	0,299
614,70	0,217
614,90	0,339
615,10	0,059
615,30	0,374
615,50	0,167
615,70	0,285
615,90	0,284
616,10	0,140
616,30	0,290
616,50	0,224
616,70	0,279
616,90	0,166
617,10	0,461
617,30	0,159
617,50	0,186
617,70	0,052
617,90	0,270
618,10	0,324
618,30	0,155
618,50	0,369
618,70	0,386
618,90	0,183
619,10	0,180
619,30	0,112
619,49	0,332
619,69	0,289
619,89	0,257
620,09	0,163
620,29	0,328
620,49	0,305
620,69	0,146
620,89	0,361
621,09	0,179
621,29	0,311
621,49	0,188
621,69	0,250
621,89	0,400
622,09	0,324
622,29	0,183
622,48	0,348
622,68	0,195
622,88	0,257
623,08	0,302
623,28	0,225
623,48	0,300
623,68	0,262
623,88	0,163
624,08	0,289
624,28	0,325
624,48	0,332
624,67	0,213
624,87	0,333
625,07	0,257
625,27	0,185
625,47	0,223
625,67	0,392
625,87	0,203
626,07	0,267
626,27	0,243
626,47	0,317
626,66	0,041
626,86	0,385
627,06	0,307
627,26	0,326
627,46	0,104
627,66	0,162
627,86	0,251
628,06	0,300
628,25	0,222
628,45	0,301
628,65	0,142
628,85	0,261
629,05	0,347
629,25	0,104
629,45	0,289
629,65	0,275
629,84	0,248
630,04	0,382
630,24	0,162
630,44	0,042
630,64	0,292
630,84	0,138
631,04	0,400
631,23	0,165
631,43	0,192
631,63	0,139
631,83	0,219
632,03	0,298
632,23	0,121
632,42	0,041
632,62	0,397
632,82	0,195
633,02	0,374
633,22	0,271
633,42	0,282
633,62	0,130
633,81	0,185
634,01	0,424
634,21	0,246
634,41	0,533
634,61	0,192
634,80	0,339
635,00	0,442
635,20	0,313
635,40	0,014
635,60	0,265
635,80	0,384
635,99	0,442
636,19	0,211
636,39	0,232
636,59	0,175
636,79	0,417
636,98	0,308
637,18	0,243
637,38	0,361
637,58	0,054
637,78	0,486
637,97	0,435
638,17	0,233
638,37	0,277
638,57	0,146
638,77	0,386
638,96	0,240
639,16	0,450
639,36	0,103
639,56	0,623
639,76	0,348
639,95	0,083
640,15	0,280
640,35	0,164
640,55	0,254
640,75	0,463
640,94	0,151
641,14	0,339
641,34	0,235
641,54	0,296
641,73	0,457
641,93	0,437
642,13	0,258
642,33	0,332
642,53	0,259
642,72	0,383
642,92	0,397
643,12	0,546
643,32	0,547
643,51	0,701
643,71	0,254
643,91	0,352
644,11	0,404
644,30	0,405
644,50	0,516
644,70	0,390
644,90	0,584
645,09	0,248
645,29	0,574
645,49	0,392
645,69	0,158
645,88	0,483
646,08	0,181
646,28	0,745
646,48	0,383
646,67	0,204
646,87	0,709
647,07	0,209
647,26	0,634
647,46	0,370
647,66	0,190
647,86	0,522
648,05	0,577
648,25	0,786
648,45	0,340
648,65	0,405
648,84	0,407
649,04	0,680
649,24	0,732
649,43	0,410
649,63	0,505
649,83	0,705
650,03	0,542
650,22	0,518
650,42	0,325
650,62	0,760
650,81	0,612
651,01	0,280
651,21	0,500
651,40	0,727
651,60	0,178
651,80	0,498
652,00	0,764
652,19	0,197
652,39	0,748
652,59	0,881
652,78	0,369
652,98	-0,050
653,18	0,711
653,37	0,702
653,57	0,484
653,77	0,552
653,96	0,271
654,16	0,244
654,36	0,441
654,55	0,312
654,75	0,613
654,95	0,136
655,14	0,449
655,34	0,607
655,54	0,645
655,73	0,417
655,93	0,288
656,13	0,365
656,32	0,114
656,52	0,715
656,72	0,513
656,91	0,679
657,11	0,198
657,31	0,409
657,50	0,595
657,70	0,529
657,90	0,382
658,09	0,590
658,29	0,580
658,49	0,637
658,68	0,548
658,88	0,453
659,07	0,662
659,27	0,349
659,47	0,279
659,66	0,645
659,86	0,026
660,06	0,303
660,25	0,141
660,45	0,477
660,64	0,211
660,84	0,392
661,04	0,665
661,23	0,679
661,43	0,439
661,63	0,249
661,82	0,130
662,02	0,625
662,21	0,384
662,41	0,612
662,61	0,794
662,80	0,290
663,00	0,303
663,19	0,952
663,39	0,173
663,59	0,663
663,78	0,808
663,98	0,778
664,17	0,435
664,37	0,301
664,57	0,506
664,76	0,501
664,96	-0,085
665,15	0,145
665,35	0,254
665,55	-0,009
665,74	0,337
665,94	0,464
666,13	0,241
666,33	0,304
666,53	0,376
666,72	0,396
666,92	0,734
667,11	0,416
667,31	0,157
667,50	0,248
667,70	0,518
667,90	0,114
668,09	-0,082
668,29	0,466
668,48	0,650
668,68	0,617
668,87	0,330
669,07	0,152
669,26	0,529
669,46	0,192
669,66	0,222
669,85	0,552
670,05	0,039
670,24	0,280
670,44	0,449
670,63	0,296
670,83	0,320
671,02	0,297
671,22	0,341
671,42	-0,023
671,61	0,008
671,81	0,308
672,00	0,560
672,20	0,053
672,39	0,278
672,59	0,083
672,78	0,113
672,98	0,264
673,17	0,000
673,37	0,352
673,56	0,450
673,76	-0,007
673,95	0,233
674,15	0,527
674,34	0,121
674,54	0,307
674,73	0,249
674,93	0,128
675,13	0,314
675,32	0,470
675,52	0,336
675,71	0,329
675,91	0,483
676,10	0,350
676,30	-0,110
676,49	0,136
676,69	0,294
676,88	0,415
677,08	0,203
677,27	0,287
677,47	0,280
677,66	0,362
677,86	0,595
678,05	0,511
678,24	0,292
678,44	0,623
678,63	0,324
678,83	0,241
679,02	0,387
679,22	0,562
679,41	0,315
679,61	0,279
679,80	0,272
680,00	0,018
680,19	0,386
680,39	0,104
680,58	0,215
680,78	0,253
680,97	0,159
681,17	0,402
681,36	0,051
681,56	0,163
681,75	0,017
681,94	0,099
682,14	0,438
682,33	0,103
682,53	0,135
682,72	0,274
682,92	0,379
683,11	0,147
683,31	0,451
683,50	0,162
683,69	0,221
683,89	0,314
684,08	0,334
684,28	0,031
684,47	0,090
684,67	0,104
684,86	0,138
685,06	0,049
685,25	0,260
685,44	0,271
685,64	0,256
685,83	0,285
686,03	0,052
686,22	0,195
686,42	0,217
686,61	0,232
686,80	0,036
687,00	0,171
687,19	0,284
687,39	0,236
687,58	0,168
687,77	0,274
687,97	0,200
688,16	0,235
688,36	0,096
688,55	0,295
688,74	0,085
688,94	0,115
689,13	0,160
689,33	0,200
689,52	0,136
689,71	0,149
689,91	-0,049
690,10	0,236
690,30	0,040
690,49	0,016
690,68	0,349
690,88	0,087
691,07	0,055
691,27	0,149
691,46	0,201
691,65	0,150
691,85	0,185
692,04	0,190
692,23	-0,127
692,43	0,293
692,62	0,216
692,82	0,240
693,01	0,175
693,20	0,218
693,40	0,028
693,59	0,041
693,78	0,136
693,98	0,041
694,17	0,087
694,36	0,295
694,56	0,156
694,75	0,286
694,94	0,290
695,14	0,328
695,33	0,211
695,53	0,257
695,72	0,233
695,91	-0,190
696,11	0,184
696,30	0,202
696,49	0,235
696,69	-0,096
696,88	0,081
697,07	0,255
697,27	0,346
697,46	0,242
697,65	0,204
697,85	0,111
698,04	0,218
698,23	0,225
698,43	0,318
698,62	-0,238
698,81	0,362
699,01	0,294
699,20	0,168
699,39	0,173
699,58	0,293
699,78	0,115
699,97	0,330
700,16	0,218
700,36	0,484
700,55	0,397
700,74	0,429
700,94	0,171
701,13	0,360
701,32	0,466
701,52	0,269
701,71	0,512
701,90	0,843
702,09	0,531
702,29	0,616
702,48	0,603
702,67	0,726
702,87	0,628
703,06	0,789
703,25	0,805
703,44	0,322
703,64	0,373
703,83	0,573
704,02	0,951
704,22	0,590
704,41	0,031
704,60	1,231
704,79	0,753
704,99	1,158
705,18	1,203
705,37	1,345
705,56	0,760
705,76	1,120
705,95	1,758
706,14	0,890
706,33	0,651
706,53	1,460
706,72	0,753
706,91	1,198
707,11	1,526
707,30	0,359
707,49	0,844
707,68	1,250
707,88	0,946
708,07	0,390
708,26	1,119
708,45	0,675
708,64	1,506
708,84	0,000
709,03	1,352
709,22	0,947
709,41	2,153
709,61	0,899
709,80	2,255
709,99	1,502
710,18	2,590
710,38	0,094
710,57	1,366
710,76	-0,557
710,95	1,251
711,14	1,490
711,34	2,030
711,53	2,870
711,72	2,926
711,91	-0,185
712,11	2,996
712,30	1,154
712,49	1,838
712,68	-0,198
712,87	1,469
713,07	3,332
713,26	1,874
713,45	0,499
713,64	0,698
713,83	1,979
714,03	2,641
714,22	2,443
714,41	1,955
714,60	2,895
714,79	0,960
714,99	2,037
715,18	5,173
715,37	3,966
715,56	1,548
715,75	2,401
715,94	4,134
716,14	3,840
716,33	3,330
716,52	4,193
716,71	4,888
716,90	2,997
717,10	1,169
717,29	4,446
717,48	2,113
717,67	2,369
717,86	2,191
718,05	3,923
718,24	4,340
718,44	5,234
718,63	1,582
718,82	2,436
719,01	1,432
719,20	3,111
719,39	4,575
719,59	0,781
719,78	1,336
719,97	3,481
720,16	4,503
720,35	2,891
720,54	1,887
720,73	4,027
720,93	2,314
721,12	0,431
721,31	4,082
721,50	3,709
721,69	3,346
721,88	5,914
722,07	0,975
722,27	5,074
722,46	5,772
722,65	2,780
722,84	2,903
723,03	3,701
723,22	3,707
723,41	2,907
723,60	2,698
723,79	6,931
723,99	3,185
724,18	4,903
724,37	1,998
724,56	4,770
724,75	0,870
724,94	5,490
725,13	3,176
725,32	5,851
725,51	2,419
725,71	3,549
725,90	6,238
726,09	6,758
726,28	1,716
726,47	2,761
726,66	3,339
726,85	7,204
727,04	3,976
727,23	4,871
727,42	6,591
727,61	0,412
727,81	1,405
728,00	8,940
728,19	6,176
728,38	0,655
728,57	4,792
728,76	3,112
728,95	8,125
729,14	6,385
729,33	1,398
729,52	6,412
729,71	4,230
729,90	7,473
730,09	7,963
730,28	8,200
730,48	3,837
730,67	8,705
730,86	5,910
731,05	1,517
731,24	0,366
731,43	5,226
731,62	5,269
731,81	3,065
732,00	7,186
732,19	4,928
732,38	10,128
732,57	10,147
732,76	3,830
732,95	-1,931
733,14	-3,300
733,33	0,265
733,52	7,163
733,71	1,004
733,90	1,836
734,09	9,730
734,28	4,987
734,47	6,389
734,66	-0,802
734,85	5,429
735,04	6,705
735,23	5,882
735,42	9,426
735,61	5,248
735,81	7,249
736,00	1,994
736,19	7,599
736,38	7,485
736,57	13,306
736,76	4,526
736,95	9,873
737,14	8,293
737,33	7,072
737,52	6,154
737,71	9,016
737,90	7,883
738,09	6,849
738,28	11,061
738,47	0,730
738,66	4,167
738,85	8,258
739,04	6,003
739,22	6,355
739,41	-3,309
739,60	5,802
739,79	-3,957
739,98	-0,358
740,17	7,509
740,36	8,680
740,55	11,624
740,74	7,890
740,93	6,310
741,12	7,679
741,31	1,937
741,50	0,756
741,69	9,912
741,88	6,126
742,07	16,123
742,26	3,238
742,45	12,295
742,64	7,130
742,83	12,212
743,02	2,526
743,21	15,884
743,40	1,242
743,59	9,559
743,78	6,458
743,97	12,115
744,16	8,858
744,34	5,594
744,53	5,361
744,72	2,088
744,91	3,361
745,10	16,981
745,29	14,315
745,48	8,864
745,67	4,556
745,86	7,726
746,05	15,166
746,24	8,866
746,43	0,642
746,62	18,103
746,81	15,955
747,00	3,939
747,18	7,843
747,37	9,053
747,56	9,882
747,75	-2,217
747,94	12,621
748,13	12,528
748,32	13,810
748,51	6,853
748,70	13,436
748,89	8,899
749,08	3,488
749,26	9,251
749,45	0,536
749,64	9,824
749,83	21,573
750,02	21,196
750,21	4,326
750,40	20,445
750,59	3,485
750,78	18,204
750,96	13,260
751,15	17,757
751,34	5,682
751,53	7,923
751,72	10,704
751,91	4,404
752,10	7,853
752,29	7,200
752,47	14,900
752,66	17,143
752,85	6,831
753,04	17,318
753,23	10,836
753,42	28,032
753,61	2,821
753,80	4,811
753,98	12,626
754,17	13,982
754,36	14,194
754,55	7,229
754,74	2,273
754,93	17,080
755,12	11,276
755,30	8,442
755,49	18,314
755,68	9,509
755,87	18,639
756,06	12,500
756,25	23,100
756,43	6,040
756,62	11,491
756,81	22,848
757,00	17,105
757,19	7,292
757,38	10,039
757,56	0,000
757,75	14,334
757,94	10,646
758,13	8,219
758,32	13,353
758,51	10,101
758,69	11,969
758,88	19,192
759,07	21,257
759,26	16,961
759,45	-5,965
759,63	13,853
759,82	20,351
760,01	19,414
760,20	20,440
760,39	25,237
760,57	12,544
760,76	16,028
760,95	27,431
761,14	16,788
761,33	22,258
761,51	13,929
761,70	12,268
761,89	14,222
762,08	39,405
762,27	8,664
762,45	5,072
762,64	20,603
762,83	14,343
763,02	10,435
763,21	4,500
763,39	14,685
763,58	21,190
763,77	14,346
763,96	11,155
764,14	12,917
764,33	5,238
764,52	16,518
764,71	20,984
764,89	26,339
765,08	24,138
765,27	16,596
765,46	25,561
765,65	19,216
765,83	30,769
766,02	35,238
766,21	11,475
766,40	28,016
766,58	7,937
766,77	29,817
766,96	21,138
767,15	31,513
767,33	3,382
767,52	31,441
767,71	15,789
767,90	17,588
768,08	41,916
768,27	25,203
768,46	32,895
768,64	13,889
768,83	-7,843
769,02	2,463
769,21	22,917
769,39	17,143
769,58	22,511
769,77	33,511
769,96	24,775
770,14	21,311
770,33	17,757
770,52	32,374
770,70	10,811
770,89	43,784
771,08	-3,614
771,27	18,421
771,45	5,882
771,64	53,939
771,83	25,000
772,01	35,567
772,20	11,443
772,39	31,013
772,57	34,328
772,76	21,622
772,95	24,138
773,14	16,327
773,32	44,633
773,51	17,857
773,70	27,338
773,88	25,806
774,07	45,685
774,26	20,161
774,44	39,850
774,63	44,311
774,82	-0,649
775,00	35,047
775,19	23,214
775,38	16,489
775,56	29,193
775,75	26,923
775,94	24,167
776,12	24,837
776,31	27,820
776,50	9,589
776,68	33,871
776,87	40,670
777,06	59,748
777,24	15,126
777,43	42,781
777,62	44,944
777,80	36,478
777,99	45,000
778,18	50,000
778,36	35,593
778,55	-8,475
778,74	21,094
778,92	38,272
779,11	24,545
779,29	21,986
779,48	39,007
779,67	58,559
779,85	8,772
780,04	36,957
780,23	52,381
780,41	74,576
780,60	25,503
780,79	41,129
780,97	40,523
781,16	34,574
781,34	41,216
781,53	67,857
781,72	43,243
781,90	14,371
782,09	25,581
782,28	31,973
782,46	58,571
782,65	44,366
782,83	19,497
783,02	34,211
783,21	33,835
783,39	34,454
783,58	39,130
783,76	38,776
783,95	74,648
784,14	34,211
784,32	-23,529
784,51	41,892
784,69	28,906
784,88	55,140
785,06	34,437
785,25	16,312
785,44	-19,355
785,62	42,143
785,81	15,741
785,99	22,556
786,18	25,225
786,37	49,451
786,55	34,028
786,74	35,455
786,92	11,189
787,11	18,750
787,29	51,786
787,48	60,215
787,67	33,019
787,85	51,899
788,04	56,757
788,22	13,861
788,41	54,331
788,59	51,974
788,78	26,374
788,96	23,140
789,15	54,167
789,34	19,231
789,52	25,806
789,71	56,115
789,89	45,455
790,08	37,500
790,26	45,860
790,45	47,222
790,63	10,345
790,82	33,846
791,00	38,053
791,19	18,400
791,38	44,762
791,56	14,545
791,75	61,111
791,93	70,000
792,12	23,478
792,30	63,504
792,49	20,202
792,67	31,618
792,86	41,600
793,04	28,704
793,23	49,474
793,41	46,377
793,60	47,917
793,78	65,714
793,97	52,083
794,15	84,211
794,34	38,667
794,52	0,000
794,71	42,636
794,89	29,545
795,08	52,800
795,26	54,667
795,45	95,833
795,63	33,871
795,82	53,846
796,00	69,000
796,19	72,358
796,37	38,931
796,56	52,427
796,74	35,789
796,93	83,333
797,11	59,036
797,30	54,444
797,48	18,750
797,67	21,951
797,85	65,385
798,04	50,000
798,22	70,513
798,41	57,692
798,59	50,476
798,77	40,964
798,96	50,000
799,14	51,613
799,33	51,376
799,51	68,056
799,70	53,846
799,88	58,716
800,07	82,443
800,25	60,241
800,44	85,185
800,62	34,722
800,80	37,324
800,99	134,247
801,17	58,621
801,36	56,429
801,54	45,000
801,73	24,211
801,91	34,711
802,10	52,941
802,28	60,000
802,46	52,632
802,65	35,252
802,83	73,333
803,02	52,419
803,20	112,048
803,39	59,770
803,57	21,260
803,75	56,098
803,94	30,159
804,12	62,069
804,31	21,739
804,49	28,000
804,67	16,176
804,86	40,708
805,04	59,036
805,23	73,451
805,41	13,333
805,59	62,329
805,78	76,800
805,96	57,831
806,15	68,317
806,33	40,789
806,51	0,000
806,70	60,150
806,88	24,419
807,07	86,486
807,25	68,132
807,43	50,893
807,62	45,133
807,80	27,619
807,99	73,846
808,17	31,496
808,35	34,000
808,54	54,348
808,72	81,982
808,90	43,151
809,09	28,261
809,27	88,000
809,46	87,912
809,64	74,390
809,82	26,490
810,01	37,500
810,19	45,455
810,37	49,219
810,56	104,444
810,74	76,623
810,92	36,667
811,11	2,632
811,29	50,943
811,48	16,923
811,66	82,022
811,84	12,088
812,03	41,803
812,21	55,263
812,39	20,870
812,58	41,053
812,76	29,496
812,94	50,602
813,13	39,362
813,31	79,000
813,49	28,704
813,68	46,364
813,86	19,101
814,04	31,405
814,23	25,904
814,41	34,831
814,59	63,107
814,78	22,794
814,96	33,333
815,14	8,411
815,33	16,279
815,51	62,992
815,69	45,714
815,87	26,733
816,06	37,391
816,24	45,963
816,42	38,971
816,61	67,296
816,79	54,310
816,97	86,364
817,16	24,260
817,34	68,254
817,52	39,669
817,70	43,564
817,89	57,037
818,07	39,726
818,25	62,245
818,44	52,564
818,62	19,380
818,80	7,519
818,98	28,025
819,17	61,345
819,35	50,532
819,53	61,940
819,72	43,038
819,90	58,915
820,08	10,256
820,26	25,862
820,45	23,490
820,63	75,000
820,81	40,000
820,99	25,532
821,18	34,694
821,36	61,392
821,54	31,724
821,73	35,556
821,91	72,807
822,09	23,387
822,27	44,516
822,46	13,971
822,64	17,600
822,82	28,729
823,00	18,232
823,19	35,714
823,37	29,697
823,55	29,545
823,73	46,897
823,91	28,261
824,10	48,925
824,28	50,251
824,46	17,476
824,64	55,921
824,83	32,298
825,01	15,333
825,19	27,419
825,37	49,565
825,56	52,830
825,74	38,776
825,92	33,758
826,10	48,864
826,28	25,595
826,47	44,737
826,65	71,631
826,83	50,000
827,01	41,040
827,19	54,762
827,38	53,704
827,56	27,273
827,74	18,994
827,92	36,047
828,10	7,692
828,29	60,947
828,47	37,398
828,65	4,615
828,83	-1,212
829,01	19,565
829,20	44,505
829,38	35,795
829,56	38,043
829,74	3,774
829,92	23,016
830,10	44,253
830,29	38,191
830,47	31,156
830,65	18,293
830,83	25,446
831,01	35,119
831,20	49,029
831,38	18,660
831,56	49,302
831,74	54,028
831,92	56,579
832,10	40,000
832,29	16,216
832,47	6,180
832,65	31,863
832,83	4,695
833,01	18,500
833,19	11,765
833,37	27,149
833,56	44,304
833,74	30,392
833,92	26,852
834,10	13,693
834,28	29,536
834,46	19,910
834,64	18,981
834,83	35,909
835,01	38,589
835,19	14,400
835,37	21,488
835,55	15,625
835,73	45,813
835,91	39,483
836,09	22,814
836,28	38,745
836,46	16,800
836,64	25,564
836,82	19,910
837,00	34,058
837,18	22,677
837,36	29,482
837,54	25,000
837,72	29,310
837,91	19,403
838,09	15,538
838,27	30,667
838,45	20,922
838,63	33,824
838,81	1,266
838,99	30,242
839,17	6,419
839,35	26,241
839,53	10,526
839,72	17,293
839,90	15,464
840,08	37,538
840,26	15,873
840,44	21,148
840,62	9,655
840,80	18,367
840,98	12,157
841,16	12,548
841,34	17,726
841,52	28,135
841,70	16,000
841,89	15,323
842,07	9,091
842,25	24,713
842,43	18,103
842,61	31,228
842,79	18,644
842,97	6,189
843,15	32,013
843,33	12,303
843,51	15,964
843,69	27,920
843,87	14,925
844,05	12,766
844,23	30,931
844,41	12,539
844,59	9,510
844,77	10,644
844,95	12,717
845,13	17,846
845,31	15,988
845,50	25,131
845,68	30,547
845,86	21,552
846,04	19,553
846,22	7,084
846,40	19,624
846,58	15,100
846,76	21,774
846,94	19,202
847,12	12,953
847,30	6,701
847,48	7,740
847,66	14,286
847,84	7,650
848,02	16,908
848,20	3,876
848,38	14,530
848,56	9,375
848,74	31,981
848,92	4,489
849,10	5,750
849,28	13,563
849,46	27,200
849,64	19,400
849,82	5,247
850,00	20,794
850,18	10,000
850,36	1,104
850,54	17,293
850,72	6,684
850,90	20,435
851,08	15,536
851,26	12,254
851,44	15,265
851,62	10,233
851,80	15,859
851,98	17,802
852,16	12,766
852,34	11,959
852,52	13,839
852,70	0,911
852,87	5,251
853,05	5,653
853,23	5,979
853,41	12,245
853,59	18,050
853,77	14,683
853,95	18,776
854,13	5,752
854,31	17,454
854,49	8,782
854,67	11,231
854,85	11,594
855,03	18,236
855,21	19,579
855,39	6,439
855,57	7,168
855,75	4,927
855,93	7,059
856,11	22,824
856,28	13,284
856,46	16,726
856,64	14,667
856,82	15,120
857,00	6,491
857,18	4,152
857,36	13,322
857,54	15,398
857,72	15,088
857,90	6,642
858,08	13,529
858,26	4,555
858,44	3,509
858,61	15,157
858,79	14,533
858,97	12,920
859,15	12,848
859,33	12,969
859,51	10,050
859,69	5,725
859,87	10,049
860,05	6,394
860,23	11,526
860,40	7,473
860,58	4,918
860,76	8,095
860,94	12,033
861,12	7,692
861,30	5,338
861,48	12,714
861,66	4,762
861,84	6,129
862,01	10,457
862,19	5,763
862,37	5,598
862,55	8,357
862,73	6,347
862,91	3,524
863,09	10,863
863,27	2,299
863,44	9,591
863,62	5,571
863,80	5,485
863,98	4,896
864,16	0,578
864,34	8,628
864,52	12,601
864,69	10,088
864,87	2,894
865,05	11,293
865,23	7,190
865,41	5,780
865,59	5,922
865,76	10,349
865,94	15,633
866,12	6,710
866,30	7,153
866,48	15,667
866,66	0,134
866,83	10,051
867,01	6,266
867,19	6,372
867,37	8,926
867,55	8,363
867,73	8,293
867,90	7,425
868,08	5,320
868,26	8,211
868,44	2,696
868,62	8,968
868,79	7,904
868,97	6,171
869,15	2,900
869,33	5,739
869,51	7,317
869,69	6,098
869,86	5,380
870,04	10,805
870,22	5,585
870,40	4,561
870,57	6,805
870,75	8,287
870,93	4,000
871,11	2,381
871,29	6,849
871,46	6,512
871,64	5,439
871,82	8,181
872,00	11,934
872,18	3,165
872,35	7,596
872,53	6,579
872,71	3,878
872,89	10,191
873,06	6,438
873,24	5,238
873,42	1,687
873,60	8,114
873,77	4,090
873,95	3,309
874,13	1,374
874,31	1,342
874,49	5,615
874,66	3,571
874,84	4,714
875,02	3,391
875,20	4,926
875,37	8,029
875,55	6,679
875,73	1,836
875,91	5,112
876,08	2,194
876,26	3,445
876,44	7,385
876,61	8,380
876,79	6,299
876,97	0,182
877,15	6,960
877,32	5,541
877,50	2,732
877,68	1,028
877,86	2,634
878,03	4,632
878,21	2,930
878,39	3,609
878,56	1,736
878,74	5,963
878,92	2,421
879,10	4,074
879,27	7,710
879,45	4,482
879,63	0,621
879,80	7,410
879,98	-0,828
880,16	5,604
880,34	7,222
880,51	0,552
880,69	1,414
880,87	3,116
881,04	4,559
881,22	4,925
881,40	4,549
881,57	4,494
881,75	5,471
881,93	5,787
882,10	3,865
882,28	4,345
882,46	4,110
882,63	4,175
882,81	5,690
882,99	5,020
883,16	5,650
883,34	2,473
883,52	2,616
883,69	5,354
883,87	1,367
884,05	3,593
884,22	3,001
884,40	5,363
884,58	0,193
884,75	2,584
884,93	3,285
885,11	6,064
885,28	1,871
885,46	1,599
885,64	1,719
885,81	3,180
885,99	1,239
886,17	2,328
886,34	1,394
886,52	0,932
886,70	4,472
886,87	3,045
887,05	3,086
887,22	0,996
887,40	5,604
887,58	2,352
887,75	4,097
887,93	4,345
888,11	3,909
888,28	2,017
888,46	4,958
888,63	0,768
888,81	3,335
888,99	4,091
889,16	2,331
889,34	0,149
889,51	4,102
889,69	1,512
889,87	4,324
890,04	3,350
890,22	3,462
890,39	2,333
890,57	4,748
890,75	3,039
890,92	3,295
891,10	1,970
891,27	2,222
891,45	2,926
891,63	4,153
891,80	2,251
891,98	0,598
892,15	1,878
892,33	2,677
892,51	3,852
892,68	4,303
892,86	1,505
893,03	3,524
893,21	3,398
893,38	3,312
893,56	1,946
893,74	3,465
893,91	3,516
894,09	3,848
894,26	4,451
894,44	4,022
894,61	2,169
894,79	4,289
894,96	1,024
895,14	2,712
895,32	3,161
895,49	3,068
895,67	2,914
895,84	0,973
896,02	2,105
896,19	0,971
896,37	3,285
896,54	0,660
896,72	0,325
896,89	3,154
897,07	4,953
897,25	3,830
897,42	3,141
897,60	4,125
897,77	3,339
897,95	3,352
898,12	3,279
898,30	2,366
898,47	2,484
898,65	-0,117
898,82	1,787
899,00	1,809
899,17	4,058
899,35	1,103
899,52	4,260
899,70	3,281
899,87	1,298
900,05	1,142
900,22	1,181
900,40	0,983
900,57	2,263
900,75	0,822
900,92	3,040
901,10	2,345
901,27	1,999
901,45	4,248
901,62	3,559
901,80	2,201
901,97	2,410
902,15	2,884
902,32	1,904
902,50	0,287
902,67	3,837
902,85	1,711
903,02	2,960
903,20	2,319
903,37	0,819
903,54	3,520
903,72	3,107
903,89	2,212
904,07	1,319
904,24	3,416
904,42	0,775
904,59	1,071
904,77	3,077
904,94	1,849
905,12	1,914
905,29	1,194
905,47	2,091
905,64	3,348
905,81	2,888
905,99	0,665
906,16	-0,416
906,34	2,191
906,51	0,864
906,69	3,071
906,86	2,178
907,03	1,245
907,21	1,594
907,38	3,063
907,56	3,155
907,73	2,608
907,91	2,126
908,08	2,307
908,25	3,518
908,43	0,369
908,60	0,291
908,78	1,443
908,95	2,745
909,13	3,833
909,30	2,049
909,47	0,946
909,65	1,181
909,82	2,539
910,00	1,827
910,17	2,748
910,34	2,310
910,52	1,744
910,69	1,262
910,87	2,600
911,04	1,938
911,21	2,816
911,39	0,213
911,56	2,242
911,73	1,562
911,91	1,599
912,08	3,663
912,26	1,540
912,43	3,374
912,60	1,643
912,78	1,886
912,95	2,130
913,13	2,945
913,30	2,135
913,47	1,969
913,65	3,209
913,82	1,930
913,99	1,135
914,17	1,873
914,34	2,527
914,51	4,115
914,69	2,095
914,86	1,826
915,03	2,218
915,21	1,234
915,38	1,127
915,56	2,306
915,73	1,421
915,90	2,619
916,08	2,801
916,25	1,952
916,42	1,803
916,60	1,112
916,77	1,958
916,94	1,335
917,12	1,830
917,29	1,599
917,46	1,867
917,64	0,779
917,81	0,055
917,98	0,409
918,16	1,632
918,33	1,138
918,50	2,556
918,67	1,727
918,85	1,033
919,02	2,590
919,19	2,163
919,37	0,681
919,54	1,711
919,71	2,376
919,89	0,755
920,06	2,152
920,23	1,688
920,41	1,446
920,58	1,248
920,75	1,288
920,92	0,457
921,10	1,514
921,27	0,900
921,44	2,584
921,62	1,593
921,79	1,588
921,96	0,981
922,13	1,802
922,31	1,240
922,48	1,325
922,65	0,705
922,82	1,332
923,00	1,352
923,17	1,956
923,34	0,928
923,52	0,842
923,69	2,039
923,86	1,900
924,03	1,982
924,21	1,890
924,38	1,423
924,55	1,893
924,72	0,047
924,90	0,606
925,07	1,205
925,24	0,566
925,41	2,871
925,59	1,736
925,76	-0,231
925,93	1,272
926,10	1,111
926,28	1,611
926,45	1,021
926,62	0,676
926,79	1,480
926,96	2,053
927,14	3,126
927,31	2,030
927,48	1,343
927,65	2,076
927,83	1,236
928,00	1,271
928,17	1,499
928,34	0,694
928,51	0,986
928,69	0,983
928,86	1,421
929,03	1,866
929,20	1,593
929,37	0,128
929,55	1,563
929,72	0,994
929,89	0,733
930,06	1,356
930,23	1,759
930,41	1,291
930,58	1,536
930,75	1,370
930,92	1,077
931,09	1,311
931,27	1,052
931,44	0,696
931,61	2,219
931,78	1,075
931,95	1,490
932,12	2,866
932,30	1,424
932,47	0,144
932,64	2,578
932,81	0,771
932,98	2,109
933,16	1,632
933,33	1,641
933,50	1,914
933,67	2,667
933,84	2,425
934,01	1,631
934,18	1,245
934,36	2,208
934,53	2,354
934,70	1,026
934,87	2,004
935,04	2,134
935,21	1,677
935,38	2,024
935,56	2,518
935,73	2,255
935,90	2,579
936,07	2,650
936,24	3,899
936,41	3,333
936,58	3,321
936,76	3,439
936,93	3,446
937,10	4,520
937,27	5,390
937,44	5,975
937,61	6,170
937,78	6,107
937,95	6,181
938,13	6,237
938,30	7,091
938,47	7,242
938,64	7,782
938,81	7,374
938,98	7,619
939,15	8,606
939,32	8,958
939,49	10,094
939,66	10,278
939,84	10,925
940,01	11,287
940,18	12,692
940,35	12,513
940,52	13,396
940,69	14,407
940,86	15,063
941,03	16,529
941,20	15,536
941,37	14,863
941,54	17,316
941,71	17,176
941,89	17,856
942,06	17,082
942,23	17,875
942,40	17,491
942,57	19,390
942,74	19,154
942,91	20,210
943,08	19,739
943,25	21,061
943,42	20,520
943,59	20,830
943,76	20,711
943,93	21,143
944,10	19,509
944,27	21,471
944,44	21,567
944,61	22,240
944,79	22,851
944,96	24,498
945,13	21,551
945,30	22,854
945,47	24,373
945,64	23,295
945,81	24,738
945,98	25,341
946,15	24,682
946,32	24,981
946,49	25,717
946,66	27,352
946,83	26,365
947,00	26,940
947,17	27,120
947,34	29,281
947,51	28,294
947,68	29,492
947,85	28,934
948,02	29,049
948,19	29,855
948,36	30,213
948,53	31,033
948,70	30,592
948,87	32,232
949,04	33,564
949,21	31,908
949,38	33,690
949,55	32,567
949,72	33,648
949,89	31,650
950,06	33,466
950,23	32,661
950,40	31,434
950,57	31,244
950,74	35,820
950,91	33,272
951,08	34,523
951,25	32,626
951,42	30,708
951,59	30,167
951,76	32,670
951,93	31,340
952,10	31,439
952,27	31,897
952,44	32,942
952,61	31,255
952,77	31,340
952,94	34,361
953,11	31,996
953,28	31,845
953,45	31,920
953,62	29,682
953,79	32,840
953,96	30,889
954,13	31,052
954,30	33,543
954,47	30,790
954,64	29,903
954,81	32,979
954,98	28,202
955,15	30,290
955,32	25,479
955,49	31,772
955,65	31,565
955,82	28,454
955,99	30,139
956,16	31,465
956,33	27,809
956,50	27,065
956,67	26,216
956,84	26,855
957,01	26,418
957,18	27,300
957,35	24,175
957,52	30,514
957,68	27,063
957,85	28,365
958,02	27,656
958,19	26,429
958,36	31,023
958,53	24,740
958,70	25,767
958,87	20,659
959,04	25,153
959,21	29,870
959,37	24,822
959,54	23,141
959,71	23,877
959,88	20,581
960,05	25,611
960,22	21,384
960,39	23,367
960,56	20,205
960,72	23,546
960,89	18,658
961,06	20,776
961,23	13,303
961,40	24,523
961,57	15,335
961,74	15,668
961,90	26,996
962,07	21,226
962,24	22,953
962,41	22,586
962,58	17,559
962,75	18,291
962,92	17,193
963,08	15,000
963,25	15,139
963,42	26,908
963,59	23,203
963,76	21,869
963,93	19,959
964,10	16,968
964,26	16,905
964,43	16,744
964,60	18,794
964,77	20,582
964,94	16,543
965,10	18,942
965,27	18,994
965,44	25,714
965,61	36,301
965,78	31,056
965,95	29,602
966,11	28,788
966,28	17,877
966,45	26,471
966,62	33,449
966,79	18,430
966,95	25,979
967,12	30,159
967,29	41,975
967,46	33,808
967,63	47,451
967,79	50,671
967,96	20,642
968,13	37,143
968,30	32,099
968,47	31,538
968,63	46,078
968,80	43,678
968,97	23,121
969,14	62,712
969,31	39,286
969,47	46,739
969,64	28,022
969,81	17,419
969,98	31,053
970,14	24,194
970,31	42,138
970,48	40,268
970,65	57,025
970,81	51,049
970,98	50,521
971,15	85,455
971,32	65,152
971,48	76,786
971,65	26,490
971,82	60,000
971,99	44,937
972,15	-4,651
972,32	47,222
972,49	81,967
972,66	69,421
972,82	46,575
972,99	47,500
973,16	75,497
973,33	65,926
973,49	34,146
973,66	55,238
973,83	91,358
974,00	97,468
974,16	-3,636
974,33	109,333
974,50	75,758
974,67	39,286
974,83	96,939
975,00	103,636
975,17	82,258
975,33	116,092
975,50	147,541
975,67	117,308
975,84	65,854
976,00	50,000
976,17	23,913
976,34	95,294
976,50	89,011
976,67	84,524
976,84	152,083
977,00	103,846
977,17	182,222
977,34	140,385
977,50	141,667
977,67	150,588
977,84	166,102
978,01	121,622
978,17	120,690
978,34	148,148
978,51	272,000
978,67	159,184
978,84	94,545
979,01	94,737
979,17	20,000
979,34	171,739
979,51	131,818
979,67	233,333
979,84	149,153
980,01	105,769
980,17	94,118
980,34	61,644
980,51	433,333
980,67	75,556
980,84	81,429
981,01	211,765
981,17	85,294
981,34	95,714
981,50	77,895
981,67	166,667
981,84	125,000
982,00	3000,000
982,17	176,563
982,34	153,659
982,50	0,000
982,67	-914,286
982,84	425,000
983,00	148,148
983,17	-257,143
983,33	22,222
983,50	87,805
983,67	114,493
983,83	452,381
984,00	152,174
984,17	655,556
984,33	-221,429
984,50	94,595
984,66	-56,250
984,83	237,500
985,00	353,846
985,16	70,968
985,33	6000,000
985,49	154,651
985,66	90,000
985,83	-1800,000
985,99	588,889
986,16	342,105
986,32	127,397
986,49	-1120,000
986,66	540,000
986,82	206,061
986,99	-460,000
987,15	245,455
987,32	405,882
987,49	228,571
987,65	-156,522
987,82	-215,000
987,98	98,485
988,15	171,429
988,31	160,000
988,48	158,824
988,65	500,000
988,81	12,727
988,98	267,568
989,14	390,000
989,31	128,814
989,47	-185,714
989,64	344,444
989,80	93,617
989,97	83,636
990,14	207,143
990,30	-575,000
990,47	-100,000
990,63	271,053
990,80	916,667
990,96	558,333
991,13	203,333
991,29	186,275
991,46	175,000
991,62	0,000
991,79	-250,000
991,95	382,353
992,12	1266,667
992,29	-128,571
992,45	180,952
992,62	-192,857
992,78	-916,667
992,95	293,548
993,11	712,500
993,28	-5000,000
993,44	-75,862
993,61	112,281
993,77	0,000
993,94	271,795
994,10	942,857
994,27	-121,053
994,43	212,500
994,60	664,286
994,76	236,364
994,93	-710,000
995,09	-450,000
995,26	254,167
995,42	662,500
995,59	250,000
995,75	-783,333
995,92	-614,286
996,08	-220,000
996,25	239,394
996,41	800,000
996,58	232,000
996,74	-590,000
996,91	88,710
997,07	312,000
997,23	117,647
997,40	650,000
997,56	-1300,000
997,73	360,870
997,89	940,000
998,06	94,737
998,22	134,043
998,39	195,918
998,55	515,789
998,72	-6300,000
998,88	140,000
999,05	513,333
999,21	382,353
999,37	186,047
999,54	222,581
999,70	342,857
999,87	1283,333
1000,03	270,000
1000,20	214,286
1000,36	-300,000
1000,52	2100,000
1000,69	404,000
1000,85	-491,667
1001,02	290,476
1001,18	1020,000
1001,35	0,000
1001,51	428,571
1001,67	335,000
1001,84	156,098
1002,00	-190,909
1002,17	1275,000
1002,33	-437,500
1002,50	391,667
1002,66	525,000
1002,82	239,024
1002,99	-240,909
1003,15	-6100,000
1003,32	-414,286
1003,48	-2033,333
1003,64	265,217
1003,81	-236,842
1003,97	97,101
1004,14	-85,455
1004,30	281,818
1004,46	-8000,000
1004,63	-215,385
1004,79	162,162
1004,95	-780,000
1005,12	-76,923
1005,28	191,667
1005,45	-1516,667
1005,61	361,538
1005,77	-1000,000
1005,94	163,043
1006,10	-290,000
1006,26	-237,037
1006,43	151,515
1006,59	190,323
1006,76	-272,000
1006,92	178,261
1007,08	113,636
1007,25	255,556
1007,41	250,000
1007,57	-423,529
1007,74	334,783
1007,90	-92,857
1008,06	-400,000
1008,23	-194,737
1008,39	216,667
1008,55	84,706
1008,72	-662,500
1008,88	-117,143
1009,04	-588,889
1009,21	131,250
1009,37	341,935
1009,53	-200,000
1009,70	-21,212
1009,86	289,474
1010,02	254,545
1010,19	713,333
1010,35	7900,000
1010,51	294,286
1010,68	413,636
1010,84	280,000
1011,00	600,000
1011,17	2133,333
1011,33	157,692
1011,49	450,000
1011,66	287,500
1011,82	-1208,333
1011,98	486,667
1012,14	200,000
1012,31	240,909
1012,47	-1000,000
1012,63	5600,000
1012,80	294,444
1012,96	80,556
1013,12	-159,259
1013,29	483,333
1013,45	-123,529
1013,61	-700,000
1013,77	-422,222
1013,94	250,000
1014,10	5500,000
1014,26	-52,941
1014,43	310,526
1014,59	0,000
1014,75	820,000
1014,91	217,143
1015,08	215,385
1015,24	446,667
1015,40	680,000
1015,56	464,706
1015,73	175,510
1015,89	388,889
1016,05	248,649
1016,21	162,963
1016,38	160,526
1016,54	-392,000
1016,70	405,263
1016,86	-530,769
1017,03	0,000
1017,19	812,500
1017,35	340,000
1017,51	500,000
1017,68	600,000
1017,84	289,474
1018,00	138,095
1018,16	-350,000
1018,33	290,909
1018,49	228,571
1018,65	-150,000
1018,81	-53,659
1018,97	476,923
1019,14	-700,000
1019,30	366,667
1019,46	123,077
1019,62	2800,000
1019,79	-485,714
1019,95	-1375,000
1020,11	1020,000
1020,27	197,500
1020,43	-1312,500
1020,60	0,000
1020,76	132,353
1020,92	4300,000
1021,08	-153,333
1021,24	-1650,000
1021,41	272,727
1021,57	-175,000
1021,73	0,000
1021,89	-195,455
1022,05	191,429
1022,21	-346,154
1022,38	436,842
1022,54	820,000
1022,70	288,889
1022,86	-4400,000
1023,02	844,444
1023,19	-440,000
1023,35	149,057
1023,51	270,968
1023,67	128,947
1023,83	263,636
1023,99	182,857
1024,16	21,538
1024,32	462,500
1024,48	234,694
1024,64	-560,000
1024,80	450,000
1024,96	307,692
1025,12	2866,667
1025,29	-975,000
1025,45	95,833
1025,61	3400,000
1025,77	385,714
1025,93	-192,308
1026,09	4300,000
1026,26	-414,286
1026,42	-1400,000
1026,58	134,615
1026,74	685,714
1026,90	510,526
1027,06	-550,000
1027,22	-425,000
1027,38	411,111
1027,55	-156,000
1027,71	450,000
1027,87	190,000
1028,03	116,667
1028,19	-245,455
1028,35	85,135
1028,51	-27,419
1028,67	-440,000
1028,83	145,238
1029,00	528,571
1029,16	-446,667
1029,32	341,176
1029,48	2350,000
1029,64	857,143
1029,80	1166,667
1029,96	154,902
1030,12	-150,000
1030,28	1150,000
1030,44	-900,000
1030,61	221,875
1030,77	-147,826
1030,93	167,442
1031,09	-328,571
1031,25	-622,222
1031,41	-2650,000
1031,57	-178,947
1031,73	545,455
1031,89	-196,970
1032,05	1300,000
1032,21	790,000
1032,37	-88,235
1032,53	-275,000
1032,69	-3900,000
1032,86	1133,333
1033,02	118,750
1033,18	-569,231
1033,34	-15,385
1033,50	296,774
1033,66	-177,778
1033,82	267,857
1033,98	-423,529
1034,14	944,444
1034,30	-86,364
1034,46	275,000
1034,62	266,667
1034,78	166,667
1034,94	-22,581
1035,10	-336,364
1035,26	-788,889
1035,42	91,429
1035,58	1580,000
1035,74	-93,333
1035,90	-550,000
1036,06	177,358
1036,22	-236,000
1036,38	486,667
1036,54	610,000
1036,70	-2600,000
1036,86	-492,857
1037,02	-3650,000
1037,18	-207,143
1037,34	447,826
1037,50	-513,333
1037,66	-2366,667
1037,82	-194,118
1037,98	414,286
1038,14	-93,103
1038,30	34,615
1038,46	102,083
1038,62	209,677
1038,78	180,952
1038,94	-123,684
1039,10	-237,500
1039,26	-405,263
1039,42	-871,429
1039,58	116,981
1039,74	84,375
1039,90	-48,718
1040,06	235,294
>>>>>End Processed Spectral Data<<<<<
