SpectraSuite Data File
++++++++++++++++++++++++++++++++++++
Date: Thu Feb 02 17:33:36 EET 2017
User: optolab
Dark Spectrum Present: Yes
Reference Spectrum Present: Yes
Number of Sampled Component Spectra: 1
Spectrometers: USB4C02475
Integration Time (usec): 100000 (USB4C02475)
Spectra Averaged: 1 (USB4C02475)
Boxcar Smoothing: 0 (USB4C02475)
Correct for Electrical Dark: No (USB4C02475)
Strobe/Lamp Enabled: No (USB4C02475)
Correct for Detector Non-linearity: No (USB4C02475)
Correct for Stray Light: No (USB4C02475)
Number of Pixels in Processed Spectrum: 3648
>>>>>Begin Processed Spectral Data<<<<<
344,91	-1200,000
345,13	-1200,000
345,35	-1200,000
345,57	-182,353
345,79	-17,391
346,00	-226,471
346,22	-914,286
346,44	-160,606
346,66	276,596
346,87	186,957
347,09	684,615
347,31	7800,000
347,53	-2175,000
347,74	-151,163
347,96	-1014,286
348,18	244,118
348,40	658,824
348,61	-223,077
348,83	5600,000
349,05	197,436
349,27	400,000
349,48	-4500,000
349,70	428,571
349,92	347,619
350,14	210,811
350,35	-484,615
350,57	-472,222
350,79	-84,615
351,01	-173,333
351,22	400,000
351,44	441,667
351,66	222,222
351,87	1133,333
352,09	110,526
352,31	189,286
352,53	200,000
352,74	-614,286
352,96	442,105
353,18	165,625
353,40	-812,500
353,61	466,667
353,83	108,333
354,05	315,625
354,26	371,429
354,48	-420,000
354,70	257,143
354,92	261,111
355,13	-118,605
355,35	111,111
355,57	185,937
355,78	285,714
356,00	204,255
356,22	109,091
356,44	251,163
356,65	300,000
356,87	211,111
357,09	222,857
357,30	115,909
357,52	-1383,333
357,74	396,774
357,95	282,857
358,17	111,594
358,39	244,000
358,60	250,000
358,82	295,455
359,04	192,308
359,26	61,364
359,47	-446,154
359,69	175,000
359,91	532,000
360,12	280,000
360,34	83,333
360,56	-1550,000
360,77	722,222
360,99	383,333
361,21	234,783
361,42	-1775,000
361,64	-118,519
361,86	104,478
362,07	740,000
362,29	192,500
362,51	264,865
362,72	-840,000
362,94	362,963
363,16	122,857
363,37	945,455
363,59	-4900,000
363,81	675,000
364,02	96,000
364,24	186,364
364,46	276,190
364,67	164,286
364,89	517,647
365,11	259,459
365,32	344,444
365,54	318,750
365,76	140,909
365,97	241,463
366,19	119,298
366,41	840,000
366,62	109,000
366,84	608,333
367,05	112,745
367,27	1620,000
367,49	243,590
367,70	500,000
367,92	164,583
368,14	-0,000
368,35	144,118
368,57	87,879
368,79	226,923
369,00	103,846
369,22	394,444
369,43	215,789
369,65	-117,241
369,87	-476,471
370,08	340,000
370,30	471,429
370,51	627,273
370,73	155,556
370,95	370,000
371,16	96,491
371,38	260,377
371,60	353,333
371,81	108,696
372,03	-475,000
372,24	-143,750
372,46	2100,000
372,68	147,059
372,89	94,495
373,11	188,372
373,32	85,714
373,54	463,636
373,76	333,333
373,97	260,606
374,19	-342,105
374,40	122,857
374,62	347,059
374,84	283,333
375,05	263,462
375,27	232,432
375,48	91,358
375,70	441,176
375,92	201,786
376,13	315,789
376,35	295,833
376,56	220,000
376,78	69,388
376,99	300,000
377,21	281,250
377,43	142,424
377,64	166,000
377,86	300,000
378,07	134,091
378,29	177,778
378,51	78,571
378,72	-95,455
378,94	100,000
379,15	172,727
379,37	481,250
379,58	86,667
379,80	129,545
380,01	194,000
380,23	286,957
380,45	158,333
380,66	83,333
380,88	189,189
381,09	360,870
381,31	276,923
381,52	195,652
381,74	119,643
381,95	375,000
382,17	192,000
382,39	151,613
382,60	394,118
382,82	406,897
383,03	2233,333
383,25	97,531
383,46	350,000
383,68	142,553
383,89	368,182
384,11	186,301
384,32	210,526
384,54	-785,714
384,76	279,412
384,97	190,000
385,19	321,053
385,40	278,125
385,62	203,226
385,83	65,957
386,05	942,857
386,26	265,385
386,48	484,615
386,69	219,444
386,91	330,000
387,12	192,308
387,34	67,797
387,55	111,429
387,77	268,000
387,98	202,041
388,20	153,521
388,41	53,968
388,63	118,571
388,84	252,500
389,06	253,488
389,27	171,875
389,49	93,976
389,70	161,017
389,92	50,000
390,13	100,000
390,35	51,042
390,56	148,437
390,78	81,818
390,99	104,444
391,21	100,000
391,42	141,304
391,64	-60,000
391,85	139,655
392,07	-107,143
392,28	107,692
392,50	1700,000
392,71	6200,000
392,93	114,516
393,14	226,087
393,36	112,821
393,57	291,667
393,79	95,238
394,00	108,219
394,22	92,000
394,43	296,429
394,65	264,286
394,86	181,250
395,08	-562,500
395,29	72,340
395,50	-2800,000
395,72	742,857
395,93	232,000
396,15	-185,714
396,36	216,667
396,58	-185,714
396,79	120,930
397,01	195,238
397,22	133,333
397,44	206,383
397,65	67,568
397,87	150,000
398,08	219,231
398,29	400,000
398,51	190,244
398,72	182,609
398,94	146,512
399,15	23,333
399,37	156,522
399,58	163,492
399,80	153,333
400,01	147,059
400,22	500,000
400,44	261,905
400,65	100,000
400,87	4700,000
401,08	105,618
401,30	121,333
401,51	130,909
401,72	183,871
401,94	190,244
402,15	69,388
402,37	163,636
402,58	197,674
402,80	293,750
403,01	102,778
403,22	89,157
403,44	177,778
403,65	157,143
403,87	168,000
404,08	178,846
404,30	125,000
404,51	118,571
404,72	781,818
404,94	145,783
405,15	152,239
405,37	159,341
405,58	151,613
405,79	442,857
406,01	97,037
406,22	103,571
406,44	143,860
406,65	147,619
406,86	160,000
407,08	116,049
407,29	145,333
407,51	60,577
407,72	119,802
407,93	153,165
408,15	128,409
408,36	268,571
408,58	130,000
408,79	93,798
409,00	92,199
409,22	111,765
409,43	94,595
409,64	76,282
409,86	95,455
410,07	88,696
410,29	67,333
410,50	80,159
410,71	77,419
410,93	81,188
411,14	120,561
411,35	72,917
411,57	61,806
411,78	84,559
412,00	86,000
412,21	65,044
412,42	68,293
412,64	85,556
412,85	52,332
413,06	71,429
413,28	80,000
413,49	79,070
413,70	80,687
413,92	80,000
414,13	57,708
414,34	46,840
414,56	65,957
414,77	46,863
414,98	66,784
415,20	68,817
415,41	65,584
415,63	45,299
415,84	37,950
416,05	37,651
416,27	32,312
416,48	36,967
416,69	27,326
416,91	39,200
417,12	27,376
417,33	28,668
417,55	26,200
417,76	24,101
417,97	25,655
418,19	19,038
418,40	22,175
418,61	23,671
418,83	20,599
419,04	25,891
419,25	28,070
419,46	26,164
419,68	22,419
419,89	23,979
420,10	22,043
420,32	20,530
420,53	20,764
420,74	17,204
420,96	17,536
421,17	16,306
421,38	12,209
421,60	13,934
421,81	6,406
422,02	7,262
422,23	10,086
422,45	4,880
422,66	6,856
422,87	7,549
423,09	2,489
423,30	4,512
423,51	5,279
423,73	4,932
423,94	4,477
424,15	2,587
424,36	5,303
424,58	4,307
424,79	3,709
425,00	4,467
425,22	4,471
425,43	2,557
425,64	2,662
425,85	3,157
426,07	3,419
426,28	2,242
426,49	3,306
426,71	1,809
426,92	2,327
427,13	1,783
427,34	3,030
427,56	3,768
427,77	1,159
427,98	3,134
428,19	0,543
428,41	2,090
428,62	2,006
428,83	1,541
429,04	3,699
429,26	0,516
429,47	2,940
429,68	0,933
429,89	1,315
430,11	2,199
430,32	2,273
430,53	0,750
430,74	2,879
430,96	2,170
431,17	1,284
431,38	1,209
431,59	1,122
431,81	0,622
432,02	1,658
432,23	2,325
432,44	0,927
432,66	1,349
432,87	0,803
433,08	1,947
433,29	1,006
433,51	1,648
433,72	1,479
433,93	0,647
434,14	1,015
434,35	0,804
434,57	1,046
434,78	1,371
434,99	0,900
435,20	1,472
435,42	0,921
435,63	0,745
435,84	1,293
436,05	0,946
436,26	0,318
436,48	1,360
436,69	0,661
436,90	0,722
437,11	0,770
437,32	0,865
437,54	1,099
437,75	1,010
437,96	0,932
438,17	1,282
438,38	0,350
438,60	1,165
438,81	0,628
439,02	0,901
439,23	1,061
439,44	0,334
439,66	0,494
439,87	0,638
440,08	0,702
440,29	0,502
440,50	0,902
440,72	0,756
440,93	0,819
441,14	0,724
441,35	0,299
441,56	0,572
441,77	0,328
441,99	0,213
442,20	0,447
442,41	0,485
442,62	0,353
442,83	0,369
443,04	0,185
443,26	0,557
443,47	0,554
443,68	0,377
443,89	0,582
444,10	0,568
444,31	0,926
444,53	0,504
444,74	0,445
444,95	0,106
445,16	0,180
445,37	0,270
445,58	0,360
445,80	0,294
446,01	0,547
446,22	0,601
446,43	0,535
446,64	0,214
446,85	0,273
447,06	0,481
447,28	0,406
447,49	0,232
447,70	0,714
447,91	0,540
448,12	0,262
448,33	0,401
448,54	0,030
448,76	0,418
448,97	0,430
449,18	0,678
449,39	0,409
449,60	0,442
449,81	0,551
450,02	0,607
450,23	0,504
450,45	0,392
450,66	0,332
450,87	0,492
451,08	0,420
451,29	0,663
451,50	0,624
451,71	0,571
451,92	0,222
452,13	0,775
452,35	0,201
452,56	0,612
452,77	0,865
452,98	0,593
453,19	0,643
453,40	0,719
453,61	0,685
453,82	0,422
454,03	0,663
454,25	0,566
454,46	0,376
454,67	0,645
454,88	0,568
455,09	0,850
455,30	0,655
455,51	0,599
455,72	0,812
455,93	0,568
456,14	0,735
456,35	0,642
456,56	0,814
456,78	0,851
456,99	0,799
457,20	0,795
457,41	0,445
457,62	0,534
457,83	0,681
458,04	0,577
458,25	0,577
458,46	0,487
458,67	0,648
458,88	0,671
459,09	0,918
459,30	0,606
459,51	0,844
459,73	0,737
459,94	1,092
460,15	0,751
460,36	0,900
460,57	0,955
460,78	0,904
460,99	1,173
461,20	1,353
461,41	1,536
461,62	1,943
461,83	2,370
462,04	2,836
462,25	3,604
462,46	4,190
462,67	4,552
462,88	5,539
463,09	6,653
463,30	7,650
463,51	8,583
463,72	9,801
463,93	11,290
464,15	12,611
464,36	13,921
464,57	15,295
464,78	16,672
464,99	18,773
465,20	20,304
465,41	22,547
465,62	23,879
465,83	26,624
466,04	28,311
466,25	30,785
466,46	32,572
466,67	34,069
466,88	36,676
467,09	37,693
467,30	40,386
467,51	42,076
467,72	44,070
467,93	46,960
468,14	49,270
468,35	51,918
468,56	54,701
468,77	57,600
468,98	60,249
469,19	63,509
469,40	66,416
469,61	68,111
469,82	71,330
470,03	72,409
470,24	74,442
470,45	75,789
470,66	76,819
470,87	78,394
471,08	79,978
471,29	81,722
471,50	82,732
471,71	84,238
471,92	86,045
472,13	86,579
472,34	88,031
472,55	89,602
472,76	90,022
472,97	90,497
473,18	91,551
473,39	92,346
473,60	91,418
473,81	91,467
474,01	91,850
474,22	91,739
474,43	93,274
474,64	92,277
474,85	91,184
475,06	90,687
475,27	91,665
475,48	90,093
475,69	90,148
475,90	89,084
476,11	89,065
476,32	87,579
476,53	87,892
476,74	87,383
476,95	86,209
477,16	85,621
477,37	84,054
477,58	84,354
477,79	83,881
478,00	82,648
478,21	82,797
478,41	81,508
478,62	81,323
478,83	79,674
479,04	76,979
479,25	77,288
479,46	78,183
479,67	76,648
479,88	76,090
480,09	74,952
480,30	74,268
480,51	73,259
480,72	71,999
480,93	72,347
481,14	69,833
481,34	68,462
481,55	67,207
481,76	64,849
481,97	64,416
482,18	61,741
482,39	61,380
482,60	58,833
482,81	57,304
483,02	55,995
483,23	55,035
483,44	53,281
483,65	52,969
483,85	51,634
484,06	50,588
484,27	50,074
484,48	48,639
484,69	47,083
484,90	45,821
485,11	42,962
485,32	41,627
485,53	39,896
485,73	37,414
485,94	35,230
486,15	33,571
486,36	31,257
486,57	28,215
486,78	26,139
486,99	23,994
487,20	21,814
487,41	19,660
487,61	17,844
487,82	15,698
488,03	13,819
488,24	12,363
488,45	10,271
488,66	9,103
488,87	7,777
489,08	6,760
489,28	5,414
489,49	4,517
489,70	3,905
489,91	3,232
490,12	2,628
490,33	2,199
490,54	2,014
490,74	1,797
490,95	1,528
491,16	1,271
491,37	1,301
491,58	0,829
491,79	0,819
492,00	0,443
492,20	0,804
492,41	0,474
492,62	0,401
492,83	0,484
493,04	0,497
493,25	0,552
493,45	0,409
493,66	0,566
493,87	0,448
494,08	0,240
494,29	0,271
494,50	0,389
494,70	0,478
494,91	0,440
495,12	0,259
495,33	0,544
495,54	0,339
495,75	0,416
495,95	0,365
496,16	0,494
496,37	0,404
496,58	0,382
496,79	0,386
496,99	0,299
497,20	0,358
497,41	0,346
497,62	0,320
497,83	0,384
498,04	0,290
498,24	0,297
498,45	0,336
498,66	0,508
498,87	0,415
499,08	0,235
499,28	0,271
499,49	0,419
499,70	0,302
499,91	0,264
500,12	0,308
500,32	0,387
500,53	0,392
500,74	0,542
500,95	0,197
501,15	0,373
501,36	0,334
501,57	0,375
501,78	0,326
501,99	0,257
502,19	0,270
502,40	0,275
502,61	0,384
502,82	0,341
503,02	0,192
503,23	0,219
503,44	0,421
503,65	0,268
503,86	0,209
504,06	0,397
504,27	0,437
504,48	0,409
504,69	0,418
504,89	0,230
505,10	0,240
505,31	0,540
505,52	0,326
505,72	0,525
505,93	0,291
506,14	0,233
506,35	0,303
506,55	0,207
506,76	0,236
506,97	0,340
507,18	0,364
507,38	0,288
507,59	0,151
507,80	0,265
508,01	0,246
508,21	0,387
508,42	0,258
508,63	0,286
508,84	0,473
509,04	0,311
509,25	0,365
509,46	0,329
509,67	0,489
509,87	0,489
510,08	0,241
510,29	0,145
510,49	0,309
510,70	0,413
510,91	0,370
511,12	0,352
511,32	0,321
511,53	0,366
511,74	0,314
511,94	0,224
512,15	0,417
512,36	0,251
512,57	0,368
512,77	0,208
512,98	0,348
513,19	0,442
513,39	0,311
513,60	0,340
513,81	0,377
514,01	0,622
514,22	0,229
514,43	0,449
514,64	0,387
514,84	0,587
515,05	0,459
515,26	0,359
515,46	0,259
515,67	0,161
515,88	0,416
516,08	0,363
516,29	0,334
516,50	0,447
516,70	0,267
516,91	0,381
517,12	0,385
517,32	0,235
517,53	0,203
517,74	0,341
517,95	0,451
518,15	0,493
518,36	0,495
518,57	0,244
518,77	0,452
518,98	0,333
519,19	0,202
519,39	0,458
519,60	0,298
519,80	0,271
520,01	0,172
520,22	0,459
520,42	0,210
520,63	0,306
520,84	0,303
521,04	0,252
521,25	0,404
521,46	0,368
521,66	0,227
521,87	0,423
522,08	0,392
522,28	0,585
522,49	0,483
522,70	0,519
522,90	0,615
523,11	0,535
523,31	0,829
523,52	0,812
523,73	0,784
523,93	1,033
524,14	0,914
524,35	1,248
524,55	1,361
524,76	1,379
524,97	1,683
525,17	2,019
525,38	2,443
525,58	2,768
525,79	3,207
526,00	3,660
526,20	4,564
526,41	5,027
526,61	6,000
526,82	6,718
527,03	7,591
527,23	8,210
527,44	9,208
527,64	10,432
527,85	11,321
528,06	12,774
528,26	13,838
528,47	15,282
528,68	16,299
528,88	17,573
529,09	18,421
529,29	19,972
529,50	20,049
529,70	21,093
529,91	21,506
530,12	22,145
530,32	21,977
530,53	22,524
530,73	22,858
530,94	23,355
531,15	23,445
531,35	23,782
531,56	24,089
531,76	24,231
531,97	24,599
532,17	24,630
532,38	25,436
532,59	26,065
532,79	27,300
533,00	28,063
533,20	29,548
533,41	30,868
533,61	32,135
533,82	34,227
534,03	36,435
534,23	38,186
534,44	40,699
534,64	42,093
534,85	44,603
535,05	47,589
535,26	48,989
535,46	51,544
535,67	53,736
535,88	55,281
536,08	56,606
536,29	58,440
536,49	59,293
536,70	60,273
536,90	61,522
537,11	61,284
537,31	61,210
537,52	62,039
537,72	62,356
537,93	61,457
538,13	60,628
538,34	60,573
538,55	60,312
538,75	60,254
538,96	60,011
539,16	60,114
539,37	59,962
539,57	60,370
539,78	60,603
539,98	61,006
540,19	61,183
540,39	61,273
540,60	62,409
540,80	62,524
541,01	62,438
541,21	62,220
541,42	61,342
541,62	61,677
541,83	61,881
542,03	60,144
542,24	59,526
542,44	59,402
542,65	58,265
542,85	56,452
543,06	56,371
543,26	55,607
543,47	53,592
543,67	52,875
543,88	51,474
544,08	50,432
544,29	49,418
544,49	47,685
544,70	46,976
544,90	46,714
545,11	46,086
545,31	45,000
545,52	45,266
545,72	44,388
545,93	43,830
546,13	43,749
546,34	42,934
546,54	43,375
546,75	42,915
546,95	42,630
547,15	42,016
547,36	42,717
547,56	41,682
547,77	41,231
547,97	41,227
548,18	40,918
548,38	40,112
548,59	40,014
548,79	39,537
549,00	39,101
549,20	37,030
549,41	37,135
549,61	35,672
549,81	35,058
550,02	33,189
550,22	32,528
550,43	31,615
550,63	30,746
550,84	29,786
551,04	28,914
551,25	28,333
551,45	27,322
551,65	25,894
551,86	24,797
552,06	23,923
552,27	22,110
552,47	20,885
552,68	19,500
552,88	18,227
553,08	16,880
553,29	15,301
553,49	13,987
553,70	12,547
553,90	11,356
554,11	10,581
554,31	9,146
554,51	8,529
554,72	7,538
554,92	6,879
555,13	6,525
555,33	5,946
555,53	5,248
555,74	4,972
555,94	4,590
556,15	4,056
556,35	3,512
556,56	3,118
556,76	2,745
556,96	2,320
557,17	2,115
557,37	1,800
557,58	1,144
557,78	1,058
557,98	0,829
558,19	0,586
558,39	0,578
558,59	0,595
558,80	0,466
559,00	0,469
559,21	0,480
559,41	0,300
559,61	0,345
559,82	0,395
560,02	0,336
560,23	0,322
560,43	0,348
560,63	0,226
560,84	0,356
561,04	0,347
561,24	0,389
561,45	0,373
561,65	0,221
561,85	0,164
562,06	0,430
562,26	0,209
562,47	0,469
562,67	0,370
562,87	0,072
563,08	0,334
563,28	0,371
563,48	0,236
563,69	0,314
563,89	0,351
564,09	0,152
564,30	0,304
564,50	0,318
564,70	0,125
564,91	0,213
565,11	0,011
565,31	0,193
565,52	0,159
565,72	0,354
565,92	0,175
566,13	0,142
566,33	0,294
566,53	0,162
566,74	0,183
566,94	0,136
567,14	0,242
567,35	0,210
567,55	0,271
567,75	0,395
567,96	0,371
568,16	0,226
568,36	0,171
568,57	0,317
568,77	0,146
568,97	0,280
569,18	0,275
569,38	0,100
569,58	0,217
569,79	0,097
569,99	0,344
570,19	0,168
570,39	0,189
570,60	0,179
570,80	0,126
571,00	0,219
571,21	0,351
571,41	0,342
571,61	0,396
571,82	0,303
572,02	0,229
572,22	0,130
572,42	0,259
572,63	0,169
572,83	0,358
573,03	0,164
573,24	0,145
573,44	0,278
573,64	0,304
573,84	0,064
574,05	0,096
574,25	0,093
574,45	0,177
574,66	0,321
574,86	0,174
575,06	0,300
575,26	0,131
575,47	0,255
575,67	0,270
575,87	0,163
576,07	0,166
576,28	0,232
576,48	0,193
576,68	0,247
576,88	0,172
577,09	0,283
577,29	0,393
577,49	0,186
577,69	0,103
577,90	0,097
578,10	0,052
578,30	0,302
578,50	0,037
578,71	0,218
578,91	0,081
579,11	0,423
579,31	0,251
579,52	0,148
579,72	0,052
579,92	0,129
580,12	0,063
580,33	0,340
580,53	0,106
580,73	0,134
580,93	0,166
581,13	0,241
581,34	0,114
581,54	0,336
581,74	0,296
581,94	0,331
582,15	0,258
582,35	0,038
582,55	0,312
582,75	0,285
582,95	0,239
583,16	0,173
583,36	0,111
583,56	0,196
583,76	0,099
583,96	0,335
584,17	0,178
584,37	0,125
584,57	0,141
584,77	0,004
584,97	0,103
585,18	0,251
585,38	0,155
585,58	0,213
585,78	0,252
585,98	0,200
586,19	0,285
586,39	0,244
586,59	0,055
586,79	0,330
586,99	-0,084
587,20	0,073
587,40	0,271
587,60	0,052
587,80	0,088
588,00	0,231
588,20	0,274
588,41	0,256
588,61	0,300
588,81	0,285
589,01	0,251
589,21	0,264
589,41	0,109
589,62	0,066
589,82	0,175
590,02	0,193
590,22	0,197
590,42	0,237
590,62	0,198
590,83	-0,015
591,03	0,109
591,23	0,145
591,43	0,375
591,63	0,193
591,83	0,272
592,03	0,270
592,24	0,369
592,44	0,098
592,64	0,072
592,84	0,200
593,04	0,101
593,24	0,112
593,44	0,218
593,65	0,105
593,85	0,292
594,05	0,220
594,25	0,156
594,45	0,047
594,65	0,130
594,85	0,014
595,06	0,102
595,26	0,256
595,46	0,058
595,66	0,130
595,86	0,179
596,06	0,263
596,26	0,134
596,46	0,255
596,66	-0,033
596,87	0,224
597,07	0,304
597,27	0,232
597,47	0,223
597,67	0,043
597,87	-0,036
598,07	0,234
598,27	0,191
598,47	0,235
598,67	0,169
598,88	0,106
599,08	0,266
599,28	0,325
599,48	0,130
599,68	0,205
599,88	0,056
600,08	0,085
600,28	0,291
600,48	0,178
600,68	0,119
600,88	0,269
601,09	0,315
601,29	0,299
601,49	0,087
601,69	0,207
601,89	0,120
602,09	0,125
602,29	0,090
602,49	0,057
602,69	0,167
602,89	0,107
603,09	0,136
603,29	0,205
603,49	0,169
603,69	0,263
603,90	0,153
604,10	0,281
604,30	0,139
604,50	0,209
604,70	0,123
604,90	0,103
605,10	0,046
605,30	0,188
605,50	0,253
605,70	0,321
605,90	0,000
606,10	0,284
606,30	0,148
606,50	0,425
606,70	0,143
606,90	0,132
607,10	0,019
607,30	0,306
607,50	0,112
607,70	0,237
607,90	0,169
608,10	0,332
608,30	0,096
608,50	0,158
608,70	0,410
608,90	0,070
609,11	-0,062
609,31	0,268
609,51	0,254
609,71	0,203
609,91	0,008
610,11	0,417
610,31	0,160
610,51	0,167
610,71	0,262
610,91	0,184
611,11	0,137
611,31	0,121
611,51	0,149
611,71	0,040
611,91	0,308
612,11	0,263
612,31	0,182
612,51	0,212
612,71	0,060
612,91	0,083
613,11	0,167
613,31	0,087
613,51	0,088
613,71	-0,044
613,91	0,258
614,11	0,227
614,31	0,114
614,50	0,283
614,70	0,150
614,90	0,104
615,10	0,004
615,30	0,306
615,50	0,099
615,70	0,218
615,90	0,132
616,10	0,152
616,30	0,103
616,50	0,275
616,70	0,076
616,90	0,253
617,10	0,263
617,30	0,147
617,50	0,198
617,70	0,068
617,90	0,107
618,10	0,213
618,30	0,190
618,50	0,190
618,70	0,217
618,90	0,135
619,10	0,055
619,30	0,024
619,49	0,312
619,69	0,194
619,89	0,376
620,09	0,115
620,29	0,241
620,49	0,226
620,69	0,126
620,89	0,226
621,09	0,187
621,29	0,162
621,49	0,200
621,69	0,000
621,89	0,174
622,09	0,262
622,29	0,109
622,48	0,329
622,68	0,121
622,88	0,199
623,08	0,182
623,28	0,093
623,48	0,168
623,68	0,059
623,88	0,070
624,08	0,137
624,28	0,174
624,48	0,281
624,67	0,163
624,87	0,188
625,07	0,230
625,27	0,115
625,47	0,204
625,67	0,304
625,87	0,057
626,07	0,130
626,27	0,179
626,47	0,223
626,66	0,075
626,86	0,227
627,06	0,213
627,26	0,206
627,46	-0,007
627,66	0,174
627,86	0,052
628,06	0,232
628,25	0,240
628,45	0,189
628,65	0,209
628,85	0,127
629,05	0,351
629,25	0,071
629,45	0,210
629,65	0,015
629,84	0,090
630,04	0,120
630,24	0,207
630,44	0,121
630,64	0,189
630,84	0,092
631,04	0,446
631,23	0,012
631,43	0,077
631,63	0,044
631,83	0,129
632,03	0,250
632,23	0,229
632,42	0,090
632,62	0,303
632,82	0,178
633,02	0,130
633,22	0,013
633,42	0,214
633,62	0,078
633,81	0,057
634,01	0,366
634,21	0,241
634,41	0,305
634,61	0,206
634,80	0,344
635,00	0,372
635,20	0,366
635,40	-0,024
635,60	0,123
635,80	0,192
635,99	0,463
636,19	0,136
636,39	0,116
636,59	0,129
636,79	0,293
636,98	0,115
637,18	0,048
637,38	0,234
637,58	0,124
637,78	0,351
637,97	0,132
638,17	0,338
638,37	0,199
638,57	0,135
638,77	0,295
638,96	0,395
639,16	0,219
639,36	0,206
639,56	0,332
639,76	0,212
639,95	0,065
640,15	-0,119
640,35	0,109
640,55	0,278
640,75	0,329
640,94	-0,121
641,14	0,382
641,34	0,037
641,54	0,271
641,73	-0,125
641,93	0,494
642,13	0,103
642,33	-0,007
642,53	0,169
642,72	0,552
642,92	0,423
643,12	0,146
643,32	0,323
643,51	0,501
643,71	0,107
643,91	0,271
644,11	0,301
644,30	0,048
644,50	0,495
644,70	0,000
644,90	0,415
645,09	0,546
645,29	0,277
645,49	0,463
645,69	0,050
645,88	0,382
646,08	0,232
646,28	0,431
646,48	-0,118
646,67	0,044
646,87	0,421
647,07	0,142
647,26	0,507
647,46	0,280
647,66	0,250
647,86	0,801
648,05	0,190
648,25	0,763
648,45	0,456
648,65	0,596
648,84	0,215
649,04	0,242
649,24	0,593
649,43	0,118
649,63	0,350
649,83	0,462
650,03	0,620
650,22	0,369
650,42	0,341
650,62	0,222
650,81	0,330
651,01	0,439
651,21	0,405
651,40	0,589
651,60	0,154
651,80	0,588
652,00	0,528
652,19	0,565
652,39	0,415
652,59	0,568
652,78	0,435
652,98	-0,232
653,18	0,159
653,37	0,526
653,57	0,425
653,77	0,518
653,96	0,271
654,16	0,580
654,36	0,568
654,55	0,017
654,75	0,138
654,95	0,519
655,14	0,414
655,34	0,871
655,54	0,482
655,73	0,208
655,93	0,157
656,13	0,061
656,32	0,106
656,52	0,556
656,72	0,348
656,91	0,512
657,11	0,147
657,31	0,209
657,50	0,423
657,70	0,547
657,90	0,547
658,09	0,460
658,29	0,458
658,49	0,366
658,68	0,139
658,88	0,532
659,07	0,662
659,27	0,366
659,47	0,418
659,66	0,353
659,86	0,218
660,06	0,415
660,25	0,407
660,45	0,625
660,64	0,483
660,84	0,340
661,04	0,516
661,23	0,249
661,43	0,571
661,63	0,327
661,82	0,078
662,02	0,469
662,21	0,366
662,41	0,551
662,61	0,743
662,80	0,413
663,00	0,425
663,19	0,480
663,39	0,000
663,59	0,620
663,78	0,524
663,98	0,359
664,17	0,537
664,37	0,258
664,57	0,446
664,76	0,221
664,96	-0,128
665,15	0,094
665,35	0,364
665,55	0,103
665,74	0,439
665,94	0,194
666,13	0,283
666,33	0,633
666,53	0,760
666,72	0,447
666,92	0,511
667,11	0,516
667,31	0,041
667,50	-0,074
667,70	0,435
667,90	0,106
668,09	0,090
668,29	0,049
668,48	0,414
668,68	0,634
668,87	0,572
669,07	-0,048
669,26	0,433
669,46	0,449
669,66	0,214
669,85	0,363
670,05	0,221
670,24	0,264
670,44	0,299
670,63	0,195
670,83	0,289
671,02	0,211
671,22	0,139
671,42	0,185
671,61	0,558
671,81	0,539
672,00	0,560
672,20	0,175
672,39	0,165
672,59	-0,015
672,78	0,173
672,98	0,407
673,17	0,289
673,37	0,195
673,56	0,290
673,76	-0,007
673,95	0,306
674,15	0,498
674,34	0,171
674,54	0,578
674,73	0,185
674,93	0,348
675,13	0,446
675,32	0,540
675,52	0,280
675,71	0,240
675,91	0,238
676,10	0,220
676,30	0,151
676,49	0,007
676,69	0,181
676,88	0,263
677,08	0,210
677,27	0,547
677,47	0,202
677,66	0,336
677,86	0,557
678,05	0,300
678,24	0,114
678,44	0,580
678,63	0,292
678,83	0,149
679,02	0,252
679,22	0,235
679,41	0,535
679,61	0,127
679,80	0,231
680,00	0,089
680,19	0,263
680,39	0,255
680,58	0,186
680,78	-0,092
680,97	0,279
681,17	0,294
681,36	-0,023
681,56	0,112
681,75	0,157
681,94	0,061
682,14	0,301
682,33	0,309
682,53	0,227
682,72	0,253
682,92	0,251
683,11	0,253
683,31	0,226
683,50	0,063
683,69	0,211
683,89	0,278
684,08	0,360
684,28	0,026
684,47	0,331
684,67	0,183
684,86	0,311
685,06	0,237
685,25	0,202
685,44	0,135
685,64	0,289
685,83	0,423
686,03	-0,019
686,22	0,158
686,42	0,236
686,61	0,141
686,80	0,141
687,00	0,180
687,19	0,289
687,39	0,116
687,58	0,225
687,77	0,148
687,97	0,230
688,16	0,257
688,36	-0,026
688,55	0,191
688,74	0,004
688,94	0,175
689,13	0,034
689,33	0,054
689,52	0,243
689,71	0,099
689,91	0,174
690,10	0,098
690,30	0,008
690,49	-0,032
690,68	0,266
690,88	0,190
691,07	0,131
691,27	0,078
691,46	0,268
691,65	0,162
691,85	0,114
692,04	-0,004
692,23	0,044
692,43	0,246
692,62	0,252
692,82	0,220
693,01	0,211
693,20	0,234
693,40	0,008
693,59	0,008
693,78	0,090
693,98	-0,114
694,17	0,096
694,36	0,340
694,56	0,131
694,75	0,132
694,94	0,188
695,14	0,188
695,33	0,295
695,53	0,266
695,72	0,224
695,91	-0,079
696,11	0,127
696,30	0,312
696,49	0,210
696,69	0,122
696,88	0,173
697,07	0,239
697,27	0,335
697,46	0,242
697,65	0,284
697,85	0,070
698,04	0,437
698,23	0,255
698,43	0,356
698,62	0,084
698,81	0,362
699,01	0,246
699,20	0,407
699,39	0,007
699,58	0,353
699,78	0,100
699,97	0,157
700,16	0,226
700,36	0,434
700,55	0,535
700,74	0,569
700,94	0,287
701,13	0,370
701,32	0,185
701,52	0,149
701,71	0,584
701,90	0,534
702,09	0,781
702,29	0,605
702,48	0,171
702,67	0,155
702,87	0,837
703,06	0,376
703,25	0,688
703,44	0,551
703,64	0,691
703,83	0,502
704,02	0,317
704,22	0,354
704,41	0,155
704,60	0,779
704,79	0,737
704,99	1,026
705,18	1,203
705,37	0,914
705,56	0,561
705,76	1,897
705,95	1,421
706,14	0,658
706,33	1,499
706,53	0,629
706,72	0,502
706,91	2,102
707,11	0,817
707,30	0,404
707,49	2,281
707,68	0,818
707,88	2,063
708,07	1,097
708,26	1,243
708,45	0,831
708,64	1,948
708,84	0,377
709,03	0,865
709,22	0,362
709,41	1,761
709,61	0,812
709,80	2,403
709,99	1,322
710,18	2,775
710,38	1,132
710,57	-0,286
710,76	-0,098
710,95	3,043
711,14	1,059
711,34	1,514
711,53	2,905
711,72	1,142
711,91	3,395
712,11	1,877
712,30	0,500
712,49	0,115
712,68	0,119
712,87	2,449
713,07	3,774
713,26	1,666
713,45	-0,666
713,64	2,444
713,83	1,407
714,03	0,537
714,22	2,081
714,41	1,629
714,60	1,044
714,79	-1,104
714,99	0,900
715,18	3,612
715,37	3,631
715,56	3,145
715,75	4,052
715,94	6,250
716,14	4,194
716,33	4,162
716,52	5,241
716,71	2,019
716,90	2,053
717,10	1,837
717,29	1,125
717,48	3,170
717,67	2,651
717,86	3,922
718,05	1,815
718,24	4,994
718,44	3,115
718,63	2,555
718,82	0,937
719,01	2,802
719,20	3,810
719,39	5,621
719,59	-1,237
719,78	2,004
719,97	2,744
720,16	2,688
720,35	1,721
720,54	-0,839
720,73	3,686
720,93	-0,434
721,12	-0,647
721,31	0,802
721,50	4,073
721,69	2,454
721,88	5,607
722,07	1,575
722,27	3,903
722,46	1,649
722,65	3,495
722,84	2,500
723,03	4,626
723,22	2,015
723,41	2,741
723,60	0,491
723,79	8,911
723,99	2,179
724,18	2,620
724,37	-2,361
724,56	3,066
724,75	4,696
724,94	7,939
725,13	3,948
725,32	8,371
725,51	4,837
725,71	5,413
725,90	3,403
726,09	2,192
726,28	4,576
726,47	3,846
726,66	7,491
726,85	4,929
727,04	2,039
727,23	6,495
727,42	2,987
727,61	8,025
727,81	-2,595
728,00	5,405
728,19	3,684
728,38	0,328
728,57	7,708
728,76	6,009
728,95	11,042
729,14	3,463
729,33	3,548
729,52	3,712
729,71	2,169
729,90	9,121
730,09	1,522
730,28	5,325
730,48	5,530
730,67	9,263
730,86	7,210
731,05	1,984
731,24	-0,610
731,43	5,343
731,62	3,780
731,81	4,200
732,00	9,222
732,19	3,245
732,38	4,231
732,57	8,802
732,76	0,958
732,95	3,732
733,14	1,291
733,33	3,175
733,52	6,180
733,71	2,009
733,90	-0,282
734,09	9,324
734,28	7,612
734,47	7,083
734,66	4,278
734,85	3,286
735,04	-0,713
735,23	12,745
735,42	6,148
735,61	6,997
735,81	6,213
736,00	7,407
736,19	-0,152
736,38	-0,749
736,57	9,465
736,76	9,343
736,95	5,414
737,14	7,815
737,33	12,023
737,52	5,385
737,71	4,754
737,90	10,510
738,09	10,350
738,28	10,463
738,47	8,759
738,66	7,372
738,85	4,505
739,04	3,087
739,22	11,204
739,41	2,574
739,60	-2,730
739,79	5,036
739,98	1,434
740,17	8,191
740,36	11,031
740,55	7,803
740,74	11,321
740,93	7,075
741,12	6,071
741,31	4,577
741,50	0,378
741,69	2,832
741,88	1,581
742,07	14,312
742,26	8,571
742,45	5,943
742,64	7,130
742,83	8,850
743,02	1,053
743,21	13,899
743,40	2,070
743,59	13,971
743,78	4,697
743,97	14,423
744,16	13,189
744,34	1,166
744,53	12,371
744,72	4,593
744,91	0,420
745,10	12,369
745,29	7,258
745,48	11,591
745,67	2,961
745,86	7,947
746,05	10,427
746,24	3,093
746,43	6,210
746,62	17,241
746,81	7,865
747,00	9,190
747,18	6,754
747,37	13,053
747,56	14,118
747,75	5,419
747,94	11,893
748,13	17,897
748,32	8,571
748,51	11,675
748,70	8,370
748,89	16,393
749,08	-1,163
749,26	14,317
749,45	0,000
749,64	15,869
749,83	13,708
750,02	21,467
750,21	12,723
750,40	21,457
750,59	5,898
750,78	12,469
750,96	8,840
751,15	12,617
751,34	2,557
751,53	3,552
751,72	10,986
751,91	17,358
752,10	9,948
752,29	17,333
752,47	2,006
752,66	13,016
752,85	22,404
753,04	11,453
753,23	-1,858
753,42	20,216
753,61	21,003
753,80	-4,811
753,98	17,677
754,17	9,119
754,36	10,323
754,55	13,554
754,74	1,948
754,93	18,733
755,12	11,276
755,30	12,662
755,49	18,605
755,68	11,350
755,87	4,734
756,06	13,889
756,25	15,805
756,43	3,356
756,62	24,224
756,81	14,238
757,00	8,553
757,19	12,847
757,38	3,089
757,56	0,000
757,75	9,215
757,94	6,464
758,13	15,411
758,32	3,858
758,51	6,734
758,69	6,950
758,88	11,111
759,07	18,862
759,26	10,954
759,45	1,404
759,63	12,987
759,82	20,702
760,01	19,780
760,20	28,931
760,39	20,189
760,57	23,693
760,76	14,983
760,95	22,917
761,14	27,372
761,33	24,194
761,51	21,429
761,70	23,048
761,89	13,778
762,08	18,216
762,27	9,386
762,45	7,971
762,64	32,161
762,83	28,287
763,02	17,826
763,21	-8,500
763,39	20,280
763,58	15,242
763,77	19,409
763,96	22,311
764,14	24,583
764,33	14,286
764,52	8,036
764,71	23,279
764,89	23,214
765,08	24,631
765,27	22,128
765,46	7,623
765,65	32,157
765,83	28,959
766,02	7,619
766,21	14,208
766,40	34,630
766,58	6,878
766,77	21,560
766,96	18,699
767,15	34,454
767,33	26,570
767,52	20,087
767,71	22,368
767,90	10,553
768,08	4,192
768,27	28,455
768,46	23,684
768,64	26,852
768,83	17,647
769,02	11,330
769,21	15,104
769,39	26,429
769,58	24,675
769,77	32,979
769,96	31,982
770,14	28,962
770,33	36,916
770,52	49,640
770,70	36,216
770,89	39,459
771,08	11,446
771,27	26,316
771,45	12,353
771,64	15,758
771,83	34,804
772,01	49,485
772,20	32,338
772,39	20,886
772,57	21,891
772,76	14,189
772,95	35,057
773,14	38,776
773,32	19,774
773,51	15,476
773,70	31,655
773,88	34,194
774,07	35,025
774,26	20,968
774,44	36,842
774,63	44,910
774,82	31,818
775,00	32,710
775,19	27,381
775,38	25,532
775,56	37,888
775,75	42,857
775,94	27,500
776,12	31,373
776,31	41,353
776,50	-23,973
776,68	16,129
776,87	38,278
777,06	40,881
777,24	31,933
777,43	47,059
777,62	39,888
777,80	47,799
777,99	54,167
778,18	25,862
778,36	29,661
778,55	29,661
778,74	25,781
778,92	56,173
779,11	38,182
779,29	-10,638
779,48	19,149
779,67	75,676
779,85	7,018
780,04	30,435
780,23	27,381
780,41	68,644
780,60	42,953
780,79	62,903
780,97	32,680
781,16	27,660
781,34	29,054
781,53	39,286
781,72	16,216
781,90	17,964
782,09	4,651
782,28	42,177
782,46	37,143
782,65	58,451
782,83	22,642
783,02	62,281
783,21	35,338
783,39	88,235
783,58	52,174
783,76	53,061
783,95	42,958
784,14	50,000
784,32	37,647
784,51	42,568
784,69	46,094
784,88	32,710
785,06	59,603
785,25	27,660
785,44	-3,226
785,62	3,571
785,81	21,296
785,99	34,586
786,18	31,532
786,37	62,637
786,55	45,139
786,74	60,000
786,92	19,580
787,11	33,333
787,29	27,679
787,48	48,387
787,67	49,057
787,85	53,165
788,04	54,054
788,22	9,901
788,41	40,157
788,59	38,158
788,78	57,143
788,96	25,620
789,15	43,333
789,34	28,846
789,52	-11,290
789,71	53,957
789,89	49,351
790,08	70,000
790,26	31,847
790,45	50,000
790,63	58,621
790,82	27,692
791,00	4,425
791,19	24,800
791,38	33,333
791,56	40,000
791,75	-2,778
791,93	53,000
792,12	55,652
792,30	64,964
792,49	8,081
792,67	22,794
792,86	41,600
793,04	43,519
793,23	88,421
793,41	37,681
793,60	45,833
793,78	64,762
793,97	56,944
794,15	99,248
794,34	53,333
794,52	-7,527
794,71	59,690
794,89	38,636
795,08	48,800
795,26	80,000
795,45	34,722
795,63	62,903
795,82	47,253
796,00	81,000
796,19	34,146
796,37	19,084
796,56	14,563
796,74	16,842
796,93	19,697
797,11	25,301
797,30	52,778
797,48	47,656
797,67	54,472
797,85	86,154
798,04	47,458
798,22	79,487
798,41	61,538
798,59	55,238
798,77	4,819
798,96	6,790
799,14	35,484
799,33	51,376
799,51	44,444
799,70	43,846
799,88	70,642
800,07	35,878
800,25	46,988
800,44	144,444
800,62	63,889
800,80	70,423
800,99	130,137
801,17	67,241
801,36	67,857
801,54	30,000
801,73	-2,105
801,91	52,066
802,10	80,000
802,28	46,400
802,46	-10,526
802,65	51,079
802,83	49,333
803,02	60,484
803,20	108,434
803,39	50,575
803,57	44,882
803,75	35,772
803,94	47,619
804,12	81,379
804,31	26,087
804,49	56,800
804,67	14,706
804,86	32,743
805,04	38,554
805,23	61,062
805,41	11,667
805,59	93,151
805,78	67,200
805,96	27,711
806,15	40,594
806,33	52,632
806,51	46,667
806,70	59,398
806,88	53,488
807,07	69,369
807,25	52,747
807,43	43,750
807,62	67,257
807,80	20,952
807,99	59,231
808,17	17,323
808,35	43,000
808,54	31,884
808,72	69,369
808,90	19,178
809,09	10,870
809,27	49,333
809,46	69,231
809,64	80,488
809,82	46,358
810,01	44,531
810,19	61,616
810,37	54,688
810,56	82,222
810,74	64,935
810,92	18,000
811,11	71,053
811,29	66,981
811,48	44,615
811,66	58,427
811,84	8,791
812,03	40,164
812,21	57,895
812,39	53,043
812,58	63,158
812,76	59,712
812,94	26,506
813,13	-2,128
813,31	106,000
813,49	19,444
813,68	20,909
813,86	39,326
814,04	63,636
814,23	34,940
814,41	47,191
814,59	19,417
814,78	37,500
814,96	42,138
815,14	54,206
815,33	52,713
815,51	43,307
815,69	53,333
815,87	22,772
816,06	61,739
816,24	58,385
816,42	30,147
816,61	34,591
816,79	26,724
816,97	42,045
817,16	25,444
817,34	61,111
817,52	42,975
817,70	52,475
817,89	40,000
818,07	52,055
818,25	33,673
818,44	74,359
818,62	25,581
818,80	31,579
818,98	49,045
819,17	64,706
819,35	57,979
819,53	66,418
819,72	62,025
819,90	47,287
820,08	28,205
820,26	52,586
820,45	32,886
820,63	89,286
820,81	38,400
820,99	82,270
821,18	21,769
821,36	28,481
821,54	46,207
821,73	60,556
821,91	58,772
822,09	43,548
822,27	63,871
822,46	35,294
822,64	22,400
822,82	40,331
823,00	13,260
823,19	21,978
823,37	50,909
823,55	35,227
823,73	44,138
823,91	42,754
824,10	30,645
824,28	45,226
824,46	9,709
824,64	19,737
824,83	21,739
825,01	46,000
825,19	66,129
825,37	40,000
825,56	26,415
825,74	34,694
825,92	29,936
826,10	65,909
826,28	22,024
826,47	23,158
826,65	66,667
826,83	37,931
827,01	38,150
827,19	58,333
827,38	38,889
827,56	44,318
827,74	24,581
827,92	40,698
828,10	19,872
828,29	38,462
828,47	32,114
828,65	59,231
828,83	-3,030
829,01	41,848
829,20	26,374
829,38	32,955
829,56	63,043
829,74	7,547
829,92	35,317
830,10	43,103
830,29	22,613
830,47	36,683
830,65	7,317
830,83	16,518
831,01	27,976
831,20	31,068
831,38	23,445
831,56	27,907
831,74	51,659
831,92	61,842
832,10	37,619
832,29	30,405
832,47	13,483
832,65	43,137
832,83	29,108
833,01	13,000
833,19	25,792
833,37	30,769
833,56	30,802
833,74	47,549
833,92	30,556
834,10	24,896
834,28	45,570
834,46	21,719
834,64	21,759
834,83	19,545
835,01	47,718
835,19	36,400
835,37	24,380
835,55	4,167
835,73	21,182
835,91	30,258
836,09	16,730
836,28	22,509
836,46	30,800
836,64	31,955
836,82	28,507
837,00	23,551
837,18	22,305
837,36	22,709
837,54	35,909
837,72	12,931
837,91	27,985
838,09	12,351
838,27	33,667
838,45	14,184
838,63	17,647
838,81	4,641
838,99	16,532
839,17	17,568
839,35	32,270
839,53	20,702
839,72	13,158
839,90	24,055
840,08	31,692
840,26	25,794
840,44	19,940
840,62	13,448
840,80	18,027
840,98	8,627
841,16	16,730
841,34	16,054
841,52	25,994
841,70	20,615
841,89	19,355
842,07	10,972
842,25	19,540
842,43	4,741
842,61	25,263
842,79	13,559
842,97	21,173
843,15	23,432
843,33	17,035
843,51	8,434
843,69	29,630
843,87	1,493
844,05	18,237
844,23	18,619
844,41	11,599
844,59	14,409
844,77	6,443
844,95	11,272
845,13	22,769
845,31	8,140
845,50	12,827
845,68	11,254
845,86	16,379
846,04	29,609
846,22	5,722
846,40	19,624
846,58	8,832
846,76	11,559
846,94	17,456
847,12	25,648
847,30	8,763
847,48	8,978
847,66	27,094
847,84	12,842
848,02	25,362
848,20	18,088
848,38	5,698
848,56	13,068
848,74	22,912
848,92	5,736
849,10	15,500
849,28	19,636
849,46	20,000
849,64	12,471
849,82	22,222
850,00	22,430
850,18	18,936
850,36	5,960
850,54	14,787
850,72	15,167
850,90	25,652
851,08	17,505
851,26	14,223
851,44	11,726
851,62	18,605
851,80	15,419
851,98	21,978
852,16	18,203
852,34	18,351
852,52	6,250
852,70	9,795
852,87	10,274
853,05	6,238
853,23	10,515
853,41	15,420
853,59	10,788
853,77	12,500
853,95	17,300
854,13	7,522
854,31	14,990
854,49	13,174
854,67	3,672
854,85	6,625
855,03	12,826
855,21	15,158
855,39	6,439
855,57	9,857
855,75	11,861
855,93	7,451
856,11	11,219
856,28	15,314
856,46	10,320
856,64	22,857
856,82	10,825
857,00	6,288
857,18	9,928
857,36	10,455
857,54	8,824
857,72	11,053
857,90	4,428
858,08	5,294
858,26	5,383
858,44	9,747
858,61	4,878
858,79	13,841
858,97	10,619
859,15	13,467
859,33	13,750
859,51	7,203
859,69	1,252
859,87	8,567
860,05	6,394
860,23	10,227
860,40	9,609
860,58	11,148
860,76	6,190
860,94	12,683
861,12	8,923
861,30	5,495
861,48	9,143
861,66	8,571
861,84	7,773
862,01	13,255
862,19	0,339
862,37	5,749
862,55	8,357
862,73	6,811
862,91	-0,734
863,09	6,250
863,27	8,621
863,44	4,231
863,62	3,397
863,80	5,345
863,98	8,457
864,16	-2,168
864,34	13,296
864,52	6,568
864,69	3,801
864,87	6,223
865,05	7,075
865,23	6,667
865,41	6,317
865,59	5,787
865,76	8,926
865,94	12,145
866,12	11,742
866,30	4,348
866,48	11,383
866,66	2,016
866,83	12,723
867,01	2,302
867,19	9,623
867,37	2,458
867,55	5,137
867,73	6,130
867,90	7,305
868,08	7,618
868,26	7,353
868,44	4,572
868,62	8,845
868,79	5,269
868,97	5,542
869,15	7,309
869,33	7,937
869,51	2,091
869,69	8,049
869,86	4,795
870,04	11,954
870,22	7,587
870,40	7,953
870,57	4,498
870,75	8,619
870,93	5,684
871,11	7,143
871,29	8,562
871,46	5,519
871,64	6,799
871,82	10,549
872,00	9,774
872,18	4,958
872,35	12,695
872,53	4,605
872,71	5,306
872,89	8,811
873,06	7,892
873,24	7,759
873,42	5,952
873,60	6,849
873,77	5,419
873,95	4,033
874,13	6,660
874,31	6,295
874,49	6,389
874,66	3,195
874,84	7,422
875,02	8,066
875,20	6,207
875,37	6,155
875,55	6,966
875,73	2,972
875,91	6,320
876,08	6,124
876,26	2,562
876,44	5,647
876,61	4,512
876,79	7,962
876,97	3,011
877,15	2,731
877,32	4,092
877,50	7,036
877,68	7,198
877,86	3,908
878,03	7,113
878,21	3,167
878,39	6,415
878,56	2,231
878,74	6,881
878,92	1,614
879,10	2,152
879,27	7,864
879,45	7,883
879,63	6,988
879,80	7,560
879,98	1,505
880,16	8,006
880,34	5,748
880,51	3,470
880,69	4,018
880,87	4,958
881,04	5,861
881,22	7,729
881,40	2,309
881,57	3,933
881,75	5,402
881,93	5,451
882,10	2,389
882,28	4,483
882,46	4,178
882,63	2,982
882,81	7,914
882,99	4,042
883,16	5,585
883,34	3,944
883,52	4,292
883,69	4,693
883,87	1,888
884,05	1,827
884,22	2,609
884,40	5,606
884,58	2,192
884,75	1,442
884,93	3,041
885,11	6,428
885,28	1,435
885,46	1,661
885,64	1,600
885,81	5,477
885,99	2,354
886,17	2,328
886,34	5,072
886,52	4,779
886,70	5,052
886,87	3,426
887,05	4,040
887,22	0,664
887,40	3,956
887,58	4,703
887,75	3,872
887,93	2,860
888,11	3,645
888,28	3,609
888,46	4,219
888,63	2,048
888,81	1,720
888,99	3,737
889,16	4,916
889,34	1,640
889,51	2,401
889,69	1,008
889,87	4,722
890,04	2,857
890,22	3,949
890,39	1,638
890,57	4,797
890,75	3,553
890,92	1,671
891,10	3,752
891,27	2,270
891,45	4,106
891,63	3,738
891,80	4,593
891,98	2,207
892,15	1,145
892,33	3,000
892,51	2,536
892,68	2,355
892,86	2,098
893,03	2,014
893,21	4,214
893,38	1,497
893,56	2,336
893,74	2,700
893,91	4,760
894,09	2,940
894,26	4,231
894,44	2,941
894,61	2,042
894,79	2,166
894,96	1,024
895,14	3,771
895,32	3,744
895,49	3,451
895,67	0,633
895,84	3,639
896,02	1,718
896,19	1,985
896,37	3,160
896,54	2,227
896,72	1,177
896,89	2,871
897,07	2,947
897,25	2,037
897,42	2,266
897,60	4,525
897,77	3,178
897,95	2,739
898,12	2,771
898,30	4,062
898,47	1,941
898,65	1,292
898,82	3,263
899,00	0,865
899,17	3,191
899,35	0,512
899,52	4,297
899,70	3,090
899,87	2,558
900,05	3,234
900,22	2,590
900,40	0,681
900,57	2,449
900,75	2,914
900,92	2,966
901,10	3,387
901,27	1,739
901,45	4,605
901,62	1,836
901,80	1,754
901,97	1,871
902,15	2,744
902,32	3,378
902,50	1,220
902,67	3,191
902,85	2,210
903,02	4,052
903,20	2,533
903,37	0,641
903,54	3,053
903,72	3,107
903,89	1,580
904,07	1,711
904,24	2,795
904,42	2,394
904,59	1,250
904,77	2,016
904,94	2,089
905,12	1,488
905,29	-0,246
905,47	2,510
905,64	2,686
905,81	1,705
905,99	0,420
906,16	0,243
906,34	1,678
906,51	2,142
906,69	2,484
906,86	1,843
907,03	3,263
907,21	1,295
907,38	1,702
907,56	2,202
907,73	2,909
907,91	0,966
908,08	2,340
908,25	3,099
908,43	0,671
908,60	0,421
908,78	0,557
908,95	1,711
909,13	2,351
909,30	3,106
909,47	1,468
909,65	1,755
909,82	1,365
910,00	2,756
910,17	2,589
910,34	3,665
910,52	2,087
910,69	1,672
910,87	3,665
911,04	1,787
911,21	2,907
911,39	1,155
911,56	2,584
911,73	1,442
911,91	1,479
912,08	1,965
912,26	0,272
912,43	2,782
912,60	2,748
912,78	1,683
912,95	2,220
913,13	1,212
913,30	2,699
913,47	2,056
913,65	2,573
913,82	3,256
913,99	2,328
914,17	2,069
914,34	1,895
914,51	2,944
914,69	2,037
914,86	3,595
915,03	1,584
915,21	0,918
915,38	2,544
915,56	1,473
915,73	1,364
915,90	3,093
916,08	3,508
916,25	1,311
916,42	1,747
916,60	2,001
916,77	3,116
916,94	2,614
917,12	2,224
917,29	1,820
917,46	2,444
917,64	2,921
917,81	2,218
917,98	1,965
918,16	2,328
918,33	2,277
918,50	3,094
918,67	2,834
918,85	1,440
919,02	2,616
919,19	3,310
919,37	2,122
919,54	2,764
919,71	2,628
919,89	2,553
920,06	4,022
920,23	3,633
920,41	3,042
920,58	2,703
920,75	3,636
920,92	3,652
921,10	2,900
921,27	3,999
921,44	5,316
921,62	4,117
921,79	5,262
921,96	5,249
922,13	5,606
922,31	4,085
922,48	5,695
922,65	5,738
922,82	5,820
923,00	6,881
923,17	5,940
923,34	7,399
923,52	6,249
923,69	8,486
923,86	9,259
924,03	10,356
924,21	10,489
924,38	11,051
924,55	11,805
924,72	11,195
924,90	12,159
925,07	12,432
925,24	13,440
925,41	13,812
925,59	13,816
925,76	14,616
925,93	15,489
926,10	15,786
926,28	15,884
926,45	15,816
926,62	16,637
926,79	17,035
926,96	17,421
927,14	18,010
927,31	18,451
927,48	17,981
927,65	18,703
927,83	18,778
928,00	19,729
928,17	19,944
928,34	19,436
928,51	19,965
928,69	20,085
928,86	20,612
929,03	21,629
929,20	20,878
929,37	20,847
929,55	21,884
929,72	21,849
929,89	22,010
930,06	22,037
930,23	23,303
930,41	22,315
930,58	23,606
930,75	23,200
930,92	23,821
931,09	23,121
931,27	23,442
931,44	24,959
931,61	24,571
931,78	24,696
931,95	24,959
932,12	26,192
932,30	26,988
932,47	26,718
932,64	26,289
932,81	26,937
932,98	27,854
933,16	27,826
933,33	28,612
933,50	29,235
933,67	29,238
933,84	29,840
934,01	29,011
934,18	30,703
934,36	30,227
934,53	31,247
934,70	30,109
934,87	31,998
935,04	31,426
935,21	31,643
935,38	30,675
935,56	30,608
935,73	31,098
935,90	31,264
936,07	30,408
936,24	30,545
936,41	28,929
936,58	29,927
936,76	29,397
936,93	30,065
937,10	28,155
937,27	29,584
937,44	28,202
937,61	29,743
937,78	27,912
937,95	28,249
938,13	27,336
938,30	27,055
938,47	26,760
938,64	27,566
938,81	26,575
938,98	26,546
939,15	25,960
939,32	25,064
939,49	24,686
939,66	25,686
939,84	25,565
940,01	24,215
940,18	25,040
940,35	23,629
940,52	25,128
940,69	22,966
940,86	24,827
941,03	24,011
941,20	21,126
941,37	22,148
941,54	22,688
941,71	24,623
941,89	22,569
942,06	22,239
942,23	22,284
942,40	21,448
942,57	21,682
942,74	21,237
942,91	22,141
943,08	21,833
943,25	21,571
943,42	21,319
943,59	20,428
943,76	20,171
943,93	19,686
944,10	18,114
944,27	20,280
944,44	19,355
944,61	18,652
944,79	18,795
944,96	18,881
945,13	17,779
945,30	17,520
945,47	16,723
945,64	16,137
945,81	17,012
945,98	17,821
946,15	16,090
946,32	14,554
946,49	15,830
946,66	16,085
946,83	14,067
947,00	14,617
947,17	13,397
947,34	14,236
947,51	14,255
947,68	13,964
947,85	13,447
948,02	13,812
948,19	12,783
948,36	13,998
948,53	10,597
948,70	11,834
948,87	12,103
949,04	12,241
949,21	12,489
949,38	12,406
949,55	13,697
949,72	12,691
949,89	13,851
950,06	12,197
950,23	13,286
950,40	12,818
950,57	11,857
950,74	13,292
950,91	14,123
951,08	12,882
951,25	13,780
951,42	14,205
951,59	13,868
951,76	13,530
951,93	17,233
952,10	15,881
952,27	14,702
952,44	18,441
952,61	16,945
952,77	16,718
952,94	16,927
953,11	16,465
953,28	17,358
953,45	18,593
953,62	18,165
953,79	18,469
953,96	17,177
954,13	17,313
954,30	16,667
954,47	18,538
954,64	15,495
954,81	20,829
954,98	16,629
955,15	13,966
955,32	15,961
955,49	18,485
955,65	16,422
955,82	16,719
955,99	18,705
956,16	18,636
956,33	14,078
956,50	18,953
956,67	15,686
956,84	20,212
957,01	17,388
957,18	16,730
957,35	18,234
957,52	17,745
957,68	19,967
957,85	20,528
958,02	19,491
958,19	18,088
958,36	18,458
958,53	19,075
958,70	18,977
958,87	14,571
959,04	17,485
959,21	23,377
959,37	24,110
959,54	18,115
959,71	17,963
959,88	13,372
960,05	23,050
960,22	21,761
960,39	18,844
960,56	13,043
960,72	21,191
960,89	21,611
961,06	18,975
961,23	13,609
961,40	15,859
961,57	22,843
961,74	17,972
961,90	25,544
962,07	24,664
962,24	20,706
962,41	20,690
962,58	24,916
962,75	20,855
962,92	17,018
963,08	18,333
963,25	10,359
963,42	26,707
963,59	20,329
963,76	20,278
963,93	17,923
964,10	13,348
964,26	21,429
964,43	21,395
964,60	19,490
964,77	26,846
964,94	23,704
965,10	12,813
965,27	7,263
965,44	17,778
965,61	11,644
965,78	13,975
965,95	25,124
966,11	18,182
966,28	18,436
966,45	27,124
966,62	11,498
966,79	10,922
966,95	14,235
967,12	21,270
967,29	29,938
967,46	28,114
967,63	37,255
967,79	38,591
967,96	18,807
968,13	16,667
968,30	34,979
968,47	30,000
968,63	17,647
968,80	20,307
968,97	24,855
969,14	45,198
969,31	23,469
969,47	32,065
969,64	13,736
969,81	25,806
969,98	41,579
970,14	24,731
970,31	32,704
970,48	56,376
970,65	33,884
970,81	39,161
970,98	50,000
971,15	60,000
971,32	22,727
971,48	35,119
971,65	43,709
971,82	29,091
971,99	64,557
972,15	51,163
972,32	59,722
972,49	76,230
972,66	56,198
972,82	43,836
972,99	33,750
973,16	104,636
973,33	28,889
973,49	54,878
973,66	59,048
973,83	50,617
974,00	82,278
974,16	83,636
974,33	90,667
974,50	85,859
974,67	50,000
974,83	81,633
975,00	141,818
975,17	82,258
975,33	98,851
975,50	95,082
975,67	28,846
975,84	58,537
976,00	59,211
976,17	119,565
976,34	91,765
976,50	27,473
976,67	65,476
976,84	168,750
977,00	65,385
977,17	140,000
977,34	175,000
977,50	42,857
977,67	116,471
977,84	166,102
978,01	89,189
978,17	131,034
978,34	162,963
978,51	288,000
978,67	204,082
978,84	63,636
979,01	144,737
979,17	42,857
979,34	128,261
979,51	40,909
979,67	233,333
979,84	111,864
980,01	15,385
980,17	167,647
980,34	84,932
980,51	444,444
980,67	146,667
980,84	98,571
981,01	152,941
981,17	114,706
981,34	81,429
981,50	115,789
981,67	90,476
981,84	178,571
982,00	5800,000
982,17	104,688
982,34	202,439
982,50	0,000
982,67	-471,429
982,84	440,000
983,00	122,222
983,17	-757,143
983,33	644,444
983,50	163,415
983,67	126,087
983,83	290,476
984,00	204,348
984,17	855,556
984,33	-435,714
984,50	143,243
984,66	287,500
984,83	50,000
985,00	61,538
985,16	90,323
985,33	3700,000
985,49	86,047
985,66	170,000
985,83	-2366,667
985,99	400,000
986,16	373,684
986,32	102,740
986,49	-1100,000
986,66	280,000
986,82	66,667
986,99	-440,000
987,15	321,212
987,32	247,059
987,49	175,000
987,65	-108,696
987,82	-265,000
987,98	131,818
988,15	671,429
988,31	242,857
988,48	186,275
988,65	90,000
988,81	172,727
988,98	305,405
989,14	500,000
989,31	94,915
989,47	10,714
989,64	205,556
989,80	135,106
989,97	212,727
990,14	557,143
990,30	-37,500
990,47	-225,000
990,63	221,053
990,80	900,000
990,96	600,000
991,13	73,333
991,29	135,294
991,46	114,583
991,62	0,000
991,79	-250,000
991,95	282,353
992,12	866,667
992,29	-323,810
992,45	250,000
992,62	-146,429
992,78	650,000
992,95	261,290
993,11	787,500
993,28	-2400,000
993,44	-86,207
993,61	191,228
993,77	0,000
993,94	241,026
994,10	714,286
994,27	-5,263
994,43	78,125
994,60	692,857
994,76	121,212
994,93	-280,000
995,09	-343,750
995,26	370,833
995,42	662,500
995,59	93,333
995,75	-650,000
995,92	-542,857
996,08	-1520,000
996,25	209,091
996,41	880,000
996,58	336,000
996,74	-570,000
996,91	114,516
997,07	224,000
997,23	158,824
997,40	1616,667
997,56	-2900,000
997,73	373,913
997,89	1140,000
998,06	117,544
998,22	191,489
998,39	175,510
998,55	605,263
998,72	-7200,000
998,88	176,000
999,05	606,667
999,21	364,706
999,37	255,814
999,54	77,419
999,70	304,762
999,87	1216,667
1000,03	360,000
1000,20	621,429
1000,36	-675,000
1000,52	2200,000
1000,69	576,000
1000,85	-408,333
1001,02	404,762
1001,18	880,000
1001,35	0,000
1001,51	521,429
1001,67	330,000
1001,84	107,317
1002,00	-445,455
1002,17	600,000
1002,33	-350,000
1002,50	558,333
1002,66	1037,500
1002,82	243,902
1002,99	-245,455
1003,15	-8400,000
1003,32	-171,429
1003,48	-2000,000
1003,64	356,522
1003,81	-115,789
1003,97	204,348
1004,14	-56,364
1004,30	327,273
1004,46	-5000,000
1004,63	-415,385
1004,79	118,919
1004,95	-600,000
1005,12	-138,462
1005,28	280,556
1005,45	-1083,333
1005,61	384,615
1005,77	-942,857
1005,94	193,478
1006,10	-540,000
1006,26	-125,926
1006,43	269,697
1006,59	354,839
1006,76	-284,000
1006,92	304,348
1007,08	71,212
1007,25	261,111
1007,41	368,182
1007,57	-417,647
1007,74	173,913
1007,90	-142,857
1008,06	-473,333
1008,23	-305,263
1008,39	230,556
1008,55	108,235
1008,72	-425,000
1008,88	-137,143
1009,04	-855,556
1009,21	250,000
1009,37	377,419
1009,53	-320,000
1009,70	-0,000
1009,86	226,316
1010,02	193,182
1010,19	646,667
1010,35	7200,000
1010,51	300,000
1010,68	154,545
1010,84	315,000
1011,00	371,429
1011,17	2833,333
1011,33	211,538
1011,49	306,250
1011,66	296,875
1011,82	-808,333
1011,98	493,333
1012,14	284,615
1012,31	254,545
1012,47	-814,286
1012,63	6300,000
1012,80	283,333
1012,96	155,556
1013,12	-107,407
1013,29	233,333
1013,45	-85,294
1013,61	-840,000
1013,77	-277,778
1013,94	391,667
1014,10	5700,000
1014,26	-61,765
1014,43	297,368
1014,59	0,000
1014,75	820,000
1014,91	208,571
1015,08	388,462
1015,24	453,333
1015,40	353,333
1015,56	229,412
1015,73	134,694
1015,89	766,667
1016,05	159,459
1016,21	237,037
1016,38	205,263
1016,54	-64,000
1016,70	463,158
1016,86	-553,846
1017,03	0,000
1017,19	762,500
1017,35	316,667
1017,51	766,667
1017,68	257,143
1017,84	489,474
1018,00	119,048
1018,16	-525,000
1018,33	218,182
1018,49	400,000
1018,65	-259,091
1018,81	-78,049
1018,97	653,846
1019,14	-885,714
1019,30	323,810
1019,46	202,564
1019,62	2500,000
1019,79	-842,857
1019,95	-1350,000
1020,11	40,000
1020,27	205,000
1020,43	-575,000
1020,60	0,000
1020,76	152,941
1020,92	6100,000
1021,08	-55,556
1021,24	-1200,000
1021,41	254,545
1021,57	-158,333
1021,73	0,000
1021,89	-281,818
1022,05	317,143
1022,21	-353,846
1022,38	421,053
1022,54	860,000
1022,70	307,407
1022,86	-2000,000
1023,02	744,444
1023,19	-315,000
1023,35	179,245
1023,51	274,194
1023,67	160,526
1023,83	500,000
1023,99	248,571
1024,16	-1,538
1024,32	300,000
1024,48	167,347
1024,64	-480,000
1024,80	508,333
1024,96	384,615
1025,12	2166,667
1025,29	-1025,000
1025,45	175,000
1025,61	1966,667
1025,77	419,048
1025,93	-184,615
1026,09	4400,000
1026,26	-828,571
1026,42	-1700,000
1026,58	105,769
1026,74	800,000
1026,90	400,000
1027,06	-240,000
1027,22	-541,667
1027,38	766,667
1027,55	-188,000
1027,71	387,500
1027,87	205,000
1028,03	107,576
1028,19	-224,242
1028,35	106,757
1028,51	-50,000
1028,67	-460,000
1028,83	204,762
1029,00	664,286
1029,16	-426,667
1029,32	276,471
1029,48	3450,000
1029,64	742,857
1029,80	1466,667
1029,96	245,098
1030,12	387,500
1030,28	1625,000
1030,44	-1650,000
1030,61	115,625
1030,77	-339,130
1030,93	134,884
1031,09	-507,143
1031,25	-688,889
1031,41	-2050,000
1031,57	-15,789
1031,73	572,727
1031,89	-184,848
1032,05	1585,714
1032,21	790,000
1032,37	-273,529
1032,53	-240,000
1032,69	-4500,000
1032,86	750,000
1033,02	375,000
1033,18	-476,923
1033,34	-130,769
1033,50	283,871
1033,66	-433,333
1033,82	364,286
1033,98	-529,412
1034,14	1133,333
1034,30	-159,091
1034,46	275,000
1034,62	483,333
1034,78	141,270
1034,94	16,129
1035,10	-354,545
1035,26	-1100,000
1035,42	34,286
1035,58	1500,000
1035,74	-103,333
1035,90	-741,667
1036,06	150,943
1036,22	-316,000
1036,38	573,333
1036,54	780,000
1036,70	-4550,000
1036,86	-207,143
1037,02	-1550,000
1037,18	-167,857
1037,34	278,261
1037,50	-546,667
1037,66	-1566,667
1037,82	-276,471
1037,98	276,190
1038,14	-48,276
1038,30	55,769
1038,46	114,583
1038,62	170,968
1038,78	216,667
1038,94	-131,579
1039,10	-316,667
1039,26	-142,105
1039,42	-485,714
1039,58	130,189
1039,74	146,875
1039,90	-148,718
1040,06	423,529
>>>>>End Processed Spectral Data<<<<<
