SpectraSuite Data File
++++++++++++++++++++++++++++++++++++
Date: Thu Feb 02 17:35:29 EET 2017
User: optolab
Dark Spectrum Present: Yes
Reference Spectrum Present: Yes
Number of Sampled Component Spectra: 1
Spectrometers: USB4C02475
Integration Time (usec): 100000 (USB4C02475)
Spectra Averaged: 1 (USB4C02475)
Boxcar Smoothing: 0 (USB4C02475)
Correct for Electrical Dark: No (USB4C02475)
Strobe/Lamp Enabled: No (USB4C02475)
Correct for Detector Non-linearity: No (USB4C02475)
Correct for Stray Light: No (USB4C02475)
Number of Pixels in Processed Spectrum: 3648
>>>>>Begin Processed Spectral Data<<<<<
344,91	-275,000
345,13	-275,000
345,35	-275,000
345,57	-105,882
345,79	-73,913
346,00	-108,824
346,22	-1228,571
346,44	-100,000
346,66	261,702
346,87	356,522
347,09	738,462
347,31	6100,000
347,53	-2025,000
347,74	-158,140
347,96	-1628,571
348,18	329,412
348,40	252,941
348,61	-169,231
348,83	4000,000
349,05	197,436
349,27	152,941
349,48	-2950,000
349,70	285,714
349,92	114,286
350,14	116,216
350,35	-538,462
350,57	-405,556
350,79	-7,692
351,01	-426,667
351,22	770,000
351,44	633,333
351,66	372,222
351,87	1516,667
352,09	140,789
352,31	171,429
352,53	311,429
352,74	-400,000
352,96	221,053
353,18	165,625
353,40	-937,500
353,61	540,000
353,83	166,667
354,05	240,625
354,26	207,143
354,48	-1380,000
354,70	438,095
354,92	261,111
355,13	-79,070
355,35	174,074
355,57	159,375
355,78	157,143
356,00	100,000
356,22	236,364
356,44	320,930
356,65	314,286
356,87	113,889
357,09	271,429
357,30	140,909
357,52	-1066,667
357,74	232,258
357,95	188,571
358,17	43,478
358,39	124,000
358,60	111,111
358,82	86,364
359,04	194,872
359,26	147,727
359,47	-107,692
359,69	253,571
359,91	508,000
360,12	335,000
360,34	77,778
360,56	-2050,000
360,77	655,556
360,99	329,167
361,21	78,261
361,42	-1775,000
361,64	-114,815
361,86	114,925
362,07	640,000
362,29	200,000
362,51	248,649
362,72	-860,000
362,94	259,259
363,16	162,857
363,37	1163,636
363,59	-6900,000
363,81	1287,500
364,02	97,333
364,24	254,545
364,46	433,333
364,67	195,238
364,89	447,059
365,11	327,027
365,32	222,222
365,54	200,000
365,76	134,091
365,97	209,756
366,19	84,211
366,41	890,000
366,62	140,000
366,84	558,333
367,05	104,902
367,27	1160,000
367,49	166,667
367,70	833,333
367,92	220,833
368,14	-300,000
368,35	145,588
368,57	93,939
368,79	276,923
369,00	88,462
369,22	322,222
369,43	410,526
369,65	-189,655
369,87	-547,059
370,08	320,000
370,30	371,429
370,51	727,273
370,73	161,111
370,95	405,000
371,16	110,526
371,38	164,151
371,60	340,000
371,81	136,957
372,03	-100,000
372,24	-181,250
372,46	3033,333
372,68	214,706
372,89	98,165
373,11	139,535
373,32	82,353
373,54	518,182
373,76	255,556
373,97	278,788
374,19	-173,684
374,40	101,429
374,62	705,882
374,84	304,167
375,05	71,154
375,27	229,730
375,48	92,593
375,70	394,118
375,92	130,357
376,13	342,105
376,35	416,667
376,56	305,000
376,78	112,245
376,99	136,364
377,21	268,750
377,43	106,061
377,64	244,000
377,86	418,750
378,07	86,364
378,29	266,667
378,51	128,571
378,72	-400,000
378,94	154,348
379,15	106,818
379,37	293,750
379,58	116,667
379,80	140,909
380,01	152,000
380,23	347,826
380,45	229,167
380,66	113,889
380,88	140,541
381,09	286,957
381,31	176,923
381,52	304,348
381,74	178,571
381,95	239,286
382,17	208,000
382,39	159,677
382,60	435,294
382,82	282,759
383,03	1500,000
383,25	108,642
383,46	316,667
383,68	136,170
383,89	454,545
384,11	126,027
384,32	213,158
384,54	-971,429
384,76	173,529
384,97	105,000
385,19	168,421
385,40	321,875
385,62	235,484
385,83	170,213
386,05	657,143
386,26	292,308
386,48	300,000
386,69	183,333
386,91	30,000
387,12	235,897
387,34	81,356
387,55	194,286
387,77	112,000
387,98	210,204
388,20	146,479
388,41	71,429
388,63	161,429
388,84	165,000
389,06	167,442
389,27	81,250
389,49	68,675
389,70	176,271
389,92	152,273
390,13	220,513
390,35	85,417
390,56	157,812
390,78	186,364
390,99	115,556
391,21	87,500
391,42	141,304
391,64	-250,000
391,85	158,621
392,07	64,286
392,28	284,615
392,50	2100,000
392,71	6900,000
392,93	111,290
393,14	239,130
393,36	117,949
393,57	183,333
393,79	125,397
394,00	65,753
394,22	162,000
394,43	360,714
394,65	217,857
394,86	268,750
395,08	-687,500
395,29	104,255
395,50	-4200,000
395,72	957,143
395,93	344,000
396,15	-14,286
396,36	100,000
396,58	-452,381
396,79	148,837
397,01	316,667
397,22	71,014
397,44	148,936
397,65	75,676
397,87	121,429
398,08	180,769
398,29	383,333
398,51	273,171
398,72	163,043
398,94	174,419
399,15	76,667
399,37	106,522
399,58	119,048
399,80	386,667
400,01	197,059
400,22	278,571
400,44	152,381
400,65	97,260
400,87	4500,000
401,08	89,888
401,30	74,667
401,51	103,636
401,72	100,000
401,94	148,780
402,15	97,959
402,37	154,545
402,58	246,512
402,80	56,250
403,01	150,000
403,22	66,265
403,44	183,333
403,65	30,612
403,87	134,667
404,08	151,923
404,30	112,500
404,51	120,000
404,72	672,727
404,94	40,964
405,15	134,328
405,37	119,780
405,58	196,774
405,79	185,714
406,01	71,111
406,22	115,476
406,44	50,877
406,65	61,905
406,86	93,000
407,08	76,543
407,29	57,333
407,51	49,038
407,72	75,248
407,93	32,911
408,15	90,909
408,36	128,571
408,58	53,333
408,79	51,163
409,00	65,248
409,22	75,490
409,43	45,946
409,64	56,410
409,86	88,636
410,07	24,348
410,29	32,667
410,50	28,571
410,71	61,290
410,93	7,921
411,14	56,075
411,35	36,111
411,57	20,139
411,78	36,029
412,00	32,667
412,21	37,611
412,42	17,073
412,64	36,667
412,85	16,062
413,06	13,839
413,28	38,431
413,49	37,674
413,70	31,330
413,92	43,810
414,13	19,368
414,34	13,383
414,56	29,362
414,77	15,867
414,98	12,367
415,20	41,935
415,41	21,429
415,63	33,048
415,84	34,349
416,05	3,614
416,27	18,384
416,48	20,142
416,69	8,430
416,91	20,000
417,12	3,167
417,33	15,801
417,55	21,400
417,76	17,759
417,97	15,918
418,19	-2,720
418,40	4,264
418,61	12,864
418,83	11,620
419,04	5,891
419,25	11,483
419,46	12,199
419,68	0,147
419,89	11,726
420,10	12,634
420,32	3,974
420,53	8,353
420,74	7,646
420,96	8,294
421,17	7,412
421,38	4,772
421,60	7,288
421,81	4,605
422,02	1,374
422,23	11,513
422,45	4,689
422,66	6,940
422,87	5,089
423,09	1,717
423,30	6,930
423,51	3,420
423,73	3,718
423,94	5,343
424,15	1,678
424,36	3,535
424,58	3,163
424,79	1,822
425,00	4,032
425,22	3,176
425,43	5,811
425,64	0,786
425,85	1,578
426,07	2,841
426,28	1,869
426,49	3,764
426,71	2,737
426,92	3,535
427,13	1,471
427,34	1,238
427,56	5,207
427,77	-0,207
427,98	0,357
428,19	1,590
428,41	0,658
428,62	2,298
428,83	0,548
429,04	3,562
429,26	1,227
429,47	3,296
429,68	0,311
429,89	1,253
430,11	2,836
430,32	2,214
430,53	0,611
430,74	2,852
430,96	2,752
431,17	1,471
431,38	1,698
431,59	1,147
431,81	1,244
432,02	2,049
432,23	1,609
432,44	1,368
432,66	1,264
432,87	1,543
433,08	1,271
433,29	0,572
433,51	1,236
433,72	1,479
433,93	1,388
434,14	0,908
434,35	0,804
434,57	0,321
434,78	1,648
434,99	0,803
435,20	1,139
435,42	1,192
435,63	0,775
435,84	1,381
436,05	1,075
436,26	0,692
436,48	1,455
436,69	0,726
436,90	0,215
437,11	0,978
437,32	0,696
437,54	0,928
437,75	1,022
437,96	0,831
438,17	1,032
438,38	1,070
438,60	1,003
438,81	0,506
439,02	1,028
439,23	0,984
439,44	0,186
439,66	0,578
439,87	0,811
440,08	0,729
440,29	0,828
440,50	0,833
440,72	0,504
440,93	0,893
441,14	0,423
441,35	0,630
441,56	0,665
441,77	0,423
441,99	0,580
442,20	0,960
442,41	0,420
442,62	0,240
442,83	0,794
443,04	0,701
443,26	0,517
443,47	0,757
443,68	0,437
443,89	0,614
444,10	0,445
444,31	0,817
444,53	0,864
444,74	0,658
444,95	0,675
445,16	0,693
445,37	0,490
445,58	0,817
445,80	0,819
446,01	1,089
446,22	1,394
446,43	1,598
446,64	1,229
446,85	1,857
447,06	2,225
447,28	2,629
447,49	3,162
447,70	4,022
447,91	4,514
448,12	5,094
448,33	6,056
448,54	6,509
448,76	7,520
448,97	8,816
449,18	9,850
449,39	10,870
449,60	11,884
449,81	12,719
450,02	13,855
450,23	14,154
450,45	15,255
450,66	15,626
450,87	16,572
451,08	16,779
451,29	17,271
451,50	17,280
451,71	18,047
451,92	19,043
452,13	20,049
452,35	20,157
452,56	20,853
452,77	22,077
452,98	22,683
453,19	24,795
453,40	25,325
453,61	27,191
453,82	28,931
454,03	30,857
454,25	32,954
454,46	34,524
454,67	37,062
454,88	39,414
455,09	42,026
455,30	44,337
455,51	46,069
455,72	49,481
455,93	50,348
456,14	53,747
456,35	54,289
456,56	56,374
456,78	59,272
456,99	61,013
457,20	61,580
457,41	65,012
457,62	66,813
457,83	68,375
458,04	70,529
458,25	72,715
458,46	73,677
458,67	74,926
458,88	77,044
459,09	78,288
459,30	78,082
459,51	77,921
459,73	77,831
459,94	78,755
460,15	77,682
460,36	76,837
460,57	76,103
460,78	74,962
460,99	74,501
461,20	72,663
461,41	70,993
461,62	70,487
461,83	68,979
462,04	67,044
462,25	65,973
462,46	63,959
462,67	63,190
462,88	61,511
463,09	60,012
463,30	58,534
463,51	57,512
463,72	56,634
463,93	55,706
464,15	53,563
464,36	53,290
464,57	52,713
464,78	52,722
464,99	52,561
465,20	52,659
465,41	52,094
465,62	51,819
465,83	52,491
466,04	51,457
466,25	50,421
466,46	49,502
466,67	48,451
466,88	46,954
467,09	44,508
467,30	42,846
467,51	41,772
467,72	39,616
467,93	38,473
468,14	36,666
468,35	36,052
468,56	34,474
468,77	33,792
468,98	33,416
469,19	33,241
469,40	32,679
469,61	31,651
469,82	31,646
470,03	31,296
470,24	30,263
470,45	30,038
470,66	29,510
470,87	28,569
471,08	28,324
471,29	27,863
471,50	26,595
471,71	26,489
471,92	25,604
472,13	24,683
472,34	23,845
472,55	23,182
472,76	22,081
472,97	20,133
473,18	18,862
473,39	16,853
473,60	14,773
473,81	13,045
474,01	11,520
474,22	9,984
474,43	8,275
474,64	6,833
474,85	5,479
475,06	4,733
475,27	3,649
475,48	2,898
475,69	2,663
475,90	2,256
476,11	1,902
476,32	1,543
476,53	1,341
476,74	1,069
476,95	1,061
477,16	0,930
477,37	0,949
477,58	0,600
477,79	0,764
478,00	0,485
478,21	0,855
478,41	0,622
478,62	0,597
478,83	0,522
479,04	0,735
479,25	0,530
479,46	0,578
479,67	0,470
479,88	0,305
480,09	0,492
480,30	0,440
480,51	0,670
480,72	0,383
480,93	0,528
481,14	0,434
481,34	0,530
481,55	0,335
481,76	0,488
481,97	0,295
482,18	0,413
482,39	0,232
482,60	0,465
482,81	0,358
483,02	0,432
483,23	0,349
483,44	0,414
483,65	0,329
483,85	0,160
484,06	0,532
484,27	0,058
484,48	0,227
484,69	0,415
484,90	0,234
485,11	0,412
485,32	0,022
485,53	0,474
485,73	0,615
485,94	0,280
486,15	0,337
486,36	0,391
486,57	0,401
486,78	0,338
486,99	0,319
487,20	0,353
487,41	0,228
487,61	0,246
487,82	0,201
488,03	0,361
488,24	0,204
488,45	0,330
488,66	0,357
488,87	0,266
489,08	0,354
489,28	0,151
489,49	0,401
489,70	0,240
489,91	0,346
490,12	0,212
490,33	0,302
490,54	0,218
490,74	0,449
490,95	0,267
491,16	0,335
491,37	0,326
491,58	0,319
491,79	0,204
492,00	0,207
492,20	0,278
492,41	0,211
492,62	0,310
492,83	0,173
493,04	0,383
493,25	0,442
493,45	0,260
493,66	0,433
493,87	0,173
494,08	0,248
494,29	0,283
494,50	0,226
494,70	0,201
494,91	0,321
495,12	0,190
495,33	0,333
495,54	0,434
495,75	0,324
495,95	0,425
496,16	0,266
496,37	0,238
496,58	0,185
496,79	0,245
496,99	0,172
497,20	0,343
497,41	0,289
497,62	0,305
497,83	0,509
498,04	0,245
498,24	0,316
498,45	0,275
498,66	0,334
498,87	0,396
499,08	0,303
499,28	0,256
499,49	0,491
499,70	0,279
499,91	0,151
500,12	0,226
500,32	0,369
500,53	0,245
500,74	0,504
500,95	0,212
501,15	0,381
501,36	0,307
501,57	0,254
501,78	0,315
501,99	0,226
502,19	0,381
502,40	0,363
502,61	0,104
502,82	0,482
503,02	0,399
503,23	0,480
503,44	0,566
503,65	0,536
503,86	0,371
504,06	0,553
504,27	0,614
504,48	0,639
504,69	0,698
504,89	0,645
505,10	0,676
505,31	0,812
505,52	0,698
505,72	1,058
505,93	0,872
506,14	0,885
506,35	1,094
506,55	1,071
506,76	1,560
506,97	1,963
507,18	2,277
507,38	2,565
507,59	3,222
507,80	3,608
508,01	3,816
508,21	4,496
508,42	4,933
508,63	5,426
508,84	5,954
509,04	6,236
509,25	6,677
509,46	7,021
509,67	7,516
509,87	8,152
510,08	8,164
510,29	8,425
510,49	8,911
510,70	9,154
510,91	9,571
511,12	9,637
511,32	9,991
511,53	9,874
511,74	10,214
511,94	10,693
512,15	10,594
512,36	10,919
512,57	11,067
512,77	11,197
512,98	11,272
513,19	11,545
513,39	11,584
513,60	11,593
513,81	12,549
514,01	12,894
514,22	13,589
514,43	14,099
514,64	14,853
514,84	15,646
515,05	16,503
515,26	17,175
515,46	18,103
515,67	19,407
515,88	20,744
516,08	22,158
516,29	23,149
516,50	24,203
516,70	25,809
516,91	26,785
517,12	27,987
517,32	28,567
517,53	30,129
517,74	31,407
517,95	31,743
518,15	33,166
518,36	33,548
518,57	34,746
518,77	35,453
518,98	35,313
519,19	35,925
519,39	36,660
519,60	36,854
519,80	36,334
520,01	36,804
520,22	36,723
520,42	36,512
520,63	36,622
520,84	36,424
521,04	36,489
521,25	36,574
521,46	36,597
521,66	36,484
521,87	37,165
522,08	36,383
522,28	37,135
522,49	37,308
522,70	37,481
522,90	37,423
523,11	37,704
523,31	37,682
523,52	38,070
523,73	38,355
523,93	38,136
524,14	38,424
524,35	37,864
524,55	38,820
524,76	38,203
524,97	38,108
525,17	38,261
525,38	38,119
525,58	38,694
525,79	38,500
526,00	38,138
526,20	38,194
526,41	38,332
526,61	37,971
526,82	38,681
527,03	38,171
527,23	38,135
527,44	37,932
527,64	37,664
527,85	37,810
528,06	37,504
528,26	37,177
528,47	37,724
528,68	37,815
528,88	37,581
529,09	37,815
529,29	38,539
529,50	37,701
529,70	37,956
529,91	37,985
530,12	38,024
530,32	37,404
530,53	38,210
530,73	37,514
530,94	37,560
531,15	37,364
531,35	37,195
531,56	37,768
531,76	36,687
531,97	36,335
532,17	35,551
532,38	35,165
532,59	33,683
532,79	33,691
533,00	32,008
533,20	30,661
533,41	29,487
533,61	28,021
533,82	26,040
534,03	25,070
534,23	23,784
534,44	22,343
534,64	20,952
534,85	19,581
535,05	18,907
535,26	17,525
535,46	16,750
535,67	15,824
535,88	14,759
536,08	14,376
536,29	13,637
536,49	13,133
536,70	12,073
536,90	11,489
537,11	10,519
537,31	9,828
537,52	9,031
537,72	8,560
537,93	7,615
538,13	6,893
538,34	6,043
538,55	5,326
538,75	4,726
538,96	4,255
539,16	3,929
539,37	3,381
539,57	3,283
539,78	3,017
539,98	2,692
540,19	2,975
540,39	2,547
540,60	2,326
540,80	2,456
541,01	2,424
541,21	2,374
541,42	1,995
541,62	1,933
541,83	1,905
542,03	1,638
542,24	1,439
542,44	1,194
542,65	1,125
542,85	1,184
543,06	0,906
543,26	0,800
543,47	0,684
543,67	0,641
543,88	0,481
544,08	0,428
544,29	0,286
544,49	0,148
544,70	0,198
544,90	0,504
545,11	0,227
545,31	0,325
545,52	0,283
545,72	0,367
545,93	0,202
546,13	0,415
546,34	0,353
546,54	0,319
546,75	0,337
546,95	0,430
547,15	0,192
547,36	0,229
547,56	0,261
547,77	0,230
547,97	0,095
548,18	0,184
548,38	0,290
548,59	0,202
548,79	0,544
549,00	0,321
549,20	0,170
549,41	0,191
549,61	0,265
549,81	0,158
550,02	0,322
550,22	0,078
550,43	0,207
550,63	0,254
550,84	0,358
551,04	0,064
551,25	0,283
551,45	0,383
551,65	0,256
551,86	0,161
552,06	0,201
552,27	0,048
552,47	0,212
552,68	0,279
552,88	0,205
553,08	0,225
553,29	0,251
553,49	0,199
553,70	0,296
553,90	0,299
554,11	0,367
554,31	0,141
554,51	0,375
554,72	0,310
554,92	0,202
555,13	0,334
555,33	0,232
555,53	0,213
555,74	0,319
555,94	0,331
556,15	0,166
556,35	0,073
556,56	0,162
556,76	0,249
556,96	0,272
557,17	0,250
557,37	0,312
557,58	0,096
557,78	0,284
557,98	0,127
558,19	0,170
558,39	0,316
558,59	0,205
558,80	0,142
559,00	0,238
559,21	0,259
559,41	0,250
559,61	0,364
559,82	0,299
560,02	0,176
560,23	0,238
560,43	0,245
560,63	0,034
560,84	0,340
561,04	0,168
561,24	0,118
561,45	0,362
561,65	0,084
561,85	0,084
562,06	0,350
562,26	0,217
562,47	0,384
562,67	0,276
562,87	0,011
563,08	0,307
563,28	0,405
563,48	0,194
563,69	0,136
563,89	0,202
564,09	0,152
564,30	0,095
564,50	0,193
564,70	0,205
564,91	0,164
565,11	0,109
565,31	0,171
565,52	0,011
565,72	0,362
565,92	0,202
566,13	0,191
566,33	0,290
566,53	0,162
566,74	0,030
566,94	0,276
567,14	0,234
567,35	0,259
567,55	0,087
567,75	0,365
567,96	0,204
568,16	0,211
568,36	0,190
568,57	0,369
568,77	0,261
568,97	0,355
569,18	0,261
569,38	0,308
569,58	0,037
569,79	0,090
569,99	0,093
570,19	0,071
570,39	0,160
570,60	0,138
570,80	0,033
571,00	0,111
571,21	0,332
571,41	0,238
571,61	0,133
571,82	0,343
572,02	0,126
572,22	0,044
572,42	0,196
572,63	0,092
572,83	0,133
573,03	-0,034
573,24	0,156
573,44	0,281
573,64	0,234
573,84	-0,067
574,05	0,177
574,25	0,145
574,45	0,184
574,66	0,250
574,86	0,178
575,06	0,241
575,26	0,194
575,47	0,373
575,67	0,219
575,87	0,263
576,07	0,059
576,28	0,225
576,48	0,252
576,68	0,295
576,88	0,198
577,09	0,202
577,29	0,382
577,49	0,112
577,69	0,026
577,90	0,146
578,10	0,118
578,30	0,246
578,50	0,026
578,71	0,103
578,91	0,192
579,11	0,191
579,31	0,240
579,52	0,267
579,72	0,203
579,92	0,288
580,12	0,136
580,33	0,274
580,53	0,150
580,73	0,082
580,93	0,162
581,13	0,186
581,34	-0,037
581,54	0,244
581,74	0,277
581,94	0,283
582,15	0,244
582,35	0,083
582,55	0,264
582,75	0,216
582,95	0,338
583,16	0,254
583,36	0,063
583,56	0,248
583,76	0,107
583,96	0,022
584,17	0,178
584,37	0,073
584,57	0,171
584,77	0,158
584,97	0,059
585,18	0,203
585,38	0,100
585,58	0,088
585,78	0,229
585,98	0,248
586,19	0,099
586,39	0,393
586,59	0,170
586,79	0,256
586,99	0,187
587,20	0,077
587,40	0,227
587,60	-0,022
587,80	0,193
588,00	0,147
588,20	0,321
588,41	0,289
588,61	0,326
588,81	0,109
589,01	0,184
589,21	0,267
589,41	0,054
589,62	0,241
589,82	0,154
590,02	0,161
590,22	0,153
590,42	0,201
590,62	0,223
590,83	0,037
591,03	0,015
591,23	0,036
591,43	0,397
591,63	0,219
591,83	0,069
592,03	0,161
592,24	0,141
592,44	0,168
592,64	0,123
592,84	0,306
593,04	0,163
593,24	0,243
593,44	0,192
593,65	0,130
593,85	0,256
594,05	0,184
594,25	0,080
594,45	0,173
594,65	0,083
594,85	0,022
595,06	0,135
595,26	0,386
595,46	0,033
595,66	0,126
595,86	0,154
596,06	0,159
596,26	0,025
596,46	0,201
596,66	0,185
596,87	0,217
597,07	0,166
597,27	0,011
597,47	0,219
597,67	0,029
597,87	-0,011
598,07	0,220
598,27	0,095
598,47	0,213
598,67	-0,022
598,88	0,253
599,08	0,192
599,28	0,229
599,48	0,056
599,68	0,235
599,88	0,052
600,08	0,137
600,28	0,155
600,48	0,185
600,68	0,127
600,88	0,310
601,09	0,075
601,29	0,269
601,49	0,090
601,69	0,113
601,89	0,200
602,09	0,174
602,29	0,075
602,49	0,030
602,69	0,205
602,89	0,129
603,09	0,261
603,29	0,258
603,49	0,142
603,69	0,236
603,90	-0,023
604,10	0,080
604,30	0,205
604,50	0,186
604,70	0,154
604,90	0,149
605,10	0,065
605,30	0,249
605,50	0,203
605,70	0,274
605,90	0,012
606,10	0,242
606,30	0,144
606,50	0,356
606,70	0,262
606,90	0,062
607,10	0,255
607,30	0,256
607,50	0,159
607,70	0,249
607,90	0,199
608,10	0,281
608,30	0,262
608,50	0,220
608,70	0,406
608,90	0,008
609,11	0,043
609,31	0,210
609,51	0,166
609,71	0,082
609,91	0,105
610,11	0,363
610,31	0,062
610,51	0,152
610,71	0,184
610,91	0,121
611,11	0,160
611,31	0,043
611,51	0,086
611,71	0,087
611,91	0,351
612,11	0,189
612,31	0,225
612,51	0,161
612,71	0,179
612,91	0,115
613,11	0,159
613,31	0,075
613,51	0,235
613,71	0,048
613,91	0,246
614,11	0,247
614,31	0,146
614,50	0,351
614,70	0,095
614,90	0,092
615,10	0,024
615,30	0,234
615,50	0,079
615,70	0,206
615,90	0,140
616,10	0,132
616,30	0,306
616,50	0,129
616,70	-0,028
616,90	0,237
617,10	0,151
617,30	0,084
617,50	0,285
617,70	0,136
617,90	0,115
618,10	0,300
618,30	0,087
618,50	0,274
618,70	0,229
618,90	0,052
619,10	0,047
619,30	0,052
619,49	0,138
619,69	0,233
619,89	0,261
620,09	0,075
620,29	0,213
620,49	0,329
620,69	0,118
620,89	0,079
621,09	0,203
621,29	0,252
621,49	0,121
621,69	0,277
621,89	0,214
622,09	0,246
622,29	0,175
622,48	0,180
622,68	0,047
622,88	0,413
623,08	0,174
623,28	0,275
623,48	0,238
623,68	0,149
623,88	0,101
624,08	0,070
624,28	0,363
624,48	0,324
624,67	0,167
624,87	0,272
625,07	0,219
625,27	0,058
625,47	0,300
625,67	0,169
625,87	0,092
626,07	0,149
626,27	0,099
626,47	0,204
626,66	0,222
626,86	0,147
627,06	0,288
627,26	0,101
627,46	0,052
627,66	0,098
627,86	0,097
628,06	0,277
628,25	0,107
628,45	0,082
628,65	0,292
628,85	0,201
629,05	0,299
629,25	0,033
629,45	0,176
629,65	0,097
629,84	0,060
630,04	0,247
630,24	0,105
630,44	0,064
630,64	0,273
630,84	-0,027
631,04	0,366
631,23	0,223
631,43	0,023
631,63	0,079
631,83	0,110
632,03	0,242
632,23	0,245
632,42	0,171
632,62	0,258
632,82	0,021
633,02	0,231
633,22	0,085
633,42	0,235
633,62	0,204
633,81	-0,066
634,01	0,299
634,21	0,112
634,41	0,123
634,61	0,165
634,80	0,321
635,00	0,247
635,20	0,294
635,40	0,087
635,60	0,279
635,80	0,261
635,99	0,236
636,19	0,030
636,39	0,202
636,59	-0,062
636,79	0,273
636,98	0,298
637,18	-0,026
637,38	0,292
637,58	-0,038
637,78	0,367
637,97	0,116
638,17	0,354
638,37	0,172
638,57	0,050
638,77	0,216
638,96	0,286
639,16	0,375
639,36	0,040
639,56	0,239
639,76	0,230
639,95	0,313
640,15	0,292
640,35	0,140
640,55	-0,030
640,75	0,353
640,94	0,164
641,14	0,339
641,34	0,191
641,54	0,088
641,73	0,175
641,93	0,373
642,13	0,226
642,33	0,163
642,53	0,207
642,72	0,110
642,92	0,540
643,12	0,166
643,32	0,343
643,51	0,467
643,71	-0,094
643,91	0,386
644,11	0,342
644,30	0,233
644,50	0,593
644,70	0,223
644,90	0,387
645,09	0,376
645,29	0,099
645,49	0,534
645,69	0,079
645,88	0,339
646,08	0,188
646,28	0,577
646,48	0,221
646,67	0,175
646,87	0,133
647,07	0,201
647,26	0,790
647,46	0,340
647,66	0,174
647,86	0,635
648,05	0,630
648,25	0,771
648,45	0,379
648,65	0,306
648,84	-0,107
649,04	0,797
649,24	0,470
649,43	0,347
649,63	0,552
649,83	0,431
650,03	0,471
650,22	0,180
650,42	0,421
650,62	0,364
650,81	0,209
651,01	0,104
651,21	0,333
651,40	0,622
651,60	0,057
651,80	0,523
652,00	0,480
652,19	0,188
652,39	0,553
652,59	0,831
652,78	0,041
652,98	-0,050
653,18	0,351
653,37	0,510
653,57	0,625
653,77	0,401
653,96	0,314
654,16	0,723
654,36	0,314
654,55	0,480
654,75	0,336
654,95	0,536
655,14	0,164
655,34	0,803
655,54	0,577
655,73	0,417
655,93	0,663
656,13	0,226
656,32	-0,088
656,52	0,494
656,72	0,591
656,91	0,644
657,11	0,414
657,31	0,313
657,50	0,509
657,70	0,660
657,90	0,669
658,09	0,425
658,29	0,433
658,49	0,436
658,68	0,382
658,88	0,401
659,07	0,837
659,27	0,436
659,47	0,418
659,66	0,344
659,86	0,052
660,06	0,190
660,25	0,230
660,45	0,356
660,64	0,105
660,84	0,122
661,04	0,315
661,23	0,438
661,43	0,386
661,63	0,043
661,82	0,147
662,02	0,712
662,21	0,541
662,41	0,376
662,61	0,863
662,80	0,088
663,00	0,095
663,19	0,865
663,39	-0,173
663,59	0,680
663,78	0,490
663,98	0,325
664,17	0,460
664,37	0,594
664,57	0,480
664,76	0,416
664,96	0,247
665,15	0,281
665,35	0,440
665,55	0,026
665,74	0,523
665,94	0,515
666,13	0,233
666,33	0,447
666,53	0,393
666,72	0,143
666,92	0,503
667,11	0,474
667,31	0,272
667,50	0,215
667,70	0,477
667,90	0,311
668,09	0,279
668,29	0,294
668,48	0,293
668,68	0,219
668,87	0,451
669,07	0,152
669,26	0,425
669,46	0,440
669,66	0,380
669,85	0,371
670,05	0,166
670,24	0,312
670,44	0,205
670,63	0,109
670,83	0,515
671,02	0,157
671,22	0,201
671,42	0,209
671,61	0,330
671,81	0,462
672,00	0,393
672,20	0,235
672,39	0,180
672,59	0,083
672,78	0,279
672,98	0,256
673,17	0,133
673,37	0,270
673,56	0,363
673,76	0,022
673,95	0,233
674,15	0,469
674,34	0,322
674,54	0,435
674,73	0,292
674,93	0,192
675,13	0,509
675,32	0,589
675,52	0,329
675,71	0,226
675,91	0,197
676,10	0,487
676,30	0,281
676,49	0,020
676,69	0,301
676,88	0,158
677,08	0,131
677,27	0,182
677,47	0,267
677,66	0,550
677,86	0,365
678,05	0,262
678,24	0,133
678,44	0,747
678,63	0,299
678,83	0,186
679,02	0,289
679,22	0,426
679,41	0,178
679,61	0,170
679,80	0,361
680,00	0,065
680,19	0,310
680,39	0,366
680,58	0,163
680,78	0,178
680,97	0,245
681,17	0,045
681,36	0,153
681,56	0,275
681,75	0,207
681,94	0,176
682,14	0,438
682,33	0,108
682,53	0,168
682,72	0,199
682,92	0,592
683,11	0,084
683,31	0,094
683,50	0,162
683,69	0,216
683,89	0,170
684,08	0,278
684,28	0,020
684,47	0,070
684,67	0,114
684,86	0,217
685,06	0,084
685,25	0,193
685,44	0,126
685,64	0,375
685,83	0,294
686,03	0,084
686,22	0,232
686,42	0,180
686,61	0,332
686,80	0,155
687,00	0,131
687,19	0,213
687,39	0,156
687,58	0,124
687,77	0,196
687,97	0,222
688,16	0,239
688,36	0,026
688,55	-0,039
688,74	0,085
688,94	0,243
689,13	0,143
689,33	-0,067
689,52	0,260
689,71	0,108
689,91	0,089
690,10	0,077
690,30	0,032
690,49	0,012
690,68	0,258
690,88	0,059
691,07	0,051
691,27	0,098
691,46	0,276
691,65	0,142
691,85	0,157
692,04	0,091
692,23	-0,016
692,43	0,186
692,62	0,244
692,82	0,168
693,01	0,024
693,20	0,125
693,40	0,052
693,59	0,187
693,78	0,394
693,98	0,090
694,17	0,191
694,36	0,336
694,56	0,063
694,75	0,119
694,94	0,201
695,14	0,175
695,33	0,158
695,53	0,180
695,72	0,256
695,91	-0,056
696,11	0,108
696,30	0,284
696,49	0,269
696,69	0,162
696,88	0,010
697,07	0,114
697,27	0,271
697,46	0,313
697,65	0,023
697,85	0,117
698,04	0,579
698,23	0,164
698,43	0,137
698,62	0,006
698,81	0,368
699,01	0,383
699,20	0,203
699,39	0,094
699,58	0,165
699,78	0,084
699,97	0,102
700,16	0,081
700,36	0,401
700,55	0,397
700,74	0,587
700,94	0,242
701,13	0,066
701,32	0,087
701,52	0,428
701,71	0,706
701,90	0,448
702,09	0,705
702,29	0,930
702,48	0,159
702,67	0,381
702,87	1,121
703,06	0,451
703,25	0,857
703,44	0,390
703,64	0,553
703,83	0,716
704,02	1,672
704,22	0,369
704,41	0,170
704,60	0,514
704,79	0,689
704,99	1,307
705,18	1,491
705,37	1,448
705,56	1,340
705,76	1,626
705,95	1,534
706,14	0,658
706,33	0,888
706,53	0,852
706,72	0,418
706,91	1,535
707,11	0,752
707,30	1,033
707,49	1,574
707,68	0,682
707,88	0,777
708,07	0,561
708,26	1,616
708,45	0,467
708,64	2,804
708,84	0,916
709,03	0,973
709,22	0,390
709,41	2,069
709,61	1,943
709,80	2,195
709,99	1,412
710,18	2,405
710,38	0,000
710,57	0,636
710,76	0,229
710,95	2,096
711,14	2,185
711,34	1,652
711,53	2,450
711,72	2,534
711,91	1,661
712,11	2,455
712,30	1,000
712,49	0,498
712,68	0,435
712,87	0,653
713,07	3,252
713,26	0,833
713,45	0,707
713,64	0,917
713,83	1,671
714,03	1,119
714,22	3,167
714,41	1,024
714,60	2,278
714,79	0,384
714,99	2,274
715,18	3,856
715,37	2,867
715,56	2,946
715,75	3,202
715,94	2,904
716,14	5,255
716,33	4,943
716,52	3,616
716,71	4,570
716,90	1,554
717,10	1,837
717,29	3,039
717,48	2,113
717,67	3,779
717,86	2,307
718,05	2,518
718,24	2,854
718,44	4,673
718,63	0,669
718,82	2,686
719,01	1,993
719,20	6,159
719,39	2,353
719,59	-0,130
719,78	-0,200
719,97	2,209
720,16	3,226
720,35	1,445
720,54	1,677
720,73	3,413
720,93	3,037
721,12	-0,431
721,31	2,405
721,50	4,364
721,69	3,048
721,88	6,068
722,07	4,126
722,27	3,747
722,46	3,823
722,65	4,289
722,84	4,032
723,03	4,318
723,22	5,479
723,41	2,575
723,60	0,327
723,79	4,868
723,99	3,856
724,18	5,748
724,37	1,544
724,56	6,388
724,75	3,130
724,94	10,389
725,13	5,837
725,32	6,571
725,51	1,302
725,71	3,372
725,90	4,537
726,09	6,667
726,28	5,815
726,47	2,663
726,66	6,859
726,85	6,730
727,04	2,752
727,23	3,534
727,42	8,239
727,61	4,218
727,81	1,081
728,00	2,599
728,19	5,309
728,38	0,218
728,57	8,750
728,76	7,725
728,95	7,292
729,14	6,926
729,33	4,409
729,52	5,737
729,71	3,579
729,90	9,011
730,09	2,576
730,28	8,094
730,48	6,208
730,67	7,924
730,86	7,801
731,05	2,917
731,24	2,561
731,43	7,666
731,62	7,102
731,81	4,313
732,00	9,820
732,19	3,125
732,38	3,205
732,57	6,235
732,76	2,873
732,95	5,019
733,14	-4,161
733,33	-0,794
733,52	8,567
733,71	6,600
733,90	3,531
734,09	8,514
734,28	2,756
734,47	4,861
734,66	7,754
734,85	5,429
735,04	4,137
735,23	6,723
735,42	8,470
735,61	9,184
735,81	8,432
736,00	6,410
736,19	6,383
736,38	10,329
736,57	8,368
736,76	7,737
736,95	6,210
737,14	7,815
737,33	4,668
737,52	4,615
737,71	8,197
737,90	7,110
738,09	9,285
738,28	11,958
738,47	0,000
738,66	4,487
738,85	8,108
739,04	4,460
739,22	7,860
739,41	5,515
739,60	-0,171
739,79	8,094
739,98	3,943
740,17	4,949
740,36	11,754
740,55	13,376
740,74	7,890
740,93	13,384
741,12	8,571
741,31	0,352
741,50	5,482
741,69	11,858
741,88	-1,186
742,07	13,225
742,26	14,857
742,45	10,041
742,64	8,592
742,83	13,097
743,02	5,053
743,21	6,679
743,40	4,762
743,59	7,904
743,78	11,546
743,97	14,423
744,16	10,433
744,34	3,030
744,53	10,103
744,72	7,724
744,91	5,672
745,10	17,820
745,29	6,452
745,48	4,091
745,67	7,062
745,86	13,687
746,05	10,900
746,24	5,979
746,43	3,426
746,62	9,052
746,81	8,539
747,00	14,661
747,18	15,251
747,37	21,263
747,56	14,588
747,75	2,217
747,94	16,748
748,13	15,213
748,32	9,762
748,51	10,406
748,70	18,282
748,89	13,115
749,08	-3,488
749,26	16,960
749,45	10,992
749,64	7,557
749,83	19,326
750,02	22,554
750,21	9,415
750,40	27,935
750,59	5,362
750,78	20,698
750,96	4,972
751,15	18,925
751,34	2,841
751,53	9,563
751,72	16,901
751,91	13,731
752,10	9,948
752,29	13,867
752,47	8,883
752,66	19,683
752,85	15,847
753,04	11,732
753,23	16,409
753,42	13,747
753,61	24,138
753,80	16,495
753,98	16,667
754,17	12,158
754,36	7,419
754,55	19,277
754,74	16,558
754,93	35,537
755,12	21,662
755,30	8,766
755,49	6,395
755,68	18,712
755,87	7,692
756,06	21,181
756,25	28,571
756,43	7,718
756,62	27,950
756,81	8,278
757,00	15,789
757,19	10,069
757,38	16,988
757,56	1,600
757,75	25,256
757,94	4,943
758,13	20,548
758,32	19,585
758,51	8,081
758,69	3,475
758,88	14,478
759,07	22,156
759,26	15,548
759,45	6,667
759,63	6,926
759,82	8,070
760,01	13,187
760,20	25,157
760,39	25,868
760,57	10,453
760,76	19,512
760,95	23,611
761,14	15,328
761,33	37,419
761,51	15,357
761,70	14,870
761,89	8,000
762,08	19,703
762,27	10,469
762,45	13,768
762,64	3,015
762,83	17,131
763,02	24,783
763,21	4,000
763,39	23,077
763,58	4,089
763,77	28,270
763,96	21,116
764,14	-5,417
764,33	14,762
764,52	20,982
764,71	32,131
764,89	35,268
765,08	16,256
765,27	23,404
765,46	19,731
765,65	27,843
765,83	34,842
766,02	2,381
766,21	11,475
766,40	22,179
766,58	25,397
766,77	20,642
766,96	29,675
767,15	31,513
767,33	23,188
767,52	26,638
767,71	10,088
767,90	13,568
768,08	21,557
768,27	38,618
768,46	22,807
768,64	31,019
768,83	3,431
769,02	15,271
769,21	9,375
769,39	17,857
769,58	24,242
769,77	45,745
769,96	26,126
770,14	20,219
770,33	42,991
770,52	25,899
770,70	22,703
770,89	50,811
771,08	4,819
771,27	24,211
771,45	27,647
771,64	11,515
771,83	35,784
772,01	50,000
772,20	31,841
772,39	9,494
772,57	20,398
772,76	53,378
772,95	28,736
773,14	31,293
773,32	22,034
773,51	14,881
773,70	30,216
773,88	-10,968
774,07	34,010
774,26	10,484
774,44	36,090
774,63	40,120
774,82	20,779
775,00	40,654
775,19	22,619
775,38	33,511
775,56	45,963
775,75	42,308
775,94	14,167
776,12	16,993
776,31	27,068
776,50	49,315
776,68	36,559
776,87	46,890
777,06	33,962
777,24	14,286
777,43	54,545
777,62	39,326
777,80	33,962
777,99	57,500
778,18	18,391
778,36	38,983
778,55	10,169
778,74	8,594
778,92	25,309
779,11	60,000
779,29	4,965
779,48	25,532
779,67	54,054
779,85	24,561
780,04	42,754
780,23	42,262
780,41	19,492
780,60	37,584
780,79	28,226
780,97	39,869
781,16	15,426
781,34	48,649
781,53	43,750
781,72	-20,721
781,90	26,946
782,09	13,953
782,28	29,252
782,46	46,429
782,65	42,958
782,83	-0,629
783,02	65,789
783,21	51,880
783,39	31,933
783,58	64,348
783,76	58,503
783,95	52,817
784,14	34,211
784,32	0,000
784,51	68,243
784,69	46,094
784,88	46,729
785,06	22,517
785,25	60,284
785,44	11,290
785,62	50,000
785,81	49,074
785,99	42,857
786,18	52,252
786,37	74,725
786,55	34,722
786,74	47,273
786,92	32,867
787,11	29,861
787,29	19,643
787,48	70,968
787,67	58,491
787,85	73,418
788,04	39,640
788,22	52,475
788,41	69,291
788,59	42,105
788,78	69,231
788,96	36,364
789,15	64,167
789,34	73,077
789,52	88,710
789,71	77,698
789,89	59,740
790,08	73,750
790,26	55,414
790,45	75,000
790,63	36,782
790,82	76,923
791,00	46,018
791,19	45,600
791,38	52,381
791,56	40,909
791,75	47,222
791,93	31,000
792,12	53,913
792,30	54,745
792,49	33,333
792,67	25,735
792,86	68,000
793,04	39,815
793,23	86,316
793,41	7,971
793,60	35,417
793,78	52,381
793,97	50,694
794,15	73,684
794,34	36,000
794,52	-8,602
794,71	47,287
794,89	5,303
795,08	56,800
795,26	34,667
795,45	47,222
795,63	50,000
795,82	60,440
796,00	44,000
796,19	62,602
796,37	30,534
796,56	1,942
796,74	45,263
796,93	69,697
797,11	73,494
797,30	30,000
797,48	36,719
797,67	26,829
797,85	54,615
798,04	43,220
798,22	66,667
798,41	18,269
798,59	31,429
798,77	45,783
798,96	51,852
799,14	58,065
799,33	39,450
799,51	33,333
799,70	65,385
799,88	97,248
800,07	58,779
800,25	67,470
800,44	162,963
800,62	86,111
800,80	36,620
800,99	104,110
801,17	28,448
801,36	79,286
801,54	61,000
801,73	48,421
801,91	44,628
802,10	55,294
802,28	51,200
802,46	53,947
802,65	25,899
802,83	110,667
803,02	62,903
803,20	49,398
803,39	73,563
803,57	32,283
803,75	65,854
803,94	27,778
804,12	94,483
804,31	53,623
804,49	31,200
804,67	3,676
804,86	45,133
805,04	2,410
805,23	34,513
805,41	50,000
805,59	84,247
805,78	68,800
805,96	79,518
806,15	72,277
806,33	71,053
806,51	80,000
806,70	61,654
806,88	72,093
807,07	45,946
807,25	59,341
807,43	36,607
807,62	50,442
807,80	24,762
807,99	52,308
808,17	44,094
808,35	40,000
808,54	47,826
808,72	61,261
808,90	37,671
809,09	36,957
809,27	65,333
809,46	97,802
809,64	64,634
809,82	25,166
810,01	50,781
810,19	41,414
810,37	50,000
810,56	93,333
810,74	54,545
810,92	54,667
811,11	28,070
811,29	58,491
811,48	24,615
811,66	65,169
811,84	14,286
812,03	36,885
812,21	44,737
812,39	31,304
812,58	70,526
812,76	56,835
812,94	44,578
813,13	9,574
813,31	22,000
813,49	40,741
813,68	40,000
813,86	38,202
814,04	25,620
814,23	46,988
814,41	25,843
814,59	38,835
814,78	25,000
814,96	20,126
815,14	49,533
815,33	21,705
815,51	43,307
815,69	34,286
815,87	86,139
816,06	68,696
816,24	54,037
816,42	58,088
816,61	61,006
816,79	27,586
816,97	17,045
817,16	46,746
817,34	50,794
817,52	66,942
817,70	50,495
817,89	46,667
818,07	32,192
818,25	24,490
818,44	66,667
818,62	16,279
818,80	30,827
818,98	42,038
819,17	32,773
819,35	31,383
819,53	45,522
819,72	55,063
819,90	58,140
820,08	-16,239
820,26	11,207
820,45	27,517
820,63	91,071
820,81	19,200
820,99	39,007
821,18	67,347
821,36	43,038
821,54	62,759
821,73	44,444
821,91	56,140
822,09	37,903
822,27	59,355
822,46	25,000
822,64	52,000
822,82	36,464
823,00	22,652
823,19	45,055
823,37	58,788
823,55	17,614
823,73	61,379
823,91	55,797
824,10	38,710
824,28	39,196
824,46	30,097
824,64	57,895
824,83	57,764
825,01	24,000
825,19	33,871
825,37	29,565
825,56	44,811
825,74	61,224
825,92	64,968
826,10	27,273
826,28	40,476
826,47	44,737
826,65	58,865
826,83	37,069
827,01	47,399
827,19	54,762
827,38	27,778
827,56	38,636
827,74	18,436
827,92	20,349
828,10	38,462
828,29	46,746
828,47	37,398
828,65	32,308
828,83	30,909
829,01	32,609
829,20	34,615
829,38	38,068
829,56	50,000
829,74	34,591
829,92	23,016
830,10	48,851
830,29	33,166
830,47	51,256
830,65	-7,317
830,83	16,964
831,01	40,476
831,20	21,359
831,38	2,871
831,56	40,465
831,74	38,389
831,92	63,816
832,10	26,190
832,29	16,892
832,47	17,416
832,65	24,510
832,83	31,455
833,01	30,000
833,19	18,100
833,37	33,484
833,56	27,426
833,74	34,314
833,92	-5,093
834,10	30,705
834,28	40,928
834,46	36,652
834,64	28,241
834,83	20,909
835,01	31,950
835,19	26,000
835,37	23,967
835,55	18,750
835,73	16,749
835,91	41,697
836,09	29,658
836,28	28,413
836,46	25,200
836,64	27,444
836,82	26,697
837,00	26,812
837,18	26,394
837,36	30,677
837,54	24,091
837,72	22,845
837,91	26,493
838,09	4,382
838,27	28,000
838,45	29,787
838,63	19,853
838,81	16,456
838,99	19,758
839,17	13,851
839,35	26,241
839,53	24,211
839,72	21,053
839,90	33,333
840,08	25,231
840,26	28,968
840,44	26,284
840,62	13,448
840,80	30,612
840,98	14,902
841,16	21,673
841,34	11,037
841,52	25,994
841,70	27,692
841,89	18,548
842,07	19,122
842,25	25,287
842,43	9,483
842,61	27,719
842,79	27,966
842,97	13,029
843,15	28,053
843,33	27,445
843,51	15,663
843,69	26,496
843,87	18,657
844,05	29,179
844,23	15,916
844,41	18,495
844,59	17,003
844,77	16,807
844,95	15,607
845,13	31,385
845,31	14,244
845,50	21,728
845,68	14,469
845,86	18,678
846,04	27,654
846,22	15,259
846,40	24,194
846,58	13,675
846,76	23,656
846,94	21,446
847,12	16,580
847,30	21,134
847,48	6,811
847,66	26,601
847,84	12,022
848,02	22,705
848,20	17,829
848,38	12,251
848,56	15,625
848,74	30,072
848,92	9,476
849,10	9,250
849,28	20,648
849,46	14,933
849,64	9,238
849,82	10,185
850,00	16,589
850,18	15,106
850,36	8,609
850,54	17,043
850,72	23,907
850,90	21,522
851,08	15,317
851,26	9,628
851,44	5,973
851,62	4,884
851,80	10,793
851,98	17,802
852,16	24,113
852,34	8,866
852,52	12,277
852,70	-2,733
852,87	5,479
853,05	11,696
853,23	14,639
853,41	17,007
853,59	10,996
853,77	17,262
853,95	18,143
854,13	13,274
854,31	10,883
854,49	7,385
854,67	6,479
854,85	8,489
855,03	13,427
855,21	23,789
855,39	0,000
855,57	1,434
855,75	10,584
855,93	9,020
856,11	17,795
856,28	12,546
856,46	19,573
856,64	17,714
856,82	13,574
857,00	0,406
857,18	9,928
857,36	17,369
857,54	13,495
857,72	7,018
857,90	7,934
858,08	10,000
858,26	6,418
858,44	13,255
858,61	4,355
858,79	10,727
858,97	15,221
859,15	16,409
859,33	12,344
859,51	22,781
859,69	12,343
859,87	13,180
860,05	1,243
860,23	8,604
860,40	10,676
860,58	13,770
860,76	6,032
860,94	13,821
861,12	14,000
861,30	7,221
861,48	14,143
861,66	8,095
861,84	8,969
862,01	14,875
862,19	4,746
862,37	3,933
862,55	9,078
862,73	2,941
862,91	4,112
863,09	5,952
863,27	4,167
863,44	12,976
863,62	9,103
863,80	5,907
863,98	7,715
864,16	4,913
864,34	8,628
864,52	5,630
864,69	5,117
864,87	3,907
865,05	7,075
865,23	8,105
865,41	14,919
865,59	5,922
865,76	9,056
865,94	12,403
866,12	10,323
866,30	6,872
866,48	14,688
866,66	4,839
866,83	15,522
867,01	3,069
867,19	10,663
867,37	5,304
867,55	4,659
867,73	3,846
867,90	9,222
868,08	7,981
868,26	16,422
868,44	5,393
868,62	6,020
868,79	6,186
868,97	7,809
869,15	0,464
869,33	3,419
869,51	7,549
869,69	7,073
869,86	1,988
870,04	10,230
870,22	10,221
870,40	8,538
870,57	5,536
870,75	5,525
870,93	11,263
871,11	7,035
871,29	4,224
871,46	6,402
871,64	9,519
871,82	7,535
872,00	11,111
872,18	4,958
872,35	6,348
872,53	4,934
872,71	7,041
872,89	14,968
873,06	9,346
873,24	10,184
873,42	5,655
873,60	6,955
873,77	7,771
873,95	3,413
874,13	2,960
874,31	3,715
874,49	9,777
874,66	3,853
874,84	7,623
875,02	9,991
875,20	9,458
875,37	8,385
875,55	4,866
875,73	3,671
875,91	7,249
876,08	1,463
876,26	3,710
876,44	4,083
876,61	9,992
876,79	9,624
876,97	2,372
877,15	5,286
877,32	1,279
877,50	4,719
877,68	6,084
877,86	3,144
878,03	5,128
878,21	4,276
878,39	7,217
878,56	-0,248
878,74	6,651
878,92	1,614
879,10	1,768
879,27	7,402
879,45	5,178
879,63	2,717
879,80	9,207
879,98	1,806
880,16	8,297
880,34	8,254
880,51	0,000
880,69	7,366
880,87	4,887
881,04	4,269
881,22	7,524
881,40	6,088
881,57	4,705
881,75	5,886
881,93	7,739
882,10	5,481
882,28	5,793
882,46	7,260
882,63	3,844
882,81	8,568
882,99	6,454
883,16	5,388
883,34	5,348
883,52	4,561
883,69	6,874
883,87	4,036
884,05	5,907
884,22	3,196
884,40	6,216
884,58	3,030
884,75	5,529
884,93	6,144
885,11	8,490
885,28	2,745
885,46	2,399
885,64	4,801
885,81	6,302
885,99	5,081
886,17	5,471
886,34	4,181
886,52	4,429
886,70	7,259
886,87	5,329
887,05	5,051
887,22	3,985
887,40	8,681
887,58	8,124
887,75	8,193
887,93	9,021
888,11	8,399
888,28	7,272
888,46	8,703
888,63	6,964
888,81	7,921
888,99	10,556
889,16	11,860
889,34	7,306
889,51	10,605
889,69	10,635
889,87	12,127
890,04	12,857
890,22	13,213
890,39	12,655
890,57	15,859
890,75	12,856
890,92	13,849
891,10	14,353
891,27	15,792
891,45	15,196
891,63	18,643
891,80	15,756
891,98	15,402
892,15	17,132
892,33	18,366
892,51	20,620
892,68	20,924
892,86	19,425
893,03	22,609
893,21	22,610
893,38	19,328
893,56	21,799
893,74	20,882
893,91	22,127
894,09	23,433
894,26	25,033
894,44	24,005
894,61	23,735
894,79	22,335
894,96	23,507
895,14	25,042
895,32	23,627
895,49	26,331
895,67	24,916
895,84	25,349
896,02	26,460
896,19	26,394
896,37	26,611
896,54	25,979
896,72	27,192
896,89	27,780
897,07	30,004
897,25	29,340
897,42	26,004
897,60	29,555
897,77	30,410
897,95	29,845
898,12	30,133
898,30	29,890
898,47	30,124
898,65	27,604
898,82	28,361
899,00	30,987
899,17	34,240
899,35	28,329
899,52	31,913
899,70	32,163
899,87	32,188
900,05	36,187
900,22	32,152
900,40	34,039
900,57	33,692
900,75	32,686
900,92	34,631
901,10	33,569
901,27	35,085
901,45	36,130
901,62	36,043
901,80	35,746
901,97	35,755
902,15	34,752
902,32	35,393
902,50	32,652
902,67	35,963
902,85	34,795
903,02	35,060
903,20	33,714
903,37	32,811
903,54	34,339
903,72	36,521
903,89	33,111
904,07	32,977
904,24	33,092
904,42	32,641
904,59	32,893
904,77	33,145
904,94	30,548
905,12	31,786
905,29	30,945
905,47	32,067
905,64	33,868
905,81	30,689
905,99	31,292
906,16	28,685
906,34	31,051
906,51	29,706
906,69	30,883
906,86	28,275
907,03	29,196
907,21	27,390
907,38	27,944
907,56	28,459
907,73	27,583
907,91	25,097
908,08	26,713
908,25	26,469
908,43	26,443
908,60	25,599
908,78	23,213
908,95	24,992
909,13	25,411
909,30	24,175
909,47	24,078
909,65	22,942
909,82	21,993
910,00	21,369
910,17	22,180
910,34	21,127
910,52	20,835
910,69	19,621
910,87	22,682
911,04	19,412
911,21	20,563
911,39	18,176
911,56	19,832
911,73	17,188
911,91	17,441
912,08	18,195
912,26	15,524
912,43	18,822
912,60	16,278
912,78	15,612
912,95	16,017
913,13	15,762
913,30	17,942
913,47	16,305
913,65	15,322
913,82	16,018
913,99	14,169
914,17	14,453
914,34	13,494
914,51	16,462
914,69	15,495
914,86	16,234
915,03	14,516
915,21	14,782
915,38	14,108
915,56	16,171
915,73	15,605
915,90	16,606
916,08	15,587
916,25	13,636
916,42	15,272
916,60	16,259
916,77	15,968
916,94	17,269
917,12	15,428
917,29	16,212
917,46	17,463
917,64	17,942
917,81	16,210
917,98	16,512
918,16	16,832
918,33	17,607
918,50	17,864
918,67	19,433
918,85	19,293
919,02	18,493
919,19	18,322
919,37	17,837
919,54	18,847
919,71	18,221
919,89	20,135
920,06	19,595
920,23	19,238
920,41	18,903
920,58	19,236
920,75	18,005
920,92	17,829
921,10	17,582
921,27	17,246
921,44	18,828
921,62	18,084
921,79	18,044
921,96	17,145
922,13	17,943
922,31	16,971
922,48	17,526
922,65	16,047
922,82	16,054
923,00	16,876
923,17	15,937
923,34	16,655
923,52	15,586
923,69	16,034
923,86	17,244
924,03	16,962
924,21	14,292
924,38	15,959
924,55	14,867
924,72	14,832
924,90	13,836
925,07	13,874
925,24	13,511
925,41	14,259
925,59	13,291
925,76	13,045
925,93	14,308
926,10	13,472
926,28	13,592
926,45	11,527
926,62	12,286
926,79	13,300
926,96	13,358
927,14	13,827
927,31	12,712
927,48	12,500
927,65	11,395
927,83	11,871
928,00	12,406
928,17	10,928
928,34	10,976
928,51	10,322
928,69	11,752
928,86	12,284
929,03	9,991
929,20	10,676
929,37	9,679
929,55	10,588
929,72	10,364
929,89	9,277
930,06	7,951
930,23	8,899
930,41	8,201
930,58	9,215
930,75	7,429
930,92	8,333
931,09	7,536
931,27	7,284
931,44	6,751
931,61	6,798
931,78	6,311
931,95	6,061
932,12	6,774
932,30	5,573
932,47	5,137
932,64	5,826
932,81	4,260
932,98	5,211
933,16	4,836
933,33	4,985
933,50	5,599
933,67	4,789
933,84	5,752
934,01	4,288
934,18	4,598
934,36	3,870
934,53	5,010
934,70	3,620
934,87	3,744
935,04	4,885
935,21	3,452
935,38	3,827
935,56	4,921
935,73	3,553
935,90	4,285
936,07	3,161
936,24	4,408
936,41	3,767
936,58	3,479
936,76	4,146
936,93	3,347
937,10	3,659
937,27	4,472
937,44	2,529
937,61	4,120
937,78	3,699
937,95	3,863
938,13	2,642
938,30	3,486
938,47	3,771
938,64	3,421
938,81	2,087
938,98	2,932
939,15	3,197
939,32	3,918
939,49	2,469
939,66	3,201
939,84	4,180
940,01	3,870
940,18	3,239
940,35	2,794
940,52	3,739
940,69	2,792
940,86	3,532
941,03	3,586
941,20	2,471
941,37	2,763
941,54	4,189
941,71	4,561
941,89	3,355
942,06	4,003
942,23	3,936
942,40	3,431
942,57	3,659
942,74	3,338
942,91	4,505
943,08	3,974
943,25	4,239
943,42	2,754
943,59	3,301
943,76	4,390
943,93	2,982
944,10	2,003
944,27	2,406
944,44	3,710
944,61	4,485
944,79	4,658
944,96	4,791
945,13	3,233
945,30	2,994
945,47	4,609
945,64	3,616
945,81	2,876
945,98	4,269
946,15	2,790
946,32	4,201
946,49	2,766
946,66	3,186
946,83	3,198
947,00	3,171
947,17	2,228
947,34	3,323
947,51	3,240
947,68	4,280
947,85	3,059
948,02	3,617
948,19	2,899
948,36	4,119
948,53	2,154
948,70	3,225
948,87	4,014
949,04	4,962
949,21	3,115
949,38	3,778
949,55	4,183
949,72	2,994
949,89	3,398
950,06	3,290
950,23	2,859
950,40	3,628
950,57	3,305
950,74	3,115
950,91	3,595
951,08	2,760
951,25	4,469
951,42	3,278
951,59	2,014
951,76	0,875
951,93	3,361
952,10	4,111
952,27	3,338
952,44	3,814
952,61	3,468
952,77	2,924
952,94	3,818
953,11	2,799
953,28	3,690
953,45	3,402
953,62	5,243
953,79	2,568
953,96	3,415
954,13	4,680
954,30	3,826
954,47	3,923
954,64	1,715
954,81	4,031
954,98	3,427
955,15	1,874
955,32	5,165
955,49	3,851
955,65	3,898
955,82	6,057
955,99	6,411
956,16	6,887
956,33	2,150
956,50	4,941
956,67	5,156
956,84	7,845
957,01	4,776
957,18	6,008
957,35	3,383
957,52	7,214
957,68	2,723
957,85	8,518
958,02	3,248
958,19	5,623
958,36	4,853
958,53	3,211
958,70	7,163
958,87	3,493
959,04	3,783
959,21	9,291
959,37	6,511
959,54	3,770
959,71	6,353
959,88	5,465
960,05	6,519
960,22	5,535
960,39	4,020
960,56	5,882
960,72	5,402
960,89	10,067
961,06	11,634
961,23	7,645
961,40	7,930
961,57	7,987
961,74	7,680
961,90	14,369
962,07	6,726
962,24	9,631
962,41	12,241
962,58	9,866
962,75	11,624
962,92	7,018
963,08	9,167
963,25	1,195
963,42	15,462
963,59	10,062
963,76	11,928
963,93	17,719
964,10	7,014
964,26	19,048
964,43	0,465
964,60	6,729
964,77	16,107
964,94	15,062
965,10	12,256
965,27	10,615
965,44	14,921
965,61	7,192
965,78	18,012
965,95	27,114
966,11	14,848
966,28	22,067
966,45	16,667
966,62	9,408
966,79	-1,365
966,95	8,541
967,12	29,524
967,29	29,321
967,46	35,231
967,63	18,431
967,79	39,262
967,96	23,853
968,13	15,238
968,30	43,210
968,47	41,923
968,63	10,294
968,80	24,138
968,97	49,133
969,14	25,424
969,31	19,898
969,47	34,783
969,64	7,143
969,81	4,516
969,98	27,895
970,14	21,505
970,31	39,623
970,48	24,832
970,65	15,702
970,81	5,594
970,98	33,854
971,15	69,091
971,32	52,273
971,48	38,690
971,65	19,205
971,82	23,636
971,99	46,203
972,15	12,791
972,32	57,639
972,49	52,459
972,66	43,802
972,82	77,397
972,99	11,250
973,16	77,483
973,33	40,741
973,49	63,415
973,66	17,143
973,83	69,136
974,00	15,190
974,16	45,455
974,33	70,667
974,50	68,687
974,67	55,952
974,83	81,633
975,00	205,455
975,17	132,258
975,33	56,322
975,50	168,852
975,67	63,462
975,84	59,756
976,00	65,789
976,17	69,565
976,34	82,353
976,50	65,934
976,67	109,524
976,84	191,667
977,00	50,000
977,17	91,111
977,34	105,769
977,50	100,000
977,67	118,824
977,84	138,983
978,01	132,432
978,17	101,724
978,34	144,444
978,51	292,000
978,67	159,184
978,84	96,364
979,01	144,737
979,17	75,714
979,34	167,391
979,51	168,182
979,67	241,667
979,84	177,966
980,01	105,769
980,17	94,118
980,34	79,452
980,51	866,667
980,67	117,778
980,84	142,857
981,01	220,588
981,17	105,882
981,34	91,429
981,50	120,000
981,67	166,667
981,84	107,143
982,00	11100,000
982,17	131,250
982,34	170,732
982,50	0,000
982,67	-385,714
982,84	370,000
983,00	114,815
983,17	-214,286
983,33	522,222
983,50	190,244
983,67	81,159
983,83	461,905
984,00	286,957
984,17	1133,333
984,33	-400,000
984,50	202,703
984,66	350,000
984,83	600,000
985,00	246,154
985,16	193,548
985,33	2800,000
985,49	93,023
985,66	57,500
985,83	-3233,333
985,99	455,556
986,16	526,316
986,32	126,027
986,49	-780,000
986,66	680,000
986,82	78,788
986,99	40,000
987,15	227,273
987,32	429,412
987,49	175,000
987,65	4,348
987,82	-265,000
987,98	156,061
988,15	542,857
988,31	248,571
988,48	150,980
988,65	560,000
988,81	116,364
988,98	189,189
989,14	680,000
989,31	144,068
989,47	-135,714
989,64	305,556
989,80	126,596
989,97	225,455
990,14	528,571
990,30	-700,000
990,47	-158,333
990,63	200,000
990,80	916,667
990,96	816,667
991,13	290,000
991,29	168,627
991,46	137,500
991,62	0,000
991,79	-650,000
991,95	388,235
992,12	1066,667
992,29	-533,333
992,45	138,095
992,62	-175,000
992,78	-650,000
992,95	290,323
993,11	812,500
993,28	-4100,000
993,44	-255,172
993,61	108,772
993,77	0,000
993,94	169,231
994,10	1028,571
994,27	92,105
994,43	187,500
994,60	671,429
994,76	330,303
994,93	-710,000
995,09	-525,000
995,26	366,667
995,42	587,500
995,59	53,333
995,75	-608,333
995,92	-1385,714
996,08	-1060,000
996,25	275,758
996,41	840,000
996,58	360,000
996,74	-220,000
996,91	141,935
997,07	236,000
997,23	158,824
997,40	800,000
997,56	-2533,333
997,73	365,217
997,89	1380,000
998,06	126,316
998,22	206,383
998,39	169,388
998,55	326,316
998,72	-4000,000
998,88	160,000
999,05	546,667
999,21	564,706
999,37	146,512
999,54	254,839
999,70	166,667
999,87	716,667
1000,03	296,667
1000,20	521,429
1000,36	-962,500
1000,52	1800,000
1000,69	516,000
1000,85	-558,333
1001,02	90,476
1001,18	800,000
1001,35	0,000
1001,51	435,714
1001,67	260,000
1001,84	114,634
1002,00	-363,636
1002,17	1625,000
1002,33	-400,000
1002,50	883,333
1002,66	800,000
1002,82	221,951
1002,99	-209,091
1003,15	-3000,000
1003,32	-264,286
1003,48	-1266,667
1003,64	252,174
1003,81	-94,737
1003,97	221,739
1004,14	-110,909
1004,30	290,909
1004,46	-5100,000
1004,63	-300,000
1004,79	170,270
1004,95	-600,000
1005,12	-30,769
1005,28	188,889
1005,45	-683,333
1005,61	453,846
1005,77	-900,000
1005,94	200,000
1006,10	-710,000
1006,26	-203,704
1006,43	242,424
1006,59	248,387
1006,76	-204,000
1006,92	273,913
1007,08	75,758
1007,25	213,889
1007,41	250,000
1007,57	-394,118
1007,74	234,783
1007,90	-228,571
1008,06	-53,333
1008,23	-378,947
1008,39	91,667
1008,55	88,235
1008,72	-725,000
1008,88	-74,286
1009,04	-1000,000
1009,21	271,875
1009,37	429,032
1009,53	-355,000
1009,70	-42,424
1009,86	273,684
1010,02	175,000
1010,19	553,333
1010,35	6300,000
1010,51	297,143
1010,68	368,182
1010,84	395,000
1011,00	342,857
1011,17	2600,000
1011,33	153,846
1011,49	450,000
1011,66	309,375
1011,82	-791,667
1011,98	646,667
1012,14	461,538
1012,31	270,455
1012,47	-842,857
1012,63	8400,000
1012,80	255,556
1012,96	186,111
1013,12	-229,630
1013,29	312,500
1013,45	-73,529
1013,61	-940,000
1013,77	-444,444
1013,94	408,333
1014,10	5000,000
1014,26	-29,412
1014,43	284,211
1014,59	0,000
1014,75	660,000
1014,91	200,000
1015,08	273,077
1015,24	413,333
1015,40	386,667
1015,56	370,588
1015,73	114,286
1015,89	800,000
1016,05	340,541
1016,21	207,407
1016,38	147,368
1016,54	-136,000
1016,70	373,684
1016,86	-438,462
1017,03	0,000
1017,19	862,500
1017,35	370,000
1017,51	1933,333
1017,68	885,714
1017,84	226,316
1018,00	300,000
1018,16	-418,750
1018,33	336,364
1018,49	378,571
1018,65	-400,000
1018,81	-63,415
1018,97	515,385
1019,14	-1100,000
1019,30	304,762
1019,46	174,359
1019,62	4650,000
1019,79	-457,143
1019,95	-1900,000
1020,11	1020,000
1020,27	110,000
1020,43	-537,500
1020,60	0,000
1020,76	111,765
1020,92	10400,000
1021,08	-113,333
1021,24	-2700,000
1021,41	251,515
1021,57	-191,667
1021,73	0,000
1021,89	-304,545
1022,05	251,429
1022,21	-484,615
1022,38	389,474
1022,54	1160,000
1022,70	125,926
1022,86	-2600,000
1023,02	944,444
1023,19	-460,000
1023,35	111,321
1023,51	319,355
1023,67	192,105
1023,83	590,909
1023,99	220,000
1024,16	-12,308
1024,32	425,000
1024,48	314,286
1024,64	-460,000
1024,80	466,667
1024,96	592,308
1025,12	2400,000
1025,29	-750,000
1025,45	150,000
1025,61	2433,333
1025,77	409,524
1025,93	-76,923
1026,09	3550,000
1026,26	-1114,286
1026,42	-1850,000
1026,58	132,692
1026,74	885,714
1026,90	294,737
1027,06	-710,000
1027,22	-541,667
1027,38	611,111
1027,55	-244,000
1027,71	837,500
1027,87	205,000
1028,03	190,909
1028,19	-193,939
1028,35	90,541
1028,51	-17,742
1028,67	-960,000
1028,83	178,571
1029,00	585,714
1029,16	-466,667
1029,32	423,529
1029,48	4550,000
1029,64	842,857
1029,80	1616,667
1029,96	243,137
1030,12	-412,500
1030,28	1625,000
1030,44	-3800,000
1030,61	231,250
1030,77	-260,870
1030,93	253,488
1031,09	-200,000
1031,25	-966,667
1031,41	-1100,000
1031,57	-136,842
1031,73	700,000
1031,89	-142,424
1032,05	1585,714
1032,21	320,000
1032,37	-105,882
1032,53	-215,000
1032,69	-3000,000
1032,86	1300,000
1033,02	406,250
1033,18	-569,231
1033,34	-323,077
1033,50	303,226
1033,66	-200,000
1033,82	353,571
1033,98	-370,588
1034,14	888,889
1034,30	-27,273
1034,46	316,667
1034,62	466,667
1034,78	131,746
1034,94	48,387
1035,10	-304,545
1035,26	-800,000
1035,42	122,857
1035,58	2000,000
1035,74	-153,333
1035,90	-366,667
1036,06	228,302
1036,22	-84,000
1036,38	613,333
1036,54	280,000
1036,70	-4300,000
1036,86	-200,000
1037,02	-1500,000
1037,18	-171,429
1037,34	204,348
1037,50	-246,667
1037,66	-2666,667
1037,82	-105,882
1037,98	357,143
1038,14	-268,966
1038,30	42,308
1038,46	170,833
1038,62	83,871
1038,78	240,476
1038,94	-171,053
1039,10	-320,833
1039,26	-231,579
1039,42	-742,857
1039,58	150,943
1039,74	121,875
1039,90	-200,000
1040,06	347,059
>>>>>End Processed Spectral Data<<<<<
