SpectraSuite Data File
++++++++++++++++++++++++++++++++++++
Date: Thu Feb 02 17:37:01 EET 2017
User: optolab
Dark Spectrum Present: Yes
Reference Spectrum Present: Yes
Number of Sampled Component Spectra: 1
Spectrometers: USB4C02475
Integration Time (usec): 100000 (USB4C02475)
Spectra Averaged: 1 (USB4C02475)
Boxcar Smoothing: 0 (USB4C02475)
Correct for Electrical Dark: No (USB4C02475)
Strobe/Lamp Enabled: No (USB4C02475)
Correct for Detector Non-linearity: No (USB4C02475)
Correct for Stray Light: No (USB4C02475)
Number of Pixels in Processed Spectrum: 3648
>>>>>Begin Processed Spectral Data<<<<<
344,91	-1550,000
345,13	-1550,000
345,35	-1550,000
345,57	-123,529
345,79	63,043
346,00	-61,765
346,22	-1357,143
346,44	-60,606
346,66	195,745
346,87	304,348
347,09	692,308
347,31	5500,000
347,53	-1125,000
347,74	-139,535
347,96	-1542,857
348,18	238,235
348,40	582,353
348,61	-179,487
348,83	8000,000
349,05	274,359
349,27	388,235
349,48	-4400,000
349,70	400,000
349,92	361,905
350,14	191,892
350,35	-238,462
350,57	-422,222
350,79	-12,821
351,01	-306,667
351,22	460,000
351,44	700,000
351,66	172,222
351,87	1816,667
352,09	94,737
352,31	235,714
352,53	265,714
352,74	-657,143
352,96	263,158
353,18	128,125
353,40	-775,000
353,61	480,000
353,83	183,333
354,05	359,375
354,26	357,143
354,48	-1120,000
354,70	366,667
354,92	261,111
355,13	-102,326
355,35	194,444
355,57	148,438
355,78	121,429
356,00	204,255
356,22	181,818
356,44	190,698
356,65	300,000
356,87	241,667
357,09	320,000
357,30	120,455
357,52	-1433,333
357,74	287,097
357,95	262,857
358,17	71,014
358,39	268,000
358,60	255,556
358,82	168,182
359,04	256,410
359,26	106,818
359,47	-246,154
359,69	332,143
359,91	408,000
360,12	265,000
360,34	47,222
360,56	-2300,000
360,77	1011,111
360,99	450,000
361,21	291,304
361,42	-2350,000
361,64	-211,111
361,86	89,552
362,07	640,000
362,29	195,000
362,51	264,865
362,72	-780,000
362,94	322,222
363,16	115,714
363,37	700,000
363,59	-5200,000
363,81	950,000
364,02	132,000
364,24	252,273
364,46	371,429
364,67	190,476
364,89	494,118
365,11	178,378
365,32	211,111
365,54	300,000
365,76	213,636
365,97	197,561
366,19	80,702
366,41	520,000
366,62	148,000
366,84	558,333
367,05	100,980
367,27	1260,000
367,49	233,333
367,70	1066,667
367,92	141,667
368,14	-300,000
368,35	73,529
368,57	178,788
368,79	250,000
369,00	82,051
369,22	611,111
369,43	389,474
369,65	-127,586
369,87	-300,000
370,08	385,000
370,30	607,143
370,51	654,545
370,73	236,111
370,95	280,000
371,16	143,860
371,38	224,528
371,60	193,333
371,81	151,087
372,03	-1575,000
372,24	-115,625
372,46	1900,000
372,68	126,471
372,89	101,835
373,11	102,326
373,32	100,000
373,54	372,727
373,76	177,778
373,97	209,091
374,19	-163,158
374,40	112,857
374,62	464,706
374,84	179,167
375,05	209,615
375,27	224,324
375,48	90,123
375,70	482,353
375,92	130,357
376,13	352,632
376,35	375,000
376,56	165,000
376,78	18,367
376,99	178,788
377,21	156,250
377,43	118,182
377,64	156,000
377,86	287,500
378,07	172,727
378,29	111,111
378,51	60,714
378,72	-204,545
378,94	141,304
379,15	147,727
379,37	368,750
379,58	120,000
379,80	125,000
380,01	166,000
380,23	195,652
380,45	227,083
380,66	109,722
380,88	0,000
381,09	330,435
381,31	253,846
381,52	291,304
381,74	173,214
381,95	350,000
382,17	220,000
382,39	141,935
382,60	452,941
382,82	255,172
383,03	2100,000
383,25	96,296
383,46	691,667
383,68	189,362
383,89	222,727
384,11	109,589
384,32	192,105
384,54	-957,143
384,76	247,059
384,97	265,000
385,19	247,368
385,40	240,625
385,62	329,032
385,83	163,830
386,05	857,143
386,26	292,308
386,48	630,769
386,69	83,333
386,91	390,000
387,12	220,513
387,34	83,051
387,55	180,000
387,77	324,000
387,98	148,980
388,20	173,239
388,41	139,683
388,63	174,286
388,84	305,000
389,06	146,512
389,27	209,375
389,49	83,133
389,70	189,831
389,92	127,273
390,13	235,897
390,35	94,792
390,56	181,250
390,78	345,455
390,99	86,667
391,21	95,455
391,42	91,304
391,64	-390,000
391,85	113,793
392,07	-264,286
392,28	111,538
392,50	1160,000
392,71	3700,000
392,93	46,774
393,14	145,652
393,36	108,974
393,57	129,167
393,79	149,206
394,00	67,123
394,22	54,000
394,43	282,143
394,65	182,143
394,86	237,500
395,08	-887,500
395,29	157,447
395,50	-1600,000
395,72	928,571
395,93	268,000
396,15	271,429
396,36	226,667
396,58	-285,714
396,79	123,256
397,01	223,810
397,22	166,667
397,44	180,851
397,65	124,324
397,87	122,857
398,08	134,615
398,29	350,000
398,51	129,268
398,72	173,913
398,94	162,791
399,15	81,667
399,37	86,957
399,58	139,683
399,80	293,333
400,01	252,941
400,22	457,143
400,44	319,048
400,65	84,932
400,87	5000,000
401,08	83,146
401,30	106,667
401,51	167,273
401,72	98,387
401,94	143,902
402,15	14,286
402,37	156,818
402,58	137,209
402,80	237,500
403,01	33,333
403,22	113,253
403,44	197,222
403,65	83,673
403,87	125,333
404,08	117,308
404,30	62,500
404,51	30,000
404,72	890,909
404,94	61,446
405,15	138,806
405,37	102,198
405,58	209,677
405,79	507,143
406,01	73,333
406,22	64,286
406,44	112,281
406,65	78,571
406,86	99,000
407,08	65,432
407,29	45,333
407,51	72,115
407,72	80,198
407,93	107,595
408,15	60,227
408,36	205,714
408,58	45,000
408,79	30,233
409,00	65,957
409,22	54,902
409,43	30,631
409,64	22,436
409,86	100,000
410,07	41,739
410,29	22,667
410,50	38,889
410,71	44,355
410,93	15,842
411,14	60,748
411,35	15,278
411,57	33,333
411,78	48,529
412,00	39,333
412,21	25,664
412,42	27,317
412,64	51,667
412,85	7,254
413,06	43,304
413,28	39,216
413,49	37,674
413,70	46,352
413,92	23,810
414,13	14,625
414,34	8,922
414,56	46,383
414,77	23,985
414,98	24,382
415,20	14,695
415,41	30,844
415,63	25,641
415,84	33,518
416,05	15,964
416,27	13,928
416,48	30,569
416,69	-2,326
416,91	15,733
417,12	9,502
417,33	11,964
417,55	22,200
417,76	13,953
417,97	14,981
418,19	8,368
418,40	7,889
418,61	7,033
418,83	5,634
419,04	6,667
419,25	8,134
419,46	17,496
419,68	5,310
419,89	9,750
420,10	7,796
420,32	9,272
420,53	9,666
420,74	3,465
420,96	4,739
421,17	3,991
421,38	6,326
421,60	9,003
421,81	4,204
422,02	4,024
422,23	8,563
422,45	6,507
422,66	7,274
422,87	6,361
423,09	3,433
423,30	3,787
423,51	4,015
423,73	5,083
423,94	5,054
424,15	1,259
424,36	4,963
424,58	4,105
424,79	1,171
425,00	2,171
425,22	5,588
425,43	2,499
425,64	2,662
425,85	4,059
426,07	3,104
426,28	4,645
426,49	2,136
426,71	2,968
426,92	3,535
427,13	3,253
427,34	2,945
427,56	3,641
427,77	-0,166
427,98	2,221
428,19	1,357
428,41	1,509
428,62	1,860
428,83	0,993
429,04	2,808
429,26	1,614
429,47	3,263
429,68	1,555
429,89	1,406
430,11	2,865
430,32	2,657
430,53	0,861
430,74	2,879
430,96	1,905
431,17	2,006
431,38	1,261
431,59	0,976
431,81	0,694
432,02	1,727
432,23	2,816
432,44	1,655
432,66	2,044
432,87	1,332
433,08	2,357
433,29	1,696
433,51	1,138
433,72	1,389
433,93	0,608
434,14	1,121
434,35	0,734
434,57	1,080
434,78	1,061
434,99	0,948
435,20	1,187
435,42	1,464
435,63	0,328
435,84	1,733
436,05	0,974
436,26	0,221
436,48	1,414
436,69	1,297
436,90	0,811
437,11	1,418
437,32	1,597
437,54	1,065
437,75	1,419
437,96	1,067
438,17	0,945
438,38	1,525
438,60	2,017
438,81	1,600
439,02	1,596
439,23	1,929
439,44	2,200
439,66	2,426
439,87	2,853
440,08	3,442
440,29	3,808
440,50	4,841
440,72	5,443
440,93	6,298
441,14	7,253
441,35	7,583
441,56	8,850
441,77	9,724
441,99	10,593
442,20	11,541
442,41	11,545
442,62	12,589
442,83	13,185
443,04	13,498
443,26	14,184
443,47	14,602
443,68	13,770
443,89	14,270
444,10	14,512
444,31	15,239
444,53	15,422
444,74	15,146
444,95	15,781
445,16	16,161
445,37	17,044
445,58	17,245
445,80	19,382
446,01	20,261
446,22	21,890
446,43	23,398
446,64	24,003
446,85	26,183
447,06	27,468
447,28	29,071
447,49	31,081
447,70	33,947
447,91	35,270
448,12	36,549
448,33	38,720
448,54	41,226
448,76	43,342
448,97	45,957
449,18	47,398
449,39	49,598
449,60	51,404
449,81	52,631
450,02	55,746
450,23	57,169
450,45	59,422
450,66	60,807
450,87	62,347
451,08	63,704
451,29	64,775
451,50	65,803
451,71	67,280
451,92	67,862
452,13	68,730
452,35	66,888
452,56	69,248
452,77	66,891
452,98	66,671
453,19	67,386
453,40	65,100
453,61	62,526
453,82	60,759
454,03	60,730
454,25	59,352
454,46	57,395
454,67	55,401
454,88	54,802
455,09	53,674
455,30	51,447
455,51	49,784
455,72	49,212
455,93	46,992
456,14	46,426
456,35	44,734
456,56	43,895
456,78	43,934
456,99	43,524
457,20	42,706
457,41	43,577
457,62	43,059
457,83	42,467
458,04	43,022
458,25	43,324
458,46	42,086
458,67	41,061
458,88	40,710
459,09	39,401
459,30	37,613
459,51	36,701
459,73	34,851
459,94	33,593
460,15	32,273
460,36	30,345
460,57	28,980
460,78	27,730
460,99	27,663
461,20	25,801
461,41	25,578
461,62	25,047
461,83	25,047
462,04	24,054
462,25	24,447
462,46	24,200
462,67	24,120
462,88	24,300
463,09	24,202
463,30	23,424
463,51	23,392
463,72	23,854
463,93	23,456
464,15	23,405
464,36	23,168
464,57	22,823
464,78	22,853
464,99	23,027
465,20	21,840
465,41	21,401
465,62	19,454
465,83	18,450
466,04	16,788
466,25	15,019
466,46	13,641
466,67	11,675
466,88	9,887
467,09	8,285
467,30	6,491
467,51	5,632
467,72	4,450
467,93	3,471
468,14	2,961
468,35	2,408
468,56	2,008
468,77	1,496
468,98	1,505
469,19	1,058
469,40	0,917
469,61	0,900
469,82	0,766
470,03	0,656
470,24	0,626
470,45	0,681
470,66	0,731
470,87	0,553
471,08	0,752
471,29	0,352
471,50	0,658
471,71	0,334
471,92	0,357
472,13	0,563
472,34	0,304
472,55	0,532
472,76	0,629
472,97	0,426
473,18	0,419
473,39	0,472
473,60	0,271
473,81	0,231
474,01	0,532
474,22	0,320
474,43	0,552
474,64	0,527
474,85	0,447
475,06	0,237
475,27	0,315
475,48	0,196
475,69	0,498
475,90	0,411
476,11	0,346
476,32	0,320
476,53	0,591
476,74	0,490
476,95	0,366
477,16	0,591
477,37	0,507
477,58	0,194
477,79	0,282
478,00	0,395
478,21	0,620
478,41	0,371
478,62	0,470
478,83	0,356
479,04	0,535
479,25	0,251
479,46	0,377
479,67	0,269
479,88	0,272
480,09	0,196
480,30	0,482
480,51	0,456
480,72	0,270
480,93	0,400
481,14	0,420
481,34	0,451
481,55	0,292
481,76	0,422
481,97	0,295
482,18	0,266
482,39	0,325
482,60	0,400
482,81	0,344
483,02	0,259
483,23	0,294
483,44	0,387
483,65	0,178
483,85	0,028
484,06	0,595
484,27	0,335
484,48	0,145
484,69	0,437
484,90	0,234
485,11	0,448
485,32	0,237
485,53	0,155
485,73	0,473
485,94	0,319
486,15	0,491
486,36	0,356
486,57	0,324
486,78	0,538
486,99	0,376
487,20	0,280
487,41	0,409
487,61	0,254
487,82	0,235
488,03	0,468
488,24	0,332
488,45	0,495
488,66	0,290
488,87	0,440
489,08	0,278
489,28	0,109
489,49	0,388
489,70	0,194
489,91	0,181
490,12	0,188
490,33	0,249
490,54	0,366
490,74	0,474
490,95	0,073
491,16	0,278
491,37	0,576
491,58	0,219
491,79	0,196
492,00	0,211
492,20	0,354
492,41	0,219
492,62	0,361
492,83	0,220
493,04	0,355
493,25	0,469
493,45	0,425
493,66	0,538
493,87	0,366
494,08	0,290
494,29	0,399
494,50	0,420
494,70	0,583
494,91	0,645
495,12	0,569
495,33	0,559
495,54	0,789
495,75	0,626
495,95	0,733
496,16	0,726
496,37	0,517
496,58	0,548
496,79	0,769
496,99	0,804
497,20	1,056
497,41	1,170
497,62	1,551
497,83	1,982
498,04	2,190
498,24	2,950
498,45	3,095
498,66	3,832
498,87	4,086
499,08	4,674
499,28	4,562
499,49	5,167
499,70	5,413
499,91	5,959
500,12	5,784
500,32	6,062
500,53	5,937
500,74	6,472
500,95	6,323
501,15	6,634
501,36	6,568
501,57	6,949
501,78	6,901
501,99	7,215
502,19	7,038
502,40	7,353
502,61	7,345
502,82	7,659
503,02	7,442
503,23	7,647
503,44	7,920
503,65	8,017
503,86	8,110
504,06	8,606
504,27	8,864
504,48	9,110
504,69	9,770
504,89	10,293
505,10	11,056
505,31	11,545
505,52	12,325
505,72	13,818
505,93	14,372
506,14	15,586
506,35	16,864
506,55	17,895
506,76	19,479
506,97	20,231
507,18	20,801
507,38	22,443
507,59	23,364
507,80	24,445
508,01	25,460
508,21	26,108
508,42	26,782
508,63	27,638
508,84	28,595
509,04	28,716
509,25	29,342
509,46	29,477
509,67	29,990
509,87	30,708
510,08	30,384
510,29	30,482
510,49	31,091
510,70	30,882
510,91	30,830
511,12	30,481
511,32	30,321
511,53	30,907
511,74	30,134
511,94	29,928
512,15	29,513
512,36	30,151
512,57	29,818
512,77	29,703
512,98	29,488
513,19	29,831
513,39	29,888
513,60	30,072
513,81	30,469
514,01	30,850
514,22	30,882
514,43	31,267
514,64	31,559
514,84	33,025
515,05	32,764
515,26	33,141
515,46	33,363
515,67	33,974
515,88	34,759
516,08	34,996
516,29	35,365
516,50	35,265
516,70	35,879
516,91	35,657
517,12	36,408
517,32	35,577
517,53	35,501
517,74	35,744
517,95	35,684
518,15	35,706
518,36	35,796
518,57	35,420
518,77	35,232
518,98	35,146
519,19	34,557
519,39	34,991
519,60	34,716
519,80	35,044
520,01	34,196
520,22	34,655
520,42	34,194
520,63	34,622
520,84	34,008
521,04	34,376
521,25	34,795
521,46	34,865
521,66	34,915
521,87	34,639
522,08	35,067
522,28	35,023
522,49	34,838
522,70	34,540
522,90	34,207
523,11	34,409
523,31	33,977
523,52	33,139
523,73	33,122
523,93	32,657
524,14	31,752
524,35	31,054
524,55	30,395
524,76	28,955
524,97	27,593
525,17	25,949
525,38	24,523
525,58	23,799
525,79	21,774
526,00	20,499
526,20	19,339
526,41	17,634
526,61	16,872
526,82	15,206
527,03	14,592
527,23	13,668
527,44	12,995
527,64	11,940
527,85	11,288
528,06	10,889
528,26	10,050
528,47	9,699
528,68	9,483
528,88	8,690
529,09	8,178
529,29	7,918
529,50	6,991
529,70	6,720
529,91	6,109
530,12	5,685
530,32	4,856
530,53	4,910
530,73	4,026
530,94	3,643
531,15	3,262
531,35	2,842
531,56	2,763
531,76	2,292
531,97	1,967
532,17	1,937
532,38	1,868
532,59	1,875
532,79	1,761
533,00	1,606
533,20	1,787
533,41	1,535
533,61	1,569
533,82	1,397
534,03	1,325
534,23	1,457
534,44	1,493
534,64	1,592
534,85	1,143
535,05	1,055
535,26	0,984
535,46	0,922
535,67	0,632
535,88	0,706
536,08	0,576
536,29	0,713
536,49	0,636
536,70	0,579
536,90	0,457
537,11	0,456
537,31	0,384
537,52	0,415
537,72	0,424
537,93	0,221
538,13	0,150
538,34	0,261
538,55	0,271
538,75	0,004
538,96	0,163
539,16	0,159
539,37	0,386
539,57	0,386
539,78	0,317
539,98	0,420
540,19	0,335
540,39	0,215
540,60	0,359
540,80	0,256
541,01	0,364
541,21	0,406
541,42	0,235
541,62	0,313
541,83	0,159
542,03	0,292
542,24	0,326
542,44	0,354
542,65	0,160
542,85	0,370
543,06	0,307
543,26	0,310
543,47	0,316
543,67	0,314
543,88	0,250
544,08	0,131
544,29	0,294
544,49	0,132
544,70	0,129
544,90	0,313
545,11	0,348
545,31	0,277
545,52	0,182
545,72	0,137
545,93	0,198
546,13	0,189
546,34	0,353
546,54	0,208
546,75	0,329
546,95	0,273
547,15	0,285
547,36	0,365
547,56	0,134
547,77	0,186
547,97	-0,008
548,18	0,320
548,38	0,163
548,59	0,151
548,79	0,397
549,00	0,218
549,20	0,234
549,41	0,270
549,61	0,206
549,81	0,063
550,02	0,115
550,22	0,208
550,43	0,175
550,63	0,143
550,84	0,354
551,04	0,155
551,25	0,346
551,45	0,454
551,65	0,323
551,86	0,220
552,06	0,280
552,27	0,127
552,47	0,118
552,68	0,295
552,88	0,205
553,08	0,237
553,29	0,333
553,49	0,141
553,70	0,261
553,90	0,212
554,11	0,237
554,31	0,172
554,51	0,301
554,72	0,213
554,92	0,152
555,13	0,167
555,33	0,039
555,53	0,201
555,74	0,343
555,94	0,223
556,15	0,143
556,35	0,123
556,56	0,302
556,76	0,050
556,96	0,364
557,17	0,343
557,37	0,401
557,58	0,188
557,78	0,257
557,98	0,270
558,19	0,112
558,39	0,201
558,59	0,170
558,80	0,273
559,00	0,161
559,21	0,248
559,41	0,114
559,61	0,235
559,82	0,288
560,02	0,225
560,23	0,245
560,43	0,325
560,63	0,096
560,84	0,149
561,04	0,294
561,24	0,157
561,45	0,279
561,65	0,153
561,85	0,076
562,06	0,228
562,26	0,106
562,47	0,330
562,67	0,083
562,87	-0,008
563,08	0,224
563,28	0,306
563,48	0,217
563,69	0,250
563,89	0,225
564,09	0,198
564,30	0,137
564,50	0,186
564,70	0,068
564,91	0,160
565,11	0,210
565,31	0,262
565,52	0,046
565,72	0,320
565,92	0,118
566,13	0,045
566,33	0,335
566,53	0,174
566,74	0,150
566,94	0,299
567,14	0,363
567,35	0,304
567,55	0,184
567,75	0,376
567,96	0,326
568,16	0,274
568,36	0,234
568,57	0,117
568,77	0,086
568,97	0,149
569,18	0,212
569,38	0,186
569,58	0,112
569,79	0,153
569,99	0,152
570,19	-0,049
570,39	0,089
570,60	0,283
570,80	0,078
571,00	0,208
571,21	0,175
571,41	0,175
571,61	0,233
571,82	0,310
572,02	0,030
572,22	-0,011
572,42	0,215
572,63	0,210
572,83	0,185
573,03	0,071
573,24	0,200
573,44	0,203
573,64	0,204
573,84	-0,064
574,05	0,100
574,25	-0,033
574,45	0,118
574,66	0,298
574,86	0,237
575,06	0,274
575,26	0,086
575,47	0,285
575,67	0,115
575,87	0,325
576,07	0,114
576,28	0,284
576,48	0,296
576,68	0,255
576,88	0,153
577,09	0,195
577,29	0,290
577,49	0,089
577,69	0,122
577,90	0,176
578,10	0,004
578,30	0,287
578,50	0,022
578,71	0,173
578,91	0,122
579,11	0,302
579,31	0,299
579,52	0,264
579,72	0,239
579,92	0,306
580,12	0,191
580,33	0,229
580,53	0,128
580,73	0,282
580,93	0,244
581,13	0,271
581,34	-0,011
581,54	0,199
581,74	0,266
581,94	0,224
582,15	0,321
582,35	-0,086
582,55	0,167
582,75	0,260
582,95	0,287
583,16	0,085
583,36	0,133
583,56	0,181
583,76	0,111
583,96	0,217
584,17	-0,015
584,37	0,026
584,57	0,186
584,77	0,107
584,97	0,294
585,18	0,059
585,38	0,059
585,58	0,290
585,78	0,252
585,98	0,022
586,19	0,124
586,39	0,204
586,59	0,185
586,79	0,377
586,99	0,110
587,20	0,062
587,40	0,223
587,60	0,029
587,80	0,230
588,00	0,267
588,20	0,197
588,41	0,157
588,61	0,249
588,81	0,201
589,01	0,140
589,21	0,406
589,41	0,221
589,62	0,062
589,82	0,194
590,02	0,175
590,22	0,249
590,42	0,237
590,62	0,059
590,83	0,172
591,03	0,000
591,23	0,254
591,43	0,248
591,63	0,193
591,83	0,232
592,03	0,106
592,24	0,264
592,44	0,106
592,64	0,032
592,84	0,189
593,04	0,025
593,24	0,065
593,44	0,131
593,65	0,202
593,85	0,198
594,05	0,284
594,25	0,065
594,45	0,144
594,65	0,079
594,85	-0,018
595,06	0,036
595,26	0,238
595,46	0,004
595,66	0,036
595,86	0,115
596,06	0,271
596,26	0,112
596,46	0,216
596,66	0,109
596,87	0,231
597,07	0,279
597,27	0,120
597,47	0,266
597,67	0,123
597,87	0,029
598,07	0,165
598,27	0,110
598,47	0,338
598,67	0,051
598,88	0,198
599,08	0,233
599,28	0,236
599,48	0,052
599,68	0,335
599,88	0,189
600,08	0,207
600,28	0,070
600,48	0,089
600,68	0,075
600,88	0,280
601,09	0,173
601,29	0,419
601,49	0,011
601,69	0,222
601,89	0,087
602,09	0,053
602,29	0,128
602,49	0,011
602,69	-0,042
602,89	0,282
603,09	0,170
603,29	0,175
603,49	0,203
603,69	0,240
603,90	0,042
604,10	0,144
604,30	0,302
604,50	0,087
604,70	0,073
604,90	0,099
605,10	0,160
605,30	0,169
605,50	0,107
605,70	0,321
605,90	0,107
606,10	0,142
606,30	0,093
606,50	0,302
606,70	0,232
606,90	-0,019
607,10	0,170
607,30	0,361
607,50	0,159
607,70	0,385
607,90	0,226
608,10	0,371
608,30	0,189
608,50	0,154
608,70	0,390
608,90	0,144
609,11	0,125
609,31	0,264
609,51	0,146
609,71	0,293
609,91	0,132
610,11	0,255
610,31	0,343
610,51	0,307
610,71	0,219
610,91	0,110
611,11	0,110
611,31	0,164
611,51	0,117
611,71	0,055
611,91	0,304
612,11	0,204
612,31	0,198
612,51	0,240
612,71	0,104
612,91	0,036
613,11	0,072
613,31	0,107
613,51	0,088
613,71	0,111
613,91	0,202
614,11	0,303
614,31	0,035
614,50	0,187
614,70	0,181
614,90	0,243
615,10	0,091
615,30	0,103
615,50	0,119
615,70	0,282
615,90	0,136
616,10	0,140
616,30	0,163
616,50	0,165
616,70	0,148
616,90	0,099
617,10	0,274
617,30	0,302
617,50	0,226
617,70	-0,020
617,90	0,107
618,10	0,206
618,30	-0,055
618,50	0,194
618,70	0,185
618,90	0,119
619,10	0,027
619,30	-0,004
619,49	0,221
619,69	0,210
619,89	0,198
620,09	0,107
620,29	0,316
620,49	0,412
620,69	0,075
620,89	0,191
621,09	0,070
621,29	0,110
621,49	0,168
621,69	-0,020
621,89	0,218
622,09	0,226
622,29	0,148
622,48	0,274
622,68	0,008
622,88	0,206
623,08	0,198
623,28	0,105
623,48	0,148
623,68	0,016
623,88	0,132
624,08	0,035
624,28	0,274
624,48	0,239
624,67	0,167
624,87	0,149
625,07	0,150
625,27	0,188
625,47	0,216
625,67	0,246
625,87	0,103
626,07	0,080
626,27	0,038
626,47	0,332
626,66	0,049
626,86	0,110
627,06	0,247
627,26	0,184
627,46	0,000
627,66	0,125
627,86	0,228
628,06	0,165
628,25	0,244
628,45	0,130
628,65	0,359
628,85	0,149
629,05	0,265
629,25	0,112
629,45	0,266
629,65	0,097
629,84	0,210
630,04	0,266
630,24	0,339
630,44	0,147
630,64	0,254
630,84	0,111
631,04	0,293
631,23	0,204
631,43	0,062
631,63	0,202
631,83	0,180
632,03	0,207
632,23	0,229
632,42	0,281
632,62	0,352
632,82	0,191
633,02	0,278
633,22	0,173
633,42	0,227
633,62	-0,022
633,81	0,145
634,01	0,281
634,21	0,259
634,41	0,405
634,61	0,096
634,80	0,307
635,00	0,330
635,20	0,322
635,40	-0,130
635,60	0,181
635,80	0,280
635,99	0,427
636,19	0,075
636,39	0,222
636,59	0,175
636,79	0,093
636,98	0,345
637,18	0,248
637,38	0,303
637,58	-0,059
637,78	0,302
637,97	0,314
638,17	0,299
638,37	0,449
638,57	0,224
638,77	0,397
638,96	0,177
639,16	0,156
639,36	0,206
639,56	0,337
639,76	0,135
639,95	0,201
640,15	0,149
640,35	0,133
640,55	0,212
640,75	0,463
640,94	0,097
641,14	0,401
641,34	0,142
641,54	0,246
641,73	0,175
641,93	0,449
642,13	0,284
642,33	0,208
642,53	0,253
642,72	0,461
642,92	0,534
643,12	0,359
643,32	0,455
643,51	0,467
643,71	0,074
643,91	0,488
644,11	0,336
644,30	0,295
644,50	0,677
644,70	0,279
644,90	0,464
645,09	0,305
645,29	0,269
645,49	0,264
645,69	0,144
645,88	0,418
646,08	0,072
646,28	0,372
646,48	0,044
646,67	0,218
646,87	0,340
647,07	0,380
647,26	0,678
647,46	0,544
647,66	0,159
647,86	0,695
648,05	0,781
648,25	0,877
648,45	0,217
648,65	0,245
648,84	0,000
649,04	0,625
649,24	0,516
649,43	0,079
649,63	0,016
649,83	0,399
650,03	0,668
650,22	0,282
650,42	0,524
650,62	0,538
650,81	0,266
651,01	0,407
651,21	0,222
651,40	0,315
651,60	0,122
651,80	0,678
652,00	0,585
652,19	0,434
652,39	0,163
652,59	0,461
652,78	0,361
652,98	0,041
653,18	0,385
653,37	0,535
653,57	0,742
653,77	0,426
653,96	0,407
654,16	0,454
654,36	0,365
654,55	0,607
654,75	0,371
654,95	0,179
655,14	0,095
655,34	0,530
655,54	0,413
655,73	0,287
655,93	0,253
656,13	-0,017
656,32	-0,176
656,52	0,733
656,72	0,478
656,91	0,300
657,11	0,474
657,31	0,261
657,50	0,802
657,70	0,425
657,90	0,487
658,09	0,798
658,29	0,510
658,49	0,489
658,68	0,235
658,88	0,296
659,07	0,357
659,27	0,332
659,47	0,514
659,66	0,309
659,86	0,035
660,06	0,311
660,25	0,141
660,45	0,486
660,64	0,272
660,84	0,575
661,04	0,333
661,23	0,490
661,43	0,290
661,63	0,413
661,82	0,312
662,02	0,738
662,21	0,401
662,41	0,673
662,61	0,607
662,80	0,044
663,00	0,009
663,19	0,996
663,39	0,060
663,59	0,732
663,78	0,378
663,98	0,864
664,17	0,631
664,37	0,534
664,57	0,257
664,76	0,433
664,96	0,162
665,15	0,128
665,35	0,356
665,55	-0,060
665,74	0,337
665,94	0,540
666,13	0,200
666,33	0,743
666,53	0,309
666,72	0,236
666,92	0,602
667,11	0,324
667,31	0,190
667,50	0,306
667,70	0,230
667,90	0,163
668,09	0,402
668,29	0,115
668,48	0,414
668,68	0,398
668,87	0,572
669,07	0,280
669,26	0,449
669,46	0,344
669,66	0,681
669,85	0,592
670,05	0,442
670,24	0,408
670,44	0,331
670,63	0,436
670,83	0,312
671,02	0,258
671,22	0,263
671,42	0,463
671,61	0,589
671,81	0,462
672,00	0,272
672,20	0,251
672,39	0,180
672,59	0,195
672,78	0,279
672,98	0,557
673,17	0,319
673,37	0,180
673,56	0,377
673,76	0,204
673,95	0,394
674,15	0,375
674,34	0,193
674,54	0,521
674,73	0,384
674,93	0,390
675,13	0,565
675,32	0,224
675,52	0,581
675,71	0,480
675,91	0,551
676,10	0,433
676,30	0,439
676,49	0,231
676,69	0,522
676,88	0,184
677,08	0,079
677,27	0,332
677,47	0,312
677,66	0,239
677,86	0,218
678,05	0,332
678,24	0,203
678,44	0,623
678,63	0,448
678,83	0,260
679,02	0,406
679,22	0,339
679,41	0,601
679,61	0,382
679,80	0,373
680,00	0,201
680,19	0,363
680,39	0,354
680,58	0,261
680,78	0,166
680,97	0,342
681,17	0,249
681,36	-0,017
681,56	0,269
681,75	0,089
681,94	0,165
682,14	0,372
682,33	0,222
682,53	0,141
682,72	0,274
682,92	0,416
683,11	0,269
683,31	0,399
683,50	0,198
683,69	0,139
683,89	0,288
684,08	0,324
684,28	0,092
684,47	0,206
684,67	0,089
684,86	0,074
685,06	0,192
685,25	0,053
685,44	0,164
685,64	0,341
685,83	0,318
686,03	0,239
686,22	0,232
686,42	0,263
686,61	0,227
686,80	0,296
687,00	0,140
687,19	0,036
687,39	0,271
687,58	0,128
687,77	0,343
687,97	0,339
688,16	0,135
688,36	0,200
688,55	0,052
688,74	0,098
688,94	0,179
689,13	0,282
689,33	0,104
689,52	0,288
689,71	0,182
689,91	0,238
690,10	0,204
690,30	0,016
690,49	0,032
690,68	0,183
690,88	0,071
691,07	0,151
691,27	-0,051
691,46	0,126
691,65	0,091
691,85	0,169
692,04	0,150
692,23	0,028
692,43	0,202
692,62	0,220
692,82	0,196
693,01	0,275
693,20	0,298
693,40	0,084
693,59	0,020
693,78	0,201
693,98	0,126
694,17	0,170
694,36	0,490
694,56	0,265
694,75	0,273
694,94	0,260
695,14	0,153
695,33	0,251
695,53	0,280
695,72	0,215
695,91	0,000
696,11	0,052
696,30	0,279
696,49	0,205
696,69	0,213
696,88	0,132
697,07	0,317
697,27	0,330
697,46	0,341
697,65	0,324
697,85	0,094
698,04	0,183
698,23	0,255
698,43	0,381
698,62	-0,161
698,81	0,447
699,01	0,513
699,20	0,554
699,39	0,245
699,58	0,383
699,78	0,268
699,97	0,306
700,16	0,275
700,36	0,234
700,55	0,570
700,74	0,595
700,94	0,216
701,13	0,540
701,32	0,262
701,52	0,249
701,71	0,338
701,90	0,982
702,09	1,073
702,29	0,751
702,48	0,194
702,67	0,964
702,87	0,727
703,06	1,102
703,25	0,896
703,44	0,779
703,64	0,705
703,83	0,960
704,02	1,153
704,22	0,635
704,41	0,805
704,60	1,308
704,79	1,282
704,99	1,638
705,18	1,778
705,37	1,534
705,56	0,688
705,76	1,590
705,95	1,908
706,14	0,832
706,33	1,558
706,53	1,541
706,72	0,795
706,91	0,862
707,11	0,430
707,30	1,752
707,49	1,391
707,68	1,023
707,88	1,868
708,07	0,829
708,26	1,467
708,45	0,856
708,64	2,207
708,84	2,102
709,03	1,730
709,22	0,864
709,41	2,292
709,61	1,624
709,80	1,839
709,99	2,043
710,18	2,035
710,38	0,377
710,57	0,890
710,76	1,082
710,95	2,705
711,14	1,821
711,34	1,411
711,53	3,325
711,72	2,748
711,91	1,697
712,11	2,708
712,30	-1,462
712,49	3,331
712,68	0,277
712,87	0,286
713,07	2,569
713,26	2,041
713,45	1,873
713,64	2,444
713,83	1,407
714,03	0,806
714,22	3,891
714,41	3,119
714,60	2,515
714,79	0,672
714,99	-0,568
715,18	5,320
715,37	3,679
715,56	3,195
715,75	1,401
715,94	4,232
716,14	4,548
716,33	3,486
716,52	1,572
716,71	3,879
716,90	2,053
717,10	1,281
717,29	2,420
717,48	2,836
717,67	3,102
717,86	4,556
718,05	4,450
718,24	2,378
718,44	1,807
718,63	2,859
718,82	1,874
719,01	2,428
719,20	1,651
719,39	3,007
719,59	2,995
719,78	0,468
719,97	1,874
720,16	3,831
720,35	0,757
720,54	0,978
720,73	7,235
720,93	1,085
721,12	-0,503
721,31	2,041
721,50	5,455
721,69	4,981
721,88	4,839
722,07	3,751
722,27	2,654
722,46	3,823
722,65	0,953
722,84	0,645
723,03	2,082
723,22	4,029
723,41	1,163
723,60	2,371
723,79	8,416
723,99	4,610
724,18	5,072
724,37	0,454
724,56	6,303
724,75	4,174
724,94	8,784
725,13	2,146
725,32	4,500
725,51	-0,837
725,71	5,146
725,90	7,089
726,09	6,393
726,28	3,146
726,47	2,959
726,66	4,061
726,85	8,436
727,04	4,485
727,23	8,118
727,42	8,960
727,61	2,366
727,81	-1,622
728,00	1,247
728,19	5,742
728,38	2,948
728,57	4,063
728,76	4,292
728,95	8,958
729,14	3,680
729,33	8,280
729,52	0,450
729,71	4,447
729,90	6,923
730,09	6,206
730,28	8,094
730,48	6,208
730,67	10,826
730,86	4,965
731,05	1,867
731,24	-3,171
731,43	5,226
731,62	3,666
731,81	5,335
732,00	9,341
732,19	3,365
732,38	5,000
732,57	1,956
732,76	7,114
732,95	3,089
733,14	-2,726
733,33	3,175
733,52	8,848
733,71	3,156
733,90	5,226
734,09	6,757
734,28	5,381
734,47	2,778
734,66	5,080
734,85	7,571
735,04	3,994
735,23	9,804
735,42	8,060
735,61	10,350
735,81	9,172
736,00	4,416
736,19	-0,456
736,38	12,725
736,57	9,191
736,76	8,613
736,95	8,121
737,14	6,858
737,33	9,618
737,52	5,538
737,71	8,689
737,90	3,864
738,09	5,479
738,28	10,762
738,47	1,460
738,66	3,846
738,85	6,156
739,04	7,376
739,22	8,528
739,41	4,963
739,60	5,631
739,79	3,417
739,98	0,179
740,17	11,263
740,36	9,946
740,55	14,650
740,74	17,667
740,93	5,736
741,12	5,000
741,31	6,338
741,50	4,159
741,69	16,106
741,88	3,360
742,07	13,406
742,26	9,524
742,45	13,320
742,64	7,678
742,83	6,018
743,02	2,105
743,21	21,480
743,40	5,797
743,59	14,154
743,78	5,088
743,97	9,808
744,16	6,496
744,34	9,557
744,53	-1,443
744,72	10,856
744,91	2,521
745,10	14,046
745,29	12,702
745,48	4,545
745,67	12,301
745,86	12,141
746,05	10,664
746,24	11,134
746,43	9,208
746,62	16,810
746,81	9,888
747,00	10,722
747,18	12,200
747,37	23,368
747,56	12,471
747,75	4,926
747,94	16,505
748,13	21,477
748,32	3,571
748,51	12,690
748,70	13,436
748,89	17,330
749,08	0,291
749,26	19,383
749,45	-3,217
749,64	7,809
749,83	15,506
750,02	19,022
750,21	5,598
750,40	18,623
750,59	21,984
750,78	5,985
750,96	8,287
751,15	13,551
751,34	1,705
751,53	2,459
751,72	14,085
751,91	10,622
752,10	9,686
752,29	1,867
752,47	2,292
752,66	15,873
752,85	21,311
753,04	4,749
753,23	16,099
753,42	13,208
753,61	15,361
753,80	12,715
753,98	13,889
754,17	10,334
754,36	10,645
754,55	14,458
754,74	11,039
754,93	18,457
755,12	7,715
755,30	20,130
755,49	14,826
755,68	15,337
755,87	8,580
756,06	11,806
756,25	13,982
756,43	4,027
756,62	24,845
756,81	7,947
757,00	12,829
757,19	4,167
757,38	-6,564
757,56	9,600
757,75	17,406
757,94	6,084
758,13	16,438
758,32	13,947
758,51	8,754
758,69	11,969
758,88	12,121
759,07	19,162
759,26	10,601
759,45	8,070
759,63	27,273
759,82	27,368
760,01	16,117
760,20	27,673
760,39	15,773
760,57	11,847
760,76	21,951
760,95	21,528
761,14	30,657
761,33	19,032
761,51	14,643
761,70	21,190
761,89	6,222
762,08	19,703
762,27	17,690
762,45	17,754
762,64	12,563
762,83	23,108
763,02	14,783
763,21	11,000
763,39	19,930
763,58	12,639
763,77	18,143
763,96	28,685
764,14	-10,417
764,33	30,000
764,52	16,964
764,71	23,607
764,89	30,357
765,08	14,778
765,27	11,489
765,46	15,695
765,65	24,314
765,83	23,077
766,02	17,143
766,21	19,672
766,40	28,794
766,58	19,048
766,77	33,945
766,96	22,358
767,15	32,353
767,33	24,155
767,52	15,721
767,71	7,895
767,90	15,578
768,08	47,305
768,27	41,057
768,46	26,316
768,64	17,130
768,83	29,412
769,02	24,631
769,21	23,958
769,39	42,857
769,58	28,571
769,77	18,085
769,96	15,315
770,14	29,508
770,33	26,168
770,52	53,957
770,70	9,730
770,89	42,703
771,08	-4,819
771,27	23,158
771,45	10,000
771,64	32,121
771,83	31,863
772,01	48,454
772,20	49,751
772,39	9,494
772,57	38,308
772,76	18,243
772,95	23,563
773,14	21,769
773,32	16,384
773,51	5,952
773,70	49,640
773,88	6,452
774,07	40,609
774,26	2,419
774,44	48,872
774,63	15,569
774,82	18,831
775,00	35,514
775,19	8,929
775,38	18,617
775,56	29,193
775,75	35,714
775,94	35,833
776,12	12,418
776,31	13,534
776,50	28,082
776,68	34,409
776,87	44,498
777,06	33,962
777,24	51,261
777,43	51,872
777,62	56,742
777,80	40,881
777,99	39,167
778,18	45,402
778,36	22,881
778,55	-5,932
778,74	35,156
778,92	46,296
779,11	49,091
779,29	4,255
779,48	28,369
779,67	63,964
779,85	14,912
780,04	22,464
780,23	29,762
780,41	59,322
780,60	56,376
780,79	39,516
780,97	7,843
781,16	21,809
781,34	37,838
781,53	51,786
781,72	5,405
781,90	42,515
782,09	23,256
782,28	31,973
782,46	60,714
782,65	30,986
782,83	51,572
783,02	73,684
783,21	24,060
783,39	74,790
783,58	62,609
783,76	79,592
783,95	69,718
784,14	68,421
784,32	28,235
784,51	70,270
784,69	14,844
784,88	13,084
785,06	56,291
785,25	35,461
785,44	14,516
785,62	45,000
785,81	20,370
785,99	31,579
786,18	63,964
786,37	60,440
786,55	36,111
786,74	65,455
786,92	28,671
787,11	38,194
787,29	42,857
787,48	47,312
787,67	41,509
787,85	77,215
788,04	61,261
788,22	69,307
788,41	67,717
788,59	40,132
788,78	72,527
788,96	45,455
789,15	46,667
789,34	46,154
789,52	54,839
789,71	58,993
789,89	42,857
790,08	75,000
790,26	50,955
790,45	183,333
790,63	18,391
790,82	57,692
791,00	41,593
791,19	70,400
791,38	49,524
791,56	20,909
791,75	2,778
791,93	67,000
792,12	60,870
792,30	34,307
792,49	23,232
792,67	36,765
792,86	46,400
793,04	76,852
793,23	46,316
793,41	43,478
793,60	38,889
793,78	27,619
793,97	54,861
794,15	88,722
794,34	28,000
794,52	38,710
794,71	50,388
794,89	40,909
795,08	70,400
795,26	97,333
795,45	48,611
795,63	36,290
795,82	0,000
796,00	76,000
796,19	53,659
796,37	35,878
796,56	44,660
796,74	50,526
796,93	-16,667
797,11	77,108
797,30	65,556
797,48	23,438
797,67	48,780
797,85	46,923
798,04	39,831
798,22	119,231
798,41	25,962
798,59	42,857
798,77	30,120
798,96	51,235
799,14	50,000
799,33	71,560
799,51	20,833
799,70	65,385
799,88	87,156
800,07	42,748
800,25	66,265
800,44	70,370
800,62	62,500
800,80	28,873
800,99	113,699
801,17	50,000
801,36	45,714
801,54	38,000
801,73	44,211
801,91	47,107
802,10	49,412
802,28	38,400
802,46	25,000
802,65	62,590
802,83	85,333
803,02	37,903
803,20	103,614
803,39	62,069
803,57	65,354
803,75	35,772
803,94	25,397
804,12	75,172
804,31	55,072
804,49	32,000
804,67	44,118
804,86	66,372
805,04	27,711
805,23	47,788
805,41	64,167
805,59	80,137
805,78	64,000
805,96	31,325
806,15	89,109
806,33	60,526
806,51	34,667
806,70	72,180
806,88	50,000
807,07	50,450
807,25	62,637
807,43	68,750
807,62	67,257
807,80	20,000
807,99	67,692
808,17	12,598
808,35	51,000
808,54	59,420
808,72	65,766
808,90	39,726
809,09	39,130
809,27	84,000
809,46	75,824
809,64	84,146
809,82	26,490
810,01	47,656
810,19	33,333
810,37	51,563
810,56	82,222
810,74	83,117
810,92	56,000
811,11	31,579
811,29	71,698
811,48	20,769
811,66	83,146
811,84	37,363
812,03	21,311
812,21	50,877
812,39	29,565
812,58	62,105
812,76	62,590
812,94	33,735
813,13	25,532
813,31	26,000
813,49	55,556
813,68	41,818
813,86	33,708
814,04	35,537
814,23	66,265
814,41	11,236
814,59	43,689
814,78	44,118
814,96	6,918
815,14	39,252
815,33	18,605
815,51	25,197
815,69	62,857
815,87	43,564
816,06	55,652
816,24	40,373
816,42	58,088
816,61	45,912
816,79	62,069
816,97	88,636
817,16	39,053
817,34	49,206
817,52	27,273
817,70	59,406
817,89	37,037
818,07	36,301
818,25	42,857
818,44	62,821
818,62	13,178
818,80	26,316
818,98	48,408
819,17	49,580
819,35	43,617
819,53	64,179
819,72	71,519
819,90	31,783
820,08	-10,256
820,26	14,655
820,45	35,570
820,63	95,536
820,81	68,800
820,99	48,227
821,18	25,850
821,36	27,215
821,54	66,207
821,73	31,111
821,91	43,860
822,09	43,548
822,27	52,258
822,46	25,735
822,64	44,800
822,82	54,696
823,00	21,547
823,19	35,165
823,37	71,515
823,55	45,455
823,73	48,966
823,91	38,406
824,10	40,323
824,28	55,779
824,46	36,893
824,64	49,342
824,83	34,783
825,01	22,000
825,19	25,806
825,37	32,174
825,56	42,453
825,74	37,245
825,92	27,389
826,10	65,341
826,28	27,976
826,47	32,105
826,65	69,504
826,83	32,759
827,01	36,994
827,19	60,714
827,38	41,975
827,56	26,705
827,74	17,318
827,92	43,023
828,10	23,077
828,29	62,130
828,47	41,870
828,65	25,385
828,83	23,636
829,01	26,087
829,20	45,055
829,38	42,614
829,56	48,913
829,74	3,774
829,92	32,937
830,10	24,138
830,29	30,653
830,47	23,116
830,65	9,756
830,83	46,875
831,01	51,190
831,20	30,583
831,38	37,321
831,56	42,326
831,74	49,289
831,92	56,579
832,10	40,952
832,29	44,595
832,47	15,730
832,65	39,216
832,83	34,742
833,01	50,000
833,19	18,100
833,37	53,846
833,56	16,878
833,74	38,725
833,92	20,370
834,10	29,876
834,28	32,489
834,46	31,222
834,64	26,852
834,83	37,273
835,01	34,440
835,19	31,600
835,37	22,727
835,55	15,625
835,73	37,931
835,91	31,734
836,09	26,996
836,28	40,959
836,46	16,800
836,64	28,571
836,82	23,529
837,00	25,362
837,18	13,755
837,36	24,303
837,54	28,636
837,72	16,810
837,91	22,388
838,09	17,928
838,27	22,333
838,45	23,050
838,63	19,853
838,81	10,549
838,99	21,774
839,17	27,365
839,35	20,213
839,53	14,386
839,72	36,842
839,90	25,773
840,08	30,154
840,26	26,587
840,44	24,773
840,62	14,138
840,80	22,109
840,98	24,314
841,16	30,418
841,34	13,378
841,52	33,639
841,70	29,538
841,89	17,742
842,07	16,928
842,25	31,897
842,43	20,690
842,61	24,912
842,79	32,486
842,97	20,195
843,15	24,422
843,33	10,726
843,51	14,759
843,69	34,188
843,87	11,940
844,05	26,444
844,23	22,823
844,41	13,480
844,59	11,816
844,77	8,403
844,95	25,434
845,13	15,077
845,31	9,884
845,50	38,743
845,68	21,543
845,86	25,287
846,04	22,346
846,22	6,267
846,40	24,462
846,58	9,972
846,76	25,806
846,94	23,192
847,12	12,435
847,30	20,876
847,48	10,217
847,66	21,182
847,84	13,115
848,02	21,981
848,20	8,010
848,38	7,123
848,56	27,273
848,74	22,196
848,92	15,711
849,10	11,000
849,28	13,360
849,46	7,200
849,64	19,630
849,82	7,716
850,00	26,636
850,18	18,085
850,36	10,817
850,54	20,551
850,72	18,252
850,90	24,130
851,08	15,098
851,26	8,972
851,44	15,929
851,62	14,651
851,80	25,110
851,98	14,945
852,16	16,785
852,34	16,701
852,52	13,839
852,70	7,745
852,87	8,904
853,05	13,060
853,23	23,505
853,41	16,553
853,59	19,710
853,77	17,659
853,95	29,325
854,13	13,938
854,31	18,686
854,49	12,774
854,67	10,367
854,85	12,008
855,03	17,635
855,21	12,000
855,39	8,249
855,57	9,140
855,75	17,518
855,93	13,333
856,11	26,499
856,28	15,129
856,46	14,413
856,64	18,667
856,82	12,887
857,00	8,519
857,18	13,177
857,36	13,153
857,54	14,360
857,72	7,544
857,90	8,856
858,08	12,745
858,26	7,039
858,44	7,212
858,61	10,105
858,79	16,436
858,97	12,389
859,15	13,467
859,33	12,813
859,51	6,700
859,69	5,367
859,87	9,061
860,05	9,059
860,23	12,175
860,40	15,658
860,58	13,607
860,76	1,746
860,94	10,407
861,12	17,385
861,30	12,088
861,48	13,429
861,66	9,683
861,84	8,969
862,01	15,464
862,19	16,780
862,37	9,834
862,55	9,366
862,73	7,740
862,91	8,223
863,09	7,887
863,27	13,362
863,44	8,604
863,62	9,103
863,80	2,672
863,98	7,715
864,16	5,636
864,34	14,851
864,52	13,137
864,69	9,649
864,87	13,459
865,05	10,884
865,23	12,026
865,41	10,215
865,59	15,343
865,76	10,867
865,94	10,465
866,12	11,613
866,30	10,659
866,48	15,667
866,66	5,645
866,83	15,394
867,01	9,207
867,19	8,453
867,37	6,080
867,55	8,244
867,73	7,212
867,90	6,347
868,08	7,497
868,26	9,191
868,44	13,365
868,62	13,514
868,79	6,758
868,97	11,083
869,15	7,077
869,33	10,501
869,51	9,175
869,69	5,366
869,86	10,058
870,04	13,103
870,22	9,484
870,40	11,345
870,57	10,727
870,75	14,475
870,93	15,895
871,11	11,147
871,29	10,845
871,46	9,272
871,64	15,272
871,82	17,008
872,00	18,724
872,18	14,451
872,35	18,522
872,53	17,105
872,71	14,592
872,89	21,656
873,06	16,096
873,24	14,840
873,42	17,163
873,60	15,385
873,77	19,223
873,95	15,615
874,13	14,799
874,31	24,252
874,49	17,909
874,66	18,985
874,84	18,857
875,02	27,589
875,20	21,970
875,37	23,461
875,55	24,046
875,73	20,280
875,91	23,513
876,08	22,029
876,26	21,025
876,44	27,715
876,61	25,060
876,79	27,384
876,97	23,358
877,15	24,670
877,32	27,621
877,50	26,656
877,68	22,793
877,86	21,410
878,03	27,543
878,21	27,553
878,39	29,992
878,56	31,157
878,74	30,199
878,92	27,603
879,10	26,826
879,27	31,689
879,45	27,821
879,63	32,531
879,80	28,518
879,98	25,658
880,16	31,659
880,34	30,656
880,51	30,757
880,69	31,176
880,87	32,365
881,04	35,022
881,22	30,780
881,40	34,080
881,57	35,323
881,75	34,626
881,93	33,378
882,10	30,710
882,28	34,276
882,46	31,507
882,63	33,665
882,81	35,840
882,99	35,463
883,16	34,428
883,34	39,305
883,52	36,351
883,69	36,352
883,87	33,333
884,05	34,836
884,22	38,160
884,40	36,076
884,58	33,398
884,75	35,397
884,93	38,564
885,11	38,569
885,28	38,241
885,46	34,625
885,64	35,685
885,81	38,810
885,99	38,662
886,17	38,417
886,34	34,114
886,52	36,713
886,70	38,153
886,87	32,355
887,05	36,700
887,22	37,023
887,40	35,659
887,58	34,580
887,75	37,205
887,93	36,689
888,11	36,397
888,28	33,280
888,46	36,973
888,63	34,153
888,81	34,653
888,99	33,687
889,16	32,793
889,34	29,324
889,51	30,315
889,69	32,409
889,87	32,306
890,04	29,212
890,22	31,546
890,39	29,826
890,57	30,054
890,75	27,863
890,92	28,988
891,10	27,674
891,27	28,369
891,45	30,250
891,63	27,411
891,80	27,423
891,98	23,954
892,15	29,088
892,33	25,288
892,51	28,840
892,68	27,219
892,86	23,621
893,03	25,995
893,21	23,969
893,38	24,546
893,56	21,107
893,74	24,752
893,91	24,057
894,09	23,303
894,26	21,684
894,44	22,405
894,61	20,715
894,79	21,486
894,96	20,265
895,14	19,534
895,32	20,300
895,49	18,066
895,67	19,510
895,84	17,689
896,02	19,072
896,19	17,736
896,37	18,711
896,54	19,381
896,72	17,289
896,89	17,186
897,07	18,052
897,25	18,134
897,42	16,024
897,60	16,340
897,77	16,291
897,95	17,416
898,12	15,886
898,30	17,192
898,47	16,537
898,65	13,704
898,82	16,706
899,00	16,162
899,17	18,952
899,35	15,485
899,52	18,693
899,70	17,932
899,87	16,304
900,05	16,553
900,22	17,257
900,40	16,755
900,57	17,069
900,75	17,706
900,92	18,168
901,10	20,432
901,27	18,727
901,45	21,278
901,62	21,281
901,80	20,149
901,97	20,216
902,15	20,049
902,32	21,739
902,50	20,416
902,67	22,158
902,85	19,358
903,02	21,212
903,20	21,477
903,37	20,000
903,54	21,516
903,72	21,885
903,89	20,365
904,07	21,355
904,24	21,394
904,42	21,725
904,59	20,929
904,77	20,693
904,94	20,000
905,12	18,710
905,29	20,267
905,47	20,146
905,64	20,509
905,81	20,703
905,99	20,266
906,16	19,424
906,34	20,404
906,51	19,206
906,69	19,738
906,86	18,057
907,03	18,601
907,21	17,032
907,38	20,286
907,56	17,384
907,73	19,960
907,91	17,848
908,08	17,954
908,25	18,496
908,43	15,872
908,60	15,146
908,78	16,295
908,95	17,469
909,13	17,488
909,30	16,843
909,47	14,584
909,65	15,635
909,82	16,090
910,00	14,432
910,17	14,829
910,34	14,937
910,52	13,609
910,69	12,713
910,87	13,471
911,04	11,387
911,21	13,598
911,39	12,249
911,56	12,796
911,73	10,337
911,91	10,893
912,08	12,865
912,26	10,208
912,43	11,276
912,60	10,573
912,78	11,172
912,95	9,988
913,13	8,430
913,30	9,431
913,47	9,470
913,65	10,061
913,82	8,643
913,99	7,594
914,17	7,856
914,34	7,063
914,51	7,859
914,69	8,838
914,86	9,101
915,03	7,460
915,21	6,458
915,38	7,430
915,56	7,641
915,73	5,685
915,90	5,461
916,08	6,874
916,25	5,131
916,42	5,945
916,60	5,058
916,77	6,095
916,94	5,395
917,12	4,533
917,29	4,935
917,46	5,876
917,64	4,645
917,81	3,970
917,98	4,012
918,16	4,469
918,33	5,083
918,50	4,278
918,67	4,480
918,85	3,560
919,02	4,429
919,19	3,701
919,37	4,374
919,54	4,343
919,71	5,711
919,89	2,865
920,06	5,046
920,23	4,272
920,41	4,165
920,58	4,211
920,75	5,177
920,92	4,413
921,10	3,722
921,27	3,949
921,44	4,529
921,62	4,729
921,79	3,524
921,96	4,489
922,13	5,230
922,31	4,765
922,48	4,320
922,65	4,571
922,82	3,970
923,00	4,780
923,17	4,327
923,34	4,330
923,52	4,283
923,69	4,173
923,86	5,243
924,03	4,671
924,21	4,323
924,38	5,312
924,55	5,236
924,72	3,023
924,90	4,170
925,07	3,640
925,24	4,456
925,41	4,682
925,59	4,453
925,76	3,417
925,93	5,701
926,10	4,332
926,28	3,177
926,45	3,903
926,62	3,990
926,79	5,056
926,96	5,763
927,14	4,998
927,31	3,928
927,48	3,705
927,65	4,778
927,83	4,237
928,00	5,363
928,17	4,801
928,34	4,599
928,51	4,405
928,69	3,184
928,86	3,825
929,03	3,755
929,20	3,659
929,37	3,701
929,55	4,585
929,72	3,892
929,89	3,749
930,06	4,048
930,23	5,257
930,41	3,830
930,58	4,734
930,75	3,009
930,92	4,004
931,09	4,608
931,27	3,054
931,44	3,294
931,61	3,752
931,78	3,632
931,95	3,286
932,12	3,687
932,30	3,661
932,47	2,620
932,64	3,187
932,81	3,306
932,98	3,619
933,16	3,566
933,33	2,877
933,50	2,626
933,67	3,294
933,84	3,968
934,01	2,698
934,18	2,771
934,36	3,241
934,53	2,817
934,70	2,434
934,87	2,348
935,04	2,413
935,21	1,993
935,38	2,364
935,56	2,073
935,73	1,198
935,90	2,599
936,07	2,532
936,24	2,782
936,41	2,011
936,58	1,759
936,76	1,788
936,93	1,457
937,10	1,957
937,27	2,285
937,44	1,832
937,61	2,693
937,78	2,133
937,95	2,932
938,13	0,894
938,30	1,763
938,47	1,384
938,64	1,220
938,81	1,312
938,98	1,157
939,15	2,132
939,32	1,418
939,49	1,075
939,66	0,656
939,84	1,131
940,01	1,641
940,18	0,931
940,35	1,130
940,52	1,500
940,69	0,384
940,86	2,132
941,03	0,824
941,20	0,689
941,37	1,235
941,54	1,763
941,71	2,259
941,89	1,571
942,06	0,817
942,23	1,871
942,40	1,179
942,57	0,820
942,74	1,488
942,91	2,360
943,08	2,158
943,25	1,709
943,42	1,155
943,59	2,186
943,76	1,576
943,93	0,605
944,10	0,855
944,27	0,229
944,44	1,037
944,61	1,518
944,79	1,784
944,96	2,573
945,13	1,031
945,30	0,585
945,47	1,931
945,64	0,946
945,81	1,389
945,98	0,546
946,15	2,242
946,32	2,224
946,49	1,614
946,66	2,600
946,83	1,118
947,00	2,140
947,17	0,897
947,34	1,567
947,51	1,539
947,68	1,975
947,85	1,846
948,02	1,480
948,19	1,246
948,36	2,535
948,53	0,291
948,70	0,769
948,87	2,285
949,04	1,714
949,21	2,046
949,38	2,613
949,55	2,395
949,72	1,692
949,89	3,139
950,06	2,193
950,23	1,413
950,40	1,967
950,57	2,896
950,74	3,586
950,91	1,357
951,08	3,055
951,25	2,607
951,42	1,658
951,59	1,520
951,76	-0,358
951,93	3,009
952,10	2,580
952,27	1,605
952,44	3,353
952,61	2,458
952,77	3,012
952,94	2,346
953,11	2,146
953,28	3,007
953,45	4,334
953,62	3,090
953,79	3,704
953,96	4,520
954,13	4,378
954,30	4,927
954,47	3,332
954,64	1,144
954,81	4,423
954,98	1,573
955,15	4,353
955,32	4,121
955,49	5,071
955,65	5,367
955,82	8,580
955,99	4,759
956,16	8,913
956,33	4,508
956,50	5,752
956,67	5,447
956,84	8,693
957,01	5,522
957,18	7,376
957,35	9,901
957,52	6,302
957,68	9,241
957,85	8,518
958,02	11,150
958,19	6,467
958,36	9,099
958,53	10,009
958,70	12,093
958,87	10,878
959,04	11,861
959,21	16,484
959,37	15,056
959,54	12,670
959,71	13,910
959,88	13,372
960,05	14,203
960,22	11,321
960,39	15,578
960,56	14,066
960,72	12,742
960,89	16,644
961,06	12,604
961,23	15,291
961,40	12,041
961,57	13,578
961,74	17,512
961,90	16,836
962,07	13,752
962,24	15,088
962,41	19,828
962,58	17,391
962,75	19,829
962,92	15,789
963,08	18,125
963,25	14,343
963,42	23,695
963,59	20,534
963,76	22,664
963,93	20,570
964,10	10,860
964,26	21,905
964,43	6,512
964,60	22,970
964,77	21,477
964,94	18,765
965,10	20,891
965,27	9,777
965,44	22,857
965,61	20,890
965,78	17,391
965,95	30,348
966,11	22,727
966,28	24,581
966,45	28,758
966,62	23,693
966,79	22,526
966,95	22,064
967,12	30,476
967,29	28,395
967,46	39,858
967,63	32,941
967,79	37,919
967,96	41,284
968,13	44,286
968,30	39,918
968,47	30,385
968,63	43,137
968,80	30,651
968,97	54,335
969,14	36,723
969,31	38,776
969,47	46,739
969,64	31,868
969,81	30,323
969,98	33,684
970,14	17,204
970,31	56,604
970,48	40,268
970,65	28,099
970,81	49,650
970,98	54,687
971,15	65,455
971,32	47,727
971,48	75,000
971,65	42,384
971,82	58,182
971,99	72,152
972,15	33,721
972,32	50,694
972,49	62,295
972,66	50,413
972,82	50,000
972,99	30,000
973,16	74,834
973,33	42,963
973,49	54,878
973,66	42,857
973,83	70,370
974,00	44,304
974,16	14,545
974,33	80,000
974,50	92,929
974,67	57,143
974,83	73,469
975,00	143,636
975,17	100,000
975,33	96,552
975,50	104,918
975,67	90,385
975,84	19,512
976,00	105,263
976,17	186,957
976,34	68,235
976,50	91,209
976,67	126,190
976,84	135,417
977,00	97,436
977,17	186,667
977,34	194,231
977,50	89,286
977,67	132,941
977,84	115,254
978,01	95,946
978,17	53,448
978,34	251,852
978,51	152,000
978,67	104,082
978,84	100,000
979,01	39,474
979,17	62,857
979,34	121,739
979,51	186,364
979,67	312,500
979,84	155,932
980,01	130,769
980,17	82,353
980,34	79,452
980,51	555,556
980,67	42,222
980,84	121,429
981,01	311,765
981,17	116,176
981,34	82,857
981,50	150,526
981,67	252,381
981,84	135,714
982,00	5100,000
982,17	184,375
982,34	160,976
982,50	0,000
982,67	-614,286
982,84	305,000
983,00	105,556
983,17	-328,571
983,33	511,111
983,50	126,829
983,67	130,435
983,83	285,714
984,00	234,783
984,17	588,889
984,33	-478,571
984,50	208,108
984,66	250,000
984,83	600,000
985,00	61,538
985,16	264,516
985,33	4550,000
985,49	153,488
985,66	97,500
985,83	-1833,333
985,99	400,000
986,16	294,737
986,32	95,890
986,49	-1040,000
986,66	1040,000
986,82	193,939
986,99	-80,000
987,15	160,606
987,32	294,118
987,49	192,857
987,65	-200,000
987,82	-180,000
987,98	113,636
988,15	385,714
988,31	185,714
988,48	141,176
988,65	800,000
988,81	138,182
988,98	259,459
989,14	530,000
989,31	149,153
989,47	-50,000
989,64	211,111
989,80	93,617
989,97	165,455
990,14	407,143
990,30	-262,500
990,47	-179,167
990,63	271,053
990,80	1366,667
990,96	516,667
991,13	203,333
991,29	109,804
991,46	154,167
991,62	0,000
991,79	-100,000
991,95	223,529
992,12	1833,333
992,29	-123,810
992,45	164,286
992,62	-121,429
992,78	-350,000
992,95	206,452
993,11	1037,500
993,28	-3400,000
993,44	-220,690
993,61	178,947
993,77	0,000
993,94	266,667
994,10	1257,143
994,27	-113,158
994,43	193,750
994,60	628,571
994,76	118,182
994,93	-330,000
995,09	-356,250
995,26	345,833
995,42	875,000
995,59	180,000
995,75	-641,667
995,92	-1200,000
996,08	-1200,000
996,25	236,364
996,41	1380,000
996,58	248,000
996,74	-550,000
996,91	204,839
997,07	384,000
997,23	96,078
997,40	1200,000
997,56	-2200,000
997,73	300,000
997,89	980,000
998,06	128,070
998,22	125,532
998,39	155,102
998,55	494,737
998,72	-7700,000
998,88	154,000
999,05	686,667
999,21	394,118
999,37	237,209
999,54	200,000
999,70	233,333
999,87	1366,667
1000,03	296,667
1000,20	557,143
1000,36	-1125,000
1000,52	1150,000
1000,69	464,000
1000,85	-391,667
1001,02	238,095
1001,18	740,000
1001,35	0,000
1001,51	157,143
1001,67	345,000
1001,84	151,220
1002,00	-363,636
1002,17	775,000
1002,33	-787,500
1002,50	541,667
1002,66	1300,000
1002,82	234,146
1002,99	-250,000
1003,15	-3000,000
1003,32	-192,857
1003,48	-466,667
1003,64	347,826
1003,81	-73,684
1003,97	140,580
1004,14	-92,727
1004,30	354,545
1004,46	-6700,000
1004,63	-338,462
1004,79	164,865
1004,95	-960,000
1005,12	-307,692
1005,28	255,556
1005,45	-850,000
1005,61	307,692
1005,77	-785,714
1005,94	186,957
1006,10	-520,000
1006,26	-44,444
1006,43	148,485
1006,59	293,548
1006,76	-180,000
1006,92	286,957
1007,08	118,182
1007,25	177,778
1007,41	304,545
1007,57	-411,765
1007,74	286,957
1007,90	-150,000
1008,06	-293,333
1008,23	-331,579
1008,39	177,778
1008,55	103,529
1008,72	-1112,500
1008,88	-57,143
1009,04	-1077,778
1009,21	187,500
1009,37	361,290
1009,53	-210,000
1009,70	27,273
1009,86	578,947
1010,02	161,364
1010,19	513,333
1010,35	7700,000
1010,51	220,000
1010,68	427,273
1010,84	350,000
1011,00	250,000
1011,17	2166,667
1011,33	273,077
1011,49	400,000
1011,66	303,125
1011,82	-633,333
1011,98	666,667
1012,14	638,462
1012,31	279,545
1012,47	-685,714
1012,63	4500,000
1012,80	177,778
1012,96	138,889
1013,12	-181,481
1013,29	237,500
1013,45	-29,412
1013,61	-440,000
1013,77	-222,222
1013,94	200,000
1014,10	900,000
1014,26	-73,529
1014,43	205,263
1014,59	0,000
1014,75	590,000
1014,91	145,714
1015,08	400,000
1015,24	573,333
1015,40	646,667
1015,56	641,176
1015,73	193,878
1015,89	522,222
1016,05	154,054
1016,21	259,259
1016,38	247,368
1016,54	-152,000
1016,70	284,211
1016,86	-684,615
1017,03	0,000
1017,19	650,000
1017,35	316,667
1017,51	400,000
1017,68	1214,286
1017,84	415,789
1018,00	309,524
1018,16	-500,000
1018,33	472,727
1018,49	542,857
1018,65	-327,273
1018,81	-48,780
1018,97	384,615
1019,14	-785,714
1019,30	371,429
1019,46	212,821
1019,62	1550,000
1019,79	-428,571
1019,95	-2075,000
1020,11	700,000
1020,27	207,500
1020,43	-625,000
1020,60	0,000
1020,76	110,294
1020,92	8300,000
1021,08	-106,667
1021,24	-2700,000
1021,41	333,333
1021,57	-275,000
1021,73	0,000
1021,89	-309,091
1022,05	260,000
1022,21	-461,538
1022,38	400,000
1022,54	1000,000
1022,70	181,481
1022,86	-1400,000
1023,02	877,778
1023,19	-285,000
1023,35	158,491
1023,51	209,677
1023,67	194,737
1023,83	500,000
1023,99	297,143
1024,16	-75,385
1024,32	525,000
1024,48	206,122
1024,64	-1340,000
1024,80	325,000
1024,96	546,154
1025,12	2900,000
1025,29	-825,000
1025,45	175,000
1025,61	2166,667
1025,77	404,762
1025,93	-361,538
1026,09	3600,000
1026,26	-1042,857
1026,42	-1400,000
1026,58	167,308
1026,74	485,714
1026,90	242,105
1027,06	-130,000
1027,22	-566,667
1027,38	777,778
1027,55	-132,000
1027,71	687,500
1027,87	212,500
1028,03	98,485
1028,19	-139,394
1028,35	85,135
1028,51	-16,129
1028,67	-80,000
1028,83	80,952
1029,00	578,571
1029,16	-560,000
1029,32	335,294
1029,48	3250,000
1029,64	1285,714
1029,80	1200,000
1029,96	203,922
1030,12	-512,500
1030,28	800,000
1030,44	-3450,000
1030,61	300,000
1030,77	-260,870
1030,93	141,860
1031,09	-164,286
1031,25	-911,111
1031,41	-2600,000
1031,57	-157,895
1031,73	790,909
1031,89	-103,030
1032,05	628,571
1032,21	580,000
1032,37	-111,765
1032,53	-125,000
1032,69	-5300,000
1032,86	1350,000
1033,02	356,250
1033,18	-638,462
1033,34	-615,385
1033,50	225,806
1033,66	-277,778
1033,82	353,571
1033,98	-347,059
1034,14	688,889
1034,30	-372,727
1034,46	220,833
1034,62	372,222
1034,78	128,571
1034,94	-212,903
1035,10	-309,091
1035,26	-533,333
1035,42	177,143
1035,58	900,000
1035,74	-130,000
1035,90	-475,000
1036,06	224,528
1036,22	-284,000
1036,38	493,333
1036,54	240,000
1036,70	-4550,000
1036,86	-371,429
1037,02	-3550,000
1037,18	17,857
1037,34	217,391
1037,50	-326,667
1037,66	-1866,667
1037,82	-317,647
1037,98	447,619
1038,14	-75,862
1038,30	36,538
1038,46	152,083
1038,62	203,226
1038,78	209,524
1038,94	-89,474
1039,10	-225,000
1039,26	-194,737
1039,42	-471,429
1039,58	154,717
1039,74	106,250
1039,90	-143,590
1040,06	247,059
>>>>>End Processed Spectral Data<<<<<
