SpectraSuite Data File
++++++++++++++++++++++++++++++++++++
Date: Thu Feb 02 17:37:46 EET 2017
User: optolab
Dark Spectrum Present: Yes
Reference Spectrum Present: Yes
Number of Sampled Component Spectra: 1
Spectrometers: USB4C02475
Integration Time (usec): 100000 (USB4C02475)
Spectra Averaged: 1 (USB4C02475)
Boxcar Smoothing: 0 (USB4C02475)
Correct for Electrical Dark: No (USB4C02475)
Strobe/Lamp Enabled: No (USB4C02475)
Correct for Detector Non-linearity: No (USB4C02475)
Correct for Stray Light: No (USB4C02475)
Number of Pixels in Processed Spectrum: 3648
>>>>>Begin Processed Spectral Data<<<<<
344,91	-150,000
345,13	-150,000
345,35	-150,000
345,57	-176,471
345,79	13,043
346,00	-102,941
346,22	-1371,429
346,44	-24,242
346,66	238,298
346,87	413,043
347,09	723,077
347,31	4600,000
347,53	-2200,000
347,74	-104,651
347,96	-585,714
348,18	267,647
348,40	417,647
348,61	-161,538
348,83	6200,000
349,05	233,333
349,27	305,882
349,48	-3400,000
349,70	492,857
349,92	257,143
350,14	208,108
350,35	-384,615
350,57	-538,889
350,79	-64,103
351,01	-366,667
351,22	220,000
351,44	416,667
351,66	205,556
351,87	1283,333
352,09	50,000
352,31	192,857
352,53	277,143
352,74	-400,000
352,96	373,684
353,18	112,500
353,40	-662,500
353,61	586,667
353,83	185,417
354,05	140,625
354,26	367,857
354,48	-1440,000
354,70	523,810
354,92	272,222
355,13	11,628
355,35	161,111
355,57	235,938
355,78	178,571
356,00	204,255
356,22	281,818
356,44	186,047
356,65	392,857
356,87	152,778
357,09	245,714
357,30	136,364
357,52	-566,667
357,74	335,484
357,95	231,429
358,17	108,696
358,39	156,000
358,60	63,889
358,82	181,818
359,04	217,949
359,26	215,909
359,47	-430,769
359,69	439,286
359,91	368,000
360,12	355,000
360,34	141,667
360,56	-1200,000
360,77	866,667
360,99	283,333
361,21	182,609
361,42	-2700,000
361,64	-251,852
361,86	141,791
362,07	806,667
362,29	147,500
362,51	183,784
362,72	-1060,000
362,94	203,704
363,16	132,857
363,37	963,636
363,59	-7100,000
363,81	937,500
364,02	154,667
364,24	252,273
364,46	442,857
364,67	150,000
364,89	282,353
365,11	270,270
365,32	237,037
365,54	325,000
365,76	152,273
365,97	217,073
366,19	94,737
366,41	780,000
366,62	101,000
366,84	525,000
367,05	107,843
367,27	1440,000
367,49	325,641
367,70	811,111
367,92	179,167
368,14	-430,769
368,35	150,000
368,57	145,455
368,79	276,923
369,00	103,846
369,22	411,111
369,43	278,947
369,65	-86,207
369,87	-294,118
370,08	310,000
370,30	435,714
370,51	445,455
370,73	208,333
370,95	290,000
371,16	128,070
371,38	156,604
371,60	246,667
371,81	110,870
372,03	-1550,000
372,24	-350,000
372,46	3066,667
372,68	97,059
372,89	93,578
373,11	151,163
373,32	109,244
373,54	0,000
373,76	261,111
373,97	209,091
374,19	-421,053
374,40	137,143
374,62	552,941
374,84	379,167
375,05	155,769
375,27	181,081
375,48	106,173
375,70	405,882
375,92	182,143
376,13	373,684
376,35	308,333
376,56	285,000
376,78	148,980
376,99	300,000
377,21	218,750
377,43	169,697
377,64	152,000
377,86	481,250
378,07	163,636
378,29	261,111
378,51	77,381
378,72	-286,364
378,94	163,043
379,15	145,455
379,37	400,000
379,58	63,333
379,80	138,636
380,01	132,000
380,23	308,696
380,45	216,667
380,66	123,611
380,88	208,108
381,09	286,957
381,31	248,718
381,52	286,957
381,74	194,643
381,95	275,000
382,17	284,000
382,39	109,677
382,60	535,294
382,82	286,207
383,03	2266,667
383,25	128,395
383,46	450,000
383,68	153,191
383,89	218,182
384,11	157,534
384,32	184,211
384,54	-1142,857
384,76	197,059
384,97	90,000
385,19	163,158
385,40	275,000
385,62	212,903
385,83	148,936
386,05	800,000
386,26	334,615
386,48	292,308
386,69	222,222
386,91	400,000
387,12	253,846
387,34	125,424
387,55	128,571
387,77	192,000
387,98	122,449
388,20	97,183
388,41	101,587
388,63	124,286
388,84	207,500
389,06	179,070
389,27	231,250
389,49	87,952
389,70	174,576
389,92	72,727
390,13	166,667
390,35	65,625
390,56	181,250
390,78	104,545
390,99	111,111
391,21	75,000
391,42	6,522
391,64	-90,000
391,85	150,000
392,07	-207,143
392,28	96,154
392,50	860,000
392,71	1500,000
392,93	138,710
393,14	176,087
393,36	152,564
393,57	225,000
393,79	90,476
394,00	82,192
394,22	140,000
394,43	253,571
394,65	317,857
394,86	181,250
395,08	-787,500
395,29	46,809
395,50	-3300,000
395,72	942,857
395,93	164,000
396,15	-292,857
396,36	120,000
396,58	-247,619
396,79	127,907
397,01	235,714
397,22	114,493
397,44	240,426
397,65	113,514
397,87	94,286
398,08	269,231
398,29	500,000
398,51	224,390
398,72	102,174
398,94	151,163
399,15	110,000
399,37	154,348
399,58	130,159
399,80	273,333
400,01	273,529
400,22	378,571
400,44	233,333
400,65	98,630
400,87	4900,000
401,08	83,146
401,30	113,333
401,51	127,273
401,72	106,452
401,94	153,659
402,15	146,939
402,37	165,909
402,58	206,977
402,80	593,750
403,01	72,222
403,22	116,867
403,44	122,222
403,65	130,612
403,87	124,000
404,08	94,231
404,30	103,125
404,51	81,429
404,72	827,273
404,94	103,614
405,15	111,940
405,37	139,560
405,58	180,645
405,79	321,429
406,01	86,667
406,22	73,810
406,44	45,614
406,65	122,619
406,86	88,000
407,08	116,049
407,29	48,000
407,51	56,731
407,72	100,000
407,93	50,633
408,15	64,773
408,36	80,000
408,58	54,167
408,79	50,388
409,00	65,248
409,22	27,451
409,43	84,685
409,64	45,513
409,86	22,727
410,07	43,478
410,29	28,667
410,50	25,397
410,71	38,710
410,93	13,861
411,14	42,056
411,35	54,167
411,57	-3,472
411,78	51,471
412,00	40,000
412,21	26,549
412,42	25,854
412,64	36,667
412,85	27,979
413,06	30,357
413,28	53,725
413,49	23,721
413,70	25,751
413,92	26,190
414,13	23,715
414,34	26,022
414,56	34,468
414,77	4,797
414,98	9,541
415,20	18,638
415,41	22,078
415,63	17,094
415,84	35,180
416,05	20,783
416,27	15,599
416,48	19,905
416,69	20,058
416,91	2,933
417,12	6,787
417,33	6,998
417,55	18,800
417,76	12,051
417,97	14,981
418,19	6,695
418,40	-1,706
418,61	10,978
418,83	13,908
419,04	13,488
419,25	10,526
419,46	14,446
419,68	9,882
419,89	14,625
420,10	10,887
420,32	5,430
420,53	9,427
420,74	8,483
420,96	12,085
421,17	11,403
421,38	6,215
421,60	4,502
421,81	4,905
422,02	3,827
422,23	7,992
422,45	1,914
422,66	8,278
422,87	1,781
423,09	5,322
423,30	7,172
423,51	4,238
423,73	6,070
423,94	5,415
424,15	4,056
424,36	6,934
424,58	3,163
424,79	2,928
425,00	0,434
425,22	6,235
425,43	4,997
425,64	1,936
425,85	2,029
426,07	1,946
426,28	3,203
426,49	3,967
426,71	1,670
426,92	4,251
427,13	2,094
427,34	3,457
427,56	4,826
427,77	0,911
427,98	2,578
428,19	1,629
428,41	1,084
428,62	3,574
428,83	2,054
429,04	2,877
429,26	2,163
429,47	2,682
429,68	0,715
429,89	2,476
430,11	2,691
430,32	3,395
430,53	1,222
430,74	2,879
430,96	2,540
431,17	2,541
431,38	2,084
431,59	2,269
431,81	2,296
432,02	3,546
432,23	3,956
432,44	3,111
432,66	3,687
432,87	3,741
433,08	5,903
433,29	6,388
433,51	7,612
433,72	8,584
433,93	8,652
434,14	9,790
434,35	10,316
434,57	11,557
434,78	12,796
434,99	12,371
435,20	13,198
435,42	12,589
435,63	12,472
435,84	13,866
436,05	12,509
436,26	12,180
436,48	13,764
436,69	13,280
436,90	12,924
437,11	13,729
437,32	14,193
437,54	14,119
437,75	13,884
437,96	14,911
438,17	14,626
438,38	15,781
438,60	17,065
438,81	17,352
439,02	18,598
439,23	20,150
439,44	19,597
439,66	22,176
439,87	22,961
440,08	24,243
440,29	25,895
440,50	27,579
440,72	29,078
440,93	31,515
441,14	32,393
441,35	33,874
441,56	35,695
441,77	37,710
441,99	40,141
442,20	42,216
442,41	42,490
442,62	45,487
442,83	47,958
443,04	47,740
443,26	50,761
443,47	51,653
443,68	52,632
443,89	52,915
444,10	52,882
444,31	53,146
444,53	53,996
444,74	53,978
444,95	54,651
445,16	53,381
445,37	52,960
445,58	52,487
445,80	52,676
446,01	50,692
446,22	49,420
446,43	50,021
446,64	47,438
446,85	46,147
447,06	44,666
447,28	43,882
447,49	42,841
447,70	41,750
447,91	40,981
448,12	40,572
448,33	39,266
448,54	39,258
448,76	39,662
448,97	40,088
449,18	38,949
449,39	39,611
449,60	38,359
449,81	38,544
450,02	38,833
450,23	37,482
450,45	37,708
450,66	36,843
450,87	36,233
451,08	35,285
451,29	34,602
451,50	33,935
451,71	31,777
451,92	31,485
452,13	29,630
452,35	27,171
452,56	27,249
452,77	25,373
452,98	23,655
453,19	23,381
453,40	20,823
453,61	20,823
453,82	19,491
454,03	19,813
454,25	20,017
454,46	18,938
454,67	19,034
454,88	19,358
455,09	20,200
455,30	20,035
455,51	20,675
455,72	21,410
455,93	21,348
456,14	22,077
456,35	21,946
456,56	22,828
456,78	22,185
456,99	22,627
457,20	22,015
457,41	22,345
457,62	21,511
457,83	21,054
458,04	20,744
458,25	19,262
458,46	17,928
458,67	16,409
458,88	14,975
459,09	12,966
459,30	11,213
459,51	9,602
459,73	7,475
459,94	6,871
460,15	5,391
460,36	4,150
460,57	3,324
460,78	2,520
460,99	2,220
461,20	1,839
461,41	1,526
461,62	1,136
461,83	0,940
462,04	0,859
462,25	0,858
462,46	0,725
462,67	0,625
462,88	0,616
463,09	0,474
463,30	0,578
463,51	0,553
463,72	0,602
463,93	0,659
464,15	0,521
464,36	0,524
464,57	0,223
464,78	0,422
464,99	0,695
465,20	0,345
465,41	0,492
465,62	0,439
465,83	0,349
466,04	0,514
466,25	0,377
466,46	0,487
466,67	0,299
466,88	0,395
467,09	0,187
467,30	0,248
467,51	0,268
467,72	0,297
467,93	0,294
468,14	0,253
468,35	0,447
468,56	0,419
468,77	0,148
468,98	0,284
469,19	0,362
469,40	0,376
469,61	0,190
469,82	0,266
470,03	0,257
470,24	0,252
470,45	0,339
470,66	0,555
470,87	0,393
471,08	0,360
471,29	0,172
471,50	0,360
471,71	0,280
471,92	0,311
472,13	0,466
472,34	0,194
472,55	0,587
472,76	0,392
472,97	0,314
473,18	0,306
473,39	0,355
473,60	0,211
473,81	0,291
474,01	0,443
474,22	0,303
474,43	0,318
474,64	0,399
474,85	0,246
475,06	0,371
475,27	0,365
475,48	0,182
475,69	0,361
475,90	0,297
476,11	0,360
476,32	0,259
476,53	0,470
476,74	0,372
476,95	0,455
477,16	0,507
477,37	0,474
477,58	0,106
477,79	0,434
478,00	0,282
478,21	0,691
478,41	0,371
478,62	0,541
478,83	0,351
479,04	0,330
479,25	0,379
479,46	0,353
479,67	0,283
479,88	0,405
480,09	0,463
480,30	0,364
480,51	0,594
480,72	0,284
480,93	0,471
481,14	0,556
481,34	0,423
481,55	0,424
481,76	0,446
481,97	0,309
482,18	0,285
482,39	0,279
482,60	0,428
482,81	0,237
483,02	0,405
483,23	0,486
483,44	0,437
483,65	0,269
483,85	0,174
484,06	0,495
484,27	0,482
484,48	0,332
484,69	0,665
484,90	0,413
485,11	0,550
485,32	0,442
485,53	0,359
485,73	0,619
485,94	0,507
486,15	0,646
486,36	0,571
486,57	0,362
486,78	0,794
486,99	0,652
487,20	0,633
487,41	0,718
487,61	0,746
487,82	0,629
488,03	0,676
488,24	0,979
488,45	1,287
488,66	1,538
488,87	1,847
489,08	2,274
489,28	2,319
489,49	2,998
489,70	3,408
489,91	4,048
490,12	3,902
490,33	4,337
490,54	4,517
490,74	4,756
490,95	4,676
491,16	4,917
491,37	5,109
491,58	5,040
491,79	5,187
492,00	5,205
492,20	5,402
492,41	5,596
492,62	5,603
492,83	5,363
493,04	5,431
493,25	5,696
493,45	5,556
493,66	5,833
493,87	5,676
494,08	5,737
494,29	5,798
494,50	5,881
494,70	5,988
494,91	6,074
495,12	6,268
495,33	7,315
495,54	7,345
495,75	8,025
495,95	8,706
496,16	9,606
496,37	10,424
496,58	12,005
496,79	13,011
496,99	14,593
497,20	15,555
497,41	16,772
497,62	17,966
497,83	19,017
498,04	19,871
498,24	21,296
498,45	21,863
498,66	22,892
498,87	23,684
499,08	24,397
499,28	24,711
499,49	25,215
499,70	25,543
499,91	26,055
500,12	25,900
500,32	26,590
500,53	26,848
500,74	26,748
500,95	27,030
501,15	26,399
501,36	26,531
501,57	26,246
501,78	25,842
501,99	25,801
502,19	25,713
502,40	24,843
502,61	24,600
502,82	24,159
503,02	24,127
503,23	23,931
503,44	23,978
503,65	23,662
503,86	23,470
504,06	23,548
504,27	24,231
504,48	23,897
504,69	25,027
504,89	25,007
505,10	25,851
505,31	25,911
505,52	26,967
505,72	28,187
505,93	28,698
506,14	29,325
506,35	30,310
506,55	31,456
506,76	31,128
506,97	32,483
507,18	32,384
507,38	32,675
507,59	33,121
507,80	33,316
508,01	33,571
508,21	33,886
508,42	34,299
508,63	34,007
508,84	33,925
509,04	33,187
509,25	33,290
509,46	33,611
509,67	33,157
509,87	33,898
510,08	33,307
510,29	32,877
510,49	32,977
510,70	33,294
510,91	32,780
511,12	32,733
511,32	32,601
511,53	32,526
511,74	31,870
511,94	31,789
512,15	31,849
512,36	31,918
512,57	31,574
512,77	31,571
512,98	32,085
513,19	32,155
513,39	32,274
513,60	31,569
513,81	31,174
514,01	31,546
514,22	31,136
514,43	31,128
514,64	30,315
514,84	30,024
515,05	29,649
515,26	28,894
515,46	28,529
515,67	27,275
515,88	26,489
516,08	25,456
516,29	24,648
516,50	23,410
516,70	22,479
516,91	21,168
517,12	20,193
517,32	18,954
517,53	17,637
517,74	16,665
517,95	15,544
518,15	14,734
518,36	13,366
518,57	12,735
518,77	11,788
518,98	10,727
519,19	10,150
519,39	9,553
519,60	8,750
519,80	8,881
520,01	8,270
520,22	8,004
520,42	7,704
520,63	7,821
520,84	7,367
521,04	7,069
521,25	6,886
521,46	6,375
521,66	5,841
521,87	5,585
522,08	5,192
522,28	4,761
522,49	4,279
522,70	3,726
522,90	3,176
523,11	2,760
523,31	2,585
523,52	2,399
523,73	1,963
523,93	1,911
524,14	1,694
524,35	1,467
524,55	1,439
524,76	1,272
524,97	0,931
525,17	0,975
525,38	1,154
525,58	1,043
525,79	1,031
526,00	1,124
526,20	1,059
526,41	1,127
526,61	1,034
526,82	0,907
527,03	0,995
527,23	0,935
527,44	0,854
527,64	0,881
527,85	0,593
528,06	1,006
528,26	0,611
528,47	0,655
528,68	0,704
528,88	0,408
529,09	0,574
529,29	0,715
529,50	0,482
529,70	0,311
529,91	0,326
530,12	0,564
530,32	0,299
530,53	0,484
530,73	0,446
530,94	0,417
531,15	0,355
531,35	0,480
531,56	0,474
531,76	0,533
531,97	0,324
532,17	0,405
532,38	0,371
532,59	0,411
532,79	0,636
533,00	0,340
533,20	0,322
533,41	0,278
533,61	0,189
533,82	0,176
534,03	0,355
534,23	0,332
534,44	0,330
534,64	0,452
534,85	0,256
535,05	0,293
535,26	0,291
535,46	0,413
535,67	0,111
535,88	0,310
536,08	0,514
536,29	0,379
536,49	0,363
536,70	0,364
536,90	0,552
537,11	0,464
537,31	0,335
537,52	0,411
537,72	0,342
537,93	0,340
538,13	0,369
538,34	0,375
538,55	0,279
538,75	0,134
538,96	0,284
539,16	0,273
539,37	0,423
539,57	0,398
539,78	0,325
539,98	0,356
540,19	0,497
540,39	0,530
540,60	0,350
540,80	0,264
541,01	0,526
541,21	0,402
541,42	0,231
541,62	0,410
541,83	0,326
542,03	0,324
542,24	0,501
542,44	0,293
542,65	0,258
542,85	0,439
543,06	0,433
543,26	0,167
543,47	0,272
543,67	0,384
543,88	0,262
544,08	0,118
544,29	0,412
544,49	0,365
544,70	0,222
544,90	0,447
545,11	0,202
545,31	0,224
545,52	0,396
545,72	0,306
545,93	0,307
546,13	0,423
546,34	0,449
546,54	0,403
546,75	0,270
546,95	0,438
547,15	0,277
547,36	0,301
547,56	0,355
547,77	0,222
547,97	0,170
548,18	0,328
548,38	0,155
548,59	0,314
548,79	0,481
549,00	0,206
549,20	0,321
549,41	0,389
549,61	0,289
549,81	0,198
550,02	0,326
550,22	0,333
550,43	0,314
550,63	0,211
550,84	0,536
551,04	0,259
551,25	0,267
551,45	0,411
551,65	0,201
551,86	0,295
552,06	0,331
552,27	0,210
552,47	0,274
552,68	0,354
552,88	0,280
553,08	0,391
553,29	0,506
553,49	0,231
553,70	0,487
553,90	0,224
554,11	0,324
554,31	0,180
554,51	0,449
554,72	0,268
554,92	0,249
555,13	0,412
555,33	0,205
555,53	0,367
555,74	0,397
555,94	0,246
556,15	0,336
556,35	0,000
556,56	0,263
556,76	0,215
556,96	0,268
557,17	0,335
557,37	0,524
557,58	0,073
557,78	0,291
557,98	0,297
558,19	0,181
558,39	0,343
558,59	0,355
558,80	0,323
559,00	0,338
559,21	0,344
559,41	0,285
559,61	0,235
559,82	0,169
560,02	0,401
560,23	0,303
560,43	0,229
560,63	0,237
560,84	0,248
561,04	0,221
561,24	0,332
561,45	0,332
561,65	0,217
561,85	0,309
562,06	0,278
562,26	0,171
562,47	0,334
562,67	0,219
562,87	0,102
563,08	0,372
563,28	0,287
563,48	0,365
563,69	0,239
563,89	0,301
564,09	0,232
564,30	0,232
564,50	0,197
564,70	0,186
564,91	0,099
565,11	0,153
565,31	0,273
565,52	0,102
565,72	0,328
565,92	0,324
566,13	0,116
566,33	0,448
566,53	0,264
566,74	0,105
566,94	0,280
567,14	0,280
567,35	0,240
567,55	0,226
567,75	0,458
567,96	0,389
568,16	0,229
568,36	0,231
568,57	0,302
568,77	0,153
568,97	0,366
569,18	0,342
569,38	0,182
569,58	0,210
569,79	0,157
569,99	0,337
570,19	0,138
570,39	0,152
570,60	0,216
570,80	0,070
571,00	0,227
571,21	0,231
571,41	0,264
571,61	0,215
571,82	0,443
572,02	0,070
572,22	0,067
572,42	0,252
572,63	0,173
572,83	0,244
573,03	0,149
573,24	0,082
573,44	0,161
573,64	0,293
573,84	-0,041
574,05	0,162
574,25	0,137
574,45	0,180
574,66	0,276
574,86	0,226
575,06	0,278
575,26	0,269
575,47	0,303
575,67	0,163
575,87	0,192
576,07	0,144
576,28	0,273
576,48	0,233
576,68	0,325
576,88	0,213
577,09	0,136
577,29	0,268
577,49	0,275
577,69	0,088
577,90	0,149
578,10	0,166
578,30	0,309
578,50	0,084
578,71	0,332
578,91	0,192
579,11	0,320
579,31	0,255
579,52	0,156
579,72	0,184
579,92	0,210
580,12	0,151
580,33	0,303
580,53	0,274
580,73	0,256
580,93	0,059
581,13	0,149
581,34	0,172
581,54	0,251
581,74	0,192
581,94	0,232
582,15	0,303
582,35	0,128
582,55	0,286
582,75	0,307
582,95	0,243
583,16	0,313
583,36	0,214
583,56	0,296
583,76	0,155
583,96	0,239
584,17	0,237
584,37	0,206
584,57	0,164
584,77	0,055
584,97	0,092
585,18	0,195
585,38	0,092
585,58	0,232
585,78	0,252
585,98	0,126
586,19	0,223
586,39	0,357
586,59	0,092
586,79	0,366
586,99	0,223
587,20	0,135
587,40	0,315
587,60	0,110
587,80	0,292
588,00	0,256
588,20	0,376
588,41	0,172
588,61	0,205
588,81	0,252
589,01	0,243
589,21	0,417
589,41	0,156
589,62	0,285
589,82	0,245
590,02	0,153
590,22	0,267
590,42	0,321
590,62	0,253
590,83	0,168
591,03	0,076
591,23	0,044
591,43	0,284
591,63	0,223
591,83	0,358
592,03	0,296
592,24	0,333
592,44	0,175
592,64	0,245
592,84	0,175
593,04	0,083
593,24	0,138
593,44	0,344
593,65	0,347
593,85	0,328
594,05	0,130
594,25	0,262
594,45	0,223
594,65	0,277
594,85	0,148
595,06	0,106
595,26	0,375
595,46	0,105
595,66	0,248
595,86	0,100
596,06	0,162
596,26	0,167
596,46	0,320
596,66	0,239
596,87	0,163
597,07	0,235
597,27	0,185
597,47	0,230
597,67	0,203
597,87	0,239
598,07	0,102
598,27	0,128
598,47	0,305
598,67	0,180
598,88	0,216
599,08	0,310
599,28	0,406
599,48	0,137
599,68	0,265
599,88	0,263
600,08	0,252
600,28	0,291
600,48	0,337
600,68	0,172
600,88	0,291
601,09	0,304
601,29	0,377
601,49	0,192
601,69	0,230
601,89	0,098
602,09	0,257
602,29	0,132
602,49	0,193
602,69	0,384
602,89	0,190
603,09	0,295
603,29	0,357
603,49	0,284
603,69	0,221
603,90	0,207
604,10	0,171
604,30	0,220
604,50	0,289
604,70	0,146
604,90	0,343
605,10	0,103
605,30	0,126
605,50	0,257
605,70	0,216
605,90	0,015
606,10	0,196
606,30	0,156
606,50	0,333
606,70	0,251
606,90	0,182
607,10	0,212
607,30	0,279
607,50	0,228
607,70	0,369
607,90	0,441
608,10	0,433
608,30	0,224
608,50	0,189
608,70	0,464
608,90	0,190
609,11	0,203
609,31	0,284
609,51	0,227
609,71	0,180
609,91	0,202
610,11	0,390
610,31	0,261
610,51	0,342
610,71	0,113
610,91	0,125
611,11	0,117
611,31	0,278
611,51	0,043
611,71	0,289
611,91	0,544
612,11	0,192
612,31	0,368
612,51	0,185
612,71	0,175
612,91	0,214
613,11	0,250
613,31	0,261
613,51	0,386
613,71	0,203
613,91	0,397
614,11	0,371
614,31	0,308
614,50	0,530
614,70	0,311
614,90	0,363
615,10	0,173
615,30	0,306
615,50	0,258
615,70	0,468
615,90	0,304
616,10	0,483
616,30	0,373
616,50	0,357
616,70	0,283
616,90	0,348
617,10	0,465
617,30	0,354
617,50	0,388
617,70	0,212
617,90	0,226
618,10	0,399
618,30	0,234
618,50	0,412
618,70	0,414
618,90	0,394
619,10	0,312
619,30	0,172
619,49	0,446
619,69	0,230
619,89	0,447
620,09	0,202
620,29	0,383
620,49	0,424
620,69	0,300
620,89	0,282
621,09	0,343
621,29	0,272
621,49	0,262
621,69	0,125
621,89	0,324
622,09	0,242
622,29	0,125
622,48	0,376
622,68	0,195
622,88	0,354
623,08	0,263
623,28	0,171
623,48	0,324
623,68	0,176
623,88	0,221
624,08	0,285
624,28	0,387
624,48	0,351
624,67	0,167
624,87	0,237
625,07	0,395
625,27	0,158
625,47	0,366
625,67	0,288
625,87	0,248
626,07	0,458
626,27	0,217
626,47	0,295
626,66	0,169
626,86	0,310
627,06	0,344
627,26	0,285
627,46	0,179
627,66	0,313
627,86	0,307
628,06	0,206
628,25	0,340
628,45	0,412
628,65	0,404
628,85	0,231
629,05	0,501
629,25	0,160
629,45	0,248
629,65	0,134
629,84	0,124
630,04	0,284
630,24	0,294
630,44	0,253
630,64	0,436
630,84	0,207
631,04	0,385
631,23	0,280
631,43	0,315
631,63	0,111
631,83	0,133
632,03	0,378
632,23	0,362
632,42	0,212
632,62	0,376
632,82	0,237
633,02	0,324
633,22	0,292
633,42	0,278
633,62	0,325
633,81	0,312
634,01	0,371
634,21	0,286
634,41	0,487
634,61	0,211
634,80	0,335
635,00	0,507
635,20	0,346
635,40	0,274
635,60	0,176
635,80	0,521
635,99	0,442
636,19	0,322
636,39	0,136
636,59	0,139
636,79	0,293
636,98	0,209
637,18	0,137
637,38	0,526
637,58	0,307
637,78	0,519
637,97	0,226
638,17	0,449
638,37	0,465
638,57	0,050
638,77	0,511
638,96	0,080
639,16	0,364
639,36	0,304
639,56	0,448
639,76	0,171
639,95	0,355
640,15	0,203
640,35	0,097
640,55	0,381
640,75	0,305
640,94	0,194
641,14	0,672
641,34	0,352
641,54	0,170
641,73	0,325
641,93	0,582
642,13	0,239
642,33	0,371
642,53	0,525
642,72	0,604
642,92	0,390
643,12	0,233
643,32	0,310
643,51	0,501
643,71	0,087
643,91	0,359
644,11	0,479
644,30	0,075
644,50	0,607
644,70	0,439
644,90	0,703
645,09	0,390
645,29	0,539
645,49	0,378
645,69	0,395
645,88	0,713
646,08	0,391
646,28	0,496
646,48	0,265
646,67	0,233
646,87	0,280
647,07	0,343
647,26	0,358
647,46	0,310
647,66	0,220
647,86	0,575
648,05	0,577
648,25	0,832
648,45	0,426
648,65	0,596
648,84	-0,046
649,04	0,617
649,24	0,786
649,43	0,488
649,63	0,357
649,83	0,188
650,03	0,668
650,22	0,502
650,42	0,579
650,62	0,712
650,81	0,499
651,01	0,559
651,21	0,452
651,40	0,331
651,60	0,243
651,80	0,767
652,00	0,439
652,19	0,385
652,39	0,488
652,59	0,840
652,78	0,575
652,98	-0,033
653,18	0,443
653,37	0,501
653,57	0,859
653,77	0,627
653,96	0,093
654,16	0,698
654,36	0,339
654,55	0,110
654,75	0,552
654,95	0,451
655,14	0,086
655,34	0,743
655,54	0,559
655,73	0,000
655,93	0,384
656,13	0,443
656,32	0,159
656,52	0,309
656,72	0,478
656,91	0,600
657,11	0,483
657,31	0,278
657,50	0,621
657,70	0,512
657,90	0,478
658,09	0,712
658,29	0,614
658,49	0,445
658,68	0,678
658,88	0,671
659,07	0,732
659,27	0,218
659,47	0,644
659,66	0,221
659,86	0,253
660,06	0,104
660,25	0,256
660,45	0,417
660,64	0,457
660,84	0,819
661,04	0,648
661,23	0,455
661,43	0,378
661,63	0,043
661,82	0,139
662,02	0,738
662,21	0,488
662,41	0,595
662,61	0,999
662,80	0,176
663,00	0,182
663,19	0,437
663,39	0,337
663,59	0,784
663,78	0,455
663,98	0,359
664,17	0,486
664,37	0,233
664,57	0,386
664,76	0,425
664,96	0,290
665,15	0,434
665,35	0,398
665,55	0,077
665,74	0,472
665,94	0,861
666,13	0,216
666,33	0,624
666,53	0,693
666,72	0,236
666,92	0,651
667,11	0,599
667,31	0,322
667,50	0,497
667,70	0,427
667,90	0,360
668,09	0,148
668,29	0,360
668,48	0,374
668,68	0,552
668,87	0,604
669,07	-0,144
669,26	0,256
669,46	0,657
669,66	0,507
669,85	0,560
670,05	0,529
670,24	0,240
670,44	0,559
670,63	0,335
670,83	0,593
671,02	0,274
671,22	0,457
671,42	0,378
671,61	0,589
671,81	0,185
672,00	0,515
672,20	0,304
672,39	0,623
672,59	0,150
672,78	0,173
672,98	0,429
673,17	0,245
673,37	0,007
673,56	0,443
673,76	0,233
673,95	0,233
674,15	0,354
674,34	0,214
674,54	0,827
674,73	0,391
674,93	0,369
675,13	0,425
675,32	0,392
675,52	0,315
675,71	0,425
675,91	0,313
676,10	0,384
676,30	0,439
676,49	-0,034
676,69	0,421
676,88	0,422
677,08	0,321
677,27	-0,091
677,47	0,527
677,66	0,375
677,86	0,576
678,05	0,083
678,24	0,242
678,44	0,481
678,63	0,268
678,83	0,223
679,02	0,307
679,22	0,352
679,41	0,434
679,61	0,200
679,80	0,450
680,00	0,219
680,19	0,468
680,39	0,267
680,58	0,227
680,78	0,327
680,97	0,342
681,17	0,555
681,36	0,238
681,56	0,225
681,75	0,240
681,94	0,270
682,14	0,646
682,33	0,287
682,53	0,130
682,72	0,430
682,92	0,544
683,11	-0,021
683,31	0,315
683,50	0,350
683,69	0,288
683,89	0,226
684,08	0,370
684,28	0,357
684,47	0,291
684,67	0,144
684,86	0,252
685,06	0,232
685,25	0,299
685,44	0,242
685,64	0,517
685,83	0,418
686,03	0,127
686,22	0,381
686,42	0,393
686,61	0,250
686,80	0,109
687,00	0,397
687,19	0,315
687,39	0,213
687,58	0,291
687,77	0,426
687,97	0,478
688,16	0,422
688,36	0,291
688,55	0,260
688,74	0,174
688,94	0,423
689,13	0,277
689,33	0,250
689,52	0,499
689,71	0,439
689,91	0,497
690,10	0,550
690,30	0,402
690,49	0,477
690,68	0,667
690,88	0,503
691,07	0,642
691,27	0,686
691,46	0,639
691,65	0,806
691,85	0,774
692,04	0,697
692,23	0,910
692,43	1,093
692,62	1,098
692,82	1,242
693,01	1,162
693,20	1,141
693,40	1,085
693,59	1,164
693,78	1,224
693,98	1,159
694,17	1,239
694,36	1,502
694,56	1,441
694,75	1,484
694,94	1,315
695,14	1,551
695,33	1,442
695,53	1,579
695,72	1,467
695,91	1,258
696,11	1,327
696,30	1,418
696,49	1,551
696,69	1,310
696,88	1,148
697,07	1,123
697,27	1,292
697,46	1,402
697,65	1,306
697,85	0,972
698,04	0,986
698,23	0,870
698,43	1,129
698,62	0,753
698,81	1,078
699,01	1,142
699,20	0,582
699,39	0,988
699,58	0,946
699,78	0,658
699,97	0,731
700,16	0,759
700,36	0,843
700,55	0,811
700,74	0,902
700,94	0,530
701,13	0,720
701,32	0,369
701,52	0,697
701,71	0,768
701,90	0,673
702,09	0,900
702,29	1,356
702,48	0,660
702,67	0,440
702,87	0,874
703,06	0,689
703,25	1,143
703,44	0,443
703,64	1,092
703,83	0,630
704,02	0,994
704,22	0,561
704,41	0,697
704,60	0,857
704,79	0,737
704,99	0,496
705,18	0,796
705,37	0,741
705,56	1,376
705,76	1,572
705,95	1,627
706,14	0,871
706,33	0,493
706,53	0,912
706,72	0,691
706,91	0,694
707,11	0,430
707,30	0,314
707,49	1,004
707,68	1,273
707,88	1,844
708,07	1,121
708,26	1,367
708,45	0,363
708,64	2,389
708,84	0,647
709,03	1,217
709,22	0,084
709,41	1,761
709,61	1,450
709,80	2,640
709,99	1,713
710,18	2,313
710,38	0,377
710,57	0,286
710,76	0,754
710,95	3,685
711,14	2,450
711,34	1,961
711,53	2,695
711,72	2,748
711,91	2,841
712,11	3,069
712,30	0,731
712,49	0,766
712,68	1,148
712,87	1,755
713,07	2,931
713,26	3,249
713,45	0,999
713,64	2,313
713,83	1,451
714,03	1,119
714,22	2,172
714,41	2,700
714,60	2,753
714,79	1,728
714,99	1,990
715,18	3,563
715,37	3,966
715,56	2,446
715,75	3,452
715,94	5,069
716,14	7,276
716,33	4,787
716,52	3,040
716,71	3,666
716,90	1,554
717,10	1,058
717,29	1,745
717,48	1,613
717,67	4,005
717,86	2,480
718,05	2,518
718,24	2,021
718,44	2,679
718,63	3,224
718,82	3,685
719,01	2,615
719,20	5,587
719,39	3,529
719,59	-0,911
719,78	3,540
719,97	5,288
720,16	3,495
720,35	2,271
720,54	2,306
720,73	2,321
720,93	0,795
721,12	1,221
721,31	-1,385
721,50	8,582
721,69	3,792
721,88	5,069
722,07	0,825
722,27	5,933
722,46	3,673
722,65	2,145
722,84	1,694
723,03	4,857
723,22	2,659
723,41	2,326
723,60	3,107
723,79	5,363
723,99	7,041
724,18	6,509
724,37	-0,908
724,56	4,259
724,75	2,435
724,94	7,686
725,13	2,232
725,32	5,851
725,51	3,163
725,71	5,058
725,90	7,278
726,09	2,557
726,28	3,337
726,47	2,860
726,66	6,408
726,85	3,318
727,04	-1,835
727,23	6,781
727,42	5,767
727,61	4,733
727,81	-1,081
728,00	5,094
728,19	8,451
728,38	2,293
728,57	4,063
728,76	7,082
728,95	11,979
729,14	3,030
729,33	11,075
729,52	0,000
729,71	8,351
729,90	6,044
730,09	5,621
730,28	5,857
730,48	9,255
730,67	4,129
730,86	8,511
731,05	2,217
731,24	0,610
731,43	6,504
731,62	3,780
731,81	2,384
732,00	9,461
732,19	1,562
732,38	7,564
732,57	4,890
732,76	5,882
732,95	2,059
733,14	-0,861
733,33	-4,630
733,52	4,775
733,71	5,022
733,90	1,836
734,09	5,000
734,28	2,887
734,47	5,972
734,66	5,214
734,85	7,000
735,04	5,991
735,23	7,703
735,42	5,191
735,61	5,394
735,81	5,917
736,00	4,274
736,19	0,000
736,38	7,934
736,57	11,660
736,76	6,277
736,95	6,529
737,14	12,759
737,33	11,033
737,52	5,385
737,71	5,738
737,90	6,337
738,09	10,350
738,28	9,417
738,47	0,912
738,66	5,769
738,85	8,859
739,04	6,690
739,22	6,689
739,41	4,596
739,60	-1,365
739,79	-0,719
739,98	5,197
740,17	11,604
740,36	7,595
740,55	11,306
740,74	15,266
740,93	6,501
741,12	5,357
741,31	13,556
741,50	8,885
741,69	14,513
741,88	8,498
742,07	15,217
742,26	10,095
742,45	11,066
742,64	2,377
742,83	12,743
743,02	3,789
743,21	12,996
743,40	1,863
743,59	10,110
743,78	5,675
743,97	8,846
744,16	6,299
744,34	1,166
744,53	4,948
744,72	8,559
744,91	7,353
745,10	11,950
745,29	13,306
745,48	6,364
745,67	8,428
745,86	11,700
746,05	15,403
746,24	6,186
746,43	6,210
746,62	20,474
746,81	7,191
747,00	19,912
747,18	14,597
747,37	13,053
747,56	12,706
747,75	-9,606
747,94	18,204
748,13	7,606
748,32	7,381
748,51	17,766
748,70	5,727
748,89	14,988
749,08	-9,302
749,26	12,335
749,45	-0,804
749,64	-0,756
749,83	24,494
750,02	16,848
750,21	2,799
750,40	20,648
750,59	16,622
750,78	15,711
750,96	17,956
751,15	12,383
751,34	1,420
751,53	6,557
751,72	6,479
751,91	12,435
752,10	11,518
752,29	8,267
752,47	0,000
752,66	7,302
752,85	13,661
753,04	14,804
753,23	15,789
753,42	19,407
753,61	11,912
753,80	1,718
753,98	11,616
754,17	6,079
754,36	5,161
754,55	17,169
754,74	10,065
754,93	19,559
755,12	14,243
755,30	17,208
755,49	11,919
755,68	20,245
755,87	15,976
756,06	9,028
756,25	18,237
756,43	0,336
756,62	4,969
756,81	10,265
757,00	8,553
757,19	4,861
757,38	12,355
757,56	7,200
757,75	24,573
757,94	1,521
758,13	15,753
758,32	10,386
758,51	3,367
758,69	-2,317
758,88	16,498
759,07	15,569
759,26	9,894
759,45	20,000
759,63	26,407
759,82	21,754
760,01	16,484
760,20	31,447
760,39	30,284
760,57	13,937
760,76	21,951
760,95	27,431
761,14	23,358
761,33	13,871
761,51	18,929
761,70	23,420
761,89	9,333
762,08	24,535
762,27	19,134
762,45	23,913
762,64	24,121
762,83	41,434
763,02	19,130
763,21	-5,000
763,39	11,888
763,58	23,420
763,77	13,924
763,96	19,920
764,14	7,500
764,33	13,333
764,52	29,911
764,71	28,197
764,89	42,857
765,08	8,867
765,27	22,553
765,46	17,937
765,65	25,490
765,83	28,959
766,02	4,762
766,21	25,683
766,40	15,175
766,58	3,704
766,77	16,055
766,96	7,724
767,15	21,429
767,33	29,469
767,52	29,258
767,71	21,053
767,90	22,613
768,08	27,545
768,27	20,325
768,46	44,298
768,64	14,352
768,83	18,627
769,02	5,419
769,21	30,208
769,39	15,000
769,58	20,779
769,77	34,574
769,96	24,775
770,14	18,033
770,33	10,280
770,52	29,496
770,70	30,270
770,89	37,838
771,08	13,253
771,27	23,684
771,45	35,294
771,64	43,636
771,83	44,608
772,01	51,546
772,20	20,398
772,39	17,722
772,57	31,841
772,76	28,378
772,95	20,690
773,14	47,619
773,32	37,288
773,51	23,810
773,70	37,410
773,88	50,968
774,07	28,426
774,26	2,419
774,44	46,617
774,63	34,731
774,82	16,883
775,00	27,103
775,19	21,429
775,38	38,298
775,56	40,994
775,75	50,000
775,94	12,500
776,12	34,641
776,31	0,000
776,50	15,753
776,68	49,462
776,87	40,191
777,06	45,912
777,24	16,807
777,43	53,476
777,62	51,685
777,80	37,107
777,99	27,500
778,18	51,149
778,36	37,288
778,55	5,085
778,74	35,938
778,92	45,679
779,11	50,909
779,29	4,255
779,48	44,681
779,67	67,568
779,85	-2,632
780,04	50,000
780,23	22,024
780,41	58,475
780,60	58,389
780,79	42,742
780,97	42,484
781,16	20,745
781,34	47,297
781,53	30,357
781,72	65,766
781,90	37,725
782,09	29,070
782,28	59,864
782,46	27,143
782,65	62,676
782,83	17,610
783,02	64,035
783,21	57,895
783,39	48,739
783,58	55,652
783,76	35,374
783,95	71,831
784,14	38,158
784,32	20,000
784,51	70,270
784,69	3,125
784,88	32,710
785,06	70,861
785,25	34,752
785,44	29,032
785,62	39,286
785,81	42,593
785,99	43,609
786,18	51,351
786,37	83,516
786,55	48,611
786,74	48,182
786,92	32,168
787,11	43,750
787,29	54,464
787,48	26,882
787,67	21,698
787,85	91,139
788,04	31,532
788,22	33,663
788,41	59,055
788,59	46,711
788,78	64,835
788,96	50,413
789,15	70,833
789,34	37,500
789,52	80,645
789,71	76,978
789,89	58,442
790,08	71,250
790,26	61,146
790,45	172,222
790,63	41,379
790,82	49,231
791,00	49,558
791,19	30,400
791,38	12,381
791,56	30,909
791,75	9,722
791,93	70,000
792,12	60,870
792,30	35,766
792,49	44,444
792,67	43,382
792,86	55,200
793,04	29,630
793,23	35,789
793,41	59,420
793,60	57,639
793,78	41,905
793,97	40,278
794,15	73,684
794,34	74,667
794,52	37,634
794,71	14,729
794,89	23,485
795,08	45,600
795,26	49,333
795,45	9,722
795,63	71,774
795,82	59,341
796,00	78,000
796,19	55,285
796,37	49,618
796,56	4,854
796,74	30,526
796,93	112,121
797,11	19,277
797,30	44,444
797,48	42,969
797,67	36,585
797,85	71,538
798,04	28,814
798,22	107,692
798,41	44,231
798,59	61,905
798,77	3,614
798,96	51,852
799,14	64,516
799,33	38,532
799,51	77,778
799,70	40,769
799,88	58,716
800,07	55,725
800,25	62,651
800,44	77,778
800,62	81,944
800,80	33,803
800,99	142,466
801,17	72,414
801,36	77,143
801,54	22,000
801,73	23,158
801,91	66,116
802,10	54,118
802,28	44,000
802,46	11,842
802,65	34,532
802,83	122,667
803,02	64,516
803,20	104,819
803,39	85,057
803,57	32,283
803,75	69,919
803,94	49,206
804,12	55,172
804,31	37,681
804,49	28,800
804,67	44,118
804,86	45,133
805,04	27,711
805,23	61,947
805,41	40,833
805,59	68,493
805,78	97,600
805,96	34,940
806,15	58,416
806,33	28,947
806,51	84,000
806,70	67,669
806,88	96,512
807,07	44,144
807,25	61,538
807,43	71,429
807,62	86,726
807,80	37,143
807,99	66,923
808,17	25,984
808,35	74,000
808,54	22,464
808,72	65,766
808,90	56,164
809,09	28,261
809,27	96,000
809,46	76,923
809,64	30,488
809,82	44,371
810,01	41,406
810,19	72,727
810,37	50,781
810,56	101,111
810,74	53,247
810,92	50,000
811,11	-11,404
811,29	80,189
811,48	56,923
811,66	23,596
811,84	67,033
812,03	59,016
812,21	41,228
812,39	40,000
812,58	89,474
812,76	60,432
812,94	19,277
813,13	72,340
813,31	84,000
813,49	46,296
813,68	48,182
813,86	19,101
814,04	64,463
814,23	51,807
814,41	5,618
814,59	52,427
814,78	19,118
814,96	14,465
815,14	58,879
815,33	44,961
815,51	69,291
815,69	42,857
815,87	29,703
816,06	64,348
816,24	54,658
816,42	39,706
816,61	68,553
816,79	57,759
816,97	79,545
817,16	30,178
817,34	73,810
817,52	57,025
817,70	18,812
817,89	27,407
818,07	42,466
818,25	65,306
818,44	103,846
818,62	43,411
818,80	22,556
818,98	47,134
819,17	66,387
819,35	47,872
819,53	55,224
819,72	18,987
819,90	46,512
820,08	26,496
820,26	35,345
820,45	24,832
820,63	79,464
820,81	52,800
820,99	44,681
821,18	24,490
821,36	46,203
821,54	82,069
821,73	49,444
821,91	52,632
822,09	43,548
822,27	57,419
822,46	35,294
822,64	30,400
822,82	41,989
823,00	24,862
823,19	56,593
823,37	50,303
823,55	30,114
823,73	57,241
823,91	69,565
824,10	48,387
824,28	54,774
824,46	21,359
824,64	48,684
824,83	43,478
825,01	18,000
825,19	25,806
825,37	47,826
825,56	60,377
825,74	53,571
825,92	35,032
826,10	35,795
826,28	16,667
826,47	47,368
826,65	67,376
826,83	9,483
827,01	39,306
827,19	30,952
827,38	38,272
827,56	55,682
827,74	41,899
827,92	42,442
828,10	39,744
828,29	43,787
828,47	55,285
828,65	31,538
828,83	8,485
829,01	45,652
829,20	41,758
829,38	49,432
829,56	42,391
829,74	32,704
829,92	27,381
830,10	22,989
830,29	17,588
830,47	41,206
830,65	30,488
830,83	27,679
831,01	22,024
831,20	66,019
831,38	39,713
831,56	50,698
831,74	48,815
831,92	51,974
832,10	12,381
832,29	37,162
832,47	16,292
832,65	43,627
832,83	28,169
833,01	29,500
833,19	28,507
833,37	43,439
833,56	16,878
833,74	44,608
833,92	31,481
834,10	27,801
834,28	56,540
834,46	42,986
834,64	33,796
834,83	33,182
835,01	39,419
835,19	32,800
835,37	27,686
835,55	15,625
835,73	30,542
835,91	40,590
836,09	24,715
836,28	32,841
836,46	21,600
836,64	36,842
836,82	19,005
837,00	51,812
837,18	26,766
837,36	32,271
837,54	24,545
837,72	27,586
837,91	16,791
838,09	25,100
838,27	36,333
838,45	11,702
838,63	22,426
838,81	13,924
838,99	16,129
839,17	29,054
839,35	30,851
839,53	17,193
839,72	18,045
839,90	39,175
840,08	31,692
840,26	18,254
840,44	30,816
840,62	16,207
840,80	38,776
840,98	32,941
841,16	26,616
841,34	23,746
841,52	19,266
841,70	32,615
841,89	30,242
842,07	18,809
842,25	22,414
842,43	26,293
842,61	32,632
842,79	24,294
842,97	11,401
843,15	30,693
843,33	15,457
843,51	15,964
843,69	23,077
843,87	20,149
844,05	15,502
844,23	24,024
844,41	10,345
844,59	21,614
844,77	20,168
844,95	20,520
845,13	29,538
845,31	24,128
845,50	21,990
845,68	18,328
845,86	14,368
846,04	32,961
846,22	15,259
846,40	13,710
846,58	11,681
846,76	12,903
846,94	22,444
847,12	24,352
847,30	15,722
847,48	10,836
847,66	29,310
847,84	7,377
848,02	18,116
848,20	19,121
848,38	10,541
848,56	26,420
848,74	19,809
848,92	1,746
849,10	12,500
849,28	20,648
849,46	24,000
849,64	29,099
849,82	8,951
850,00	17,991
850,18	20,213
850,36	13,245
850,54	18,296
850,72	20,823
850,90	20,435
851,08	18,162
851,26	18,600
851,44	12,168
851,62	15,116
851,80	15,859
851,98	16,923
852,16	13,948
852,34	12,990
852,52	10,938
852,70	9,112
852,87	20,091
853,05	16,374
853,23	13,402
853,41	25,397
853,59	18,880
853,77	16,468
853,95	23,207
854,13	20,133
854,31	25,667
854,49	20,160
854,67	17,711
854,85	17,805
855,03	25,251
855,21	25,684
855,39	13,883
855,57	19,713
855,75	19,526
855,93	22,745
856,11	28,240
856,28	18,081
856,46	24,911
856,64	26,667
856,82	22,165
857,00	20,081
857,18	23,827
857,36	25,632
857,54	28,201
857,72	20,877
857,90	25,830
858,08	29,608
858,26	34,161
858,44	29,435
858,61	27,352
858,79	35,467
858,97	33,097
859,15	30,186
859,33	32,344
859,51	34,673
859,69	28,444
859,87	26,524
860,05	25,400
860,23	33,766
860,40	33,096
860,58	35,574
860,76	30,317
860,94	33,171
861,12	36,462
861,30	31,711
861,48	35,857
861,66	37,778
861,84	37,220
862,01	40,943
862,19	31,864
862,37	37,821
862,55	34,294
862,73	30,186
862,91	40,969
863,09	41,815
863,27	31,034
863,44	31,594
863,62	33,832
863,80	31,786
863,98	38,279
864,16	37,861
864,34	46,110
864,52	38,070
864,69	45,614
864,87	34,009
865,05	38,231
865,23	36,078
865,41	42,876
865,59	41,184
865,76	40,880
865,94	41,860
866,12	45,419
866,30	39,691
866,48	41,493
866,66	37,097
866,83	42,112
867,01	42,839
867,19	46,164
867,37	38,034
867,55	41,099
867,73	46,274
867,90	38,204
868,08	39,903
868,26	40,564
868,44	38,218
868,62	46,806
868,79	38,603
868,97	44,207
869,15	36,891
869,33	44,200
869,51	41,928
869,69	41,951
869,86	46,901
870,04	43,563
870,22	38,356
870,40	46,667
870,57	41,984
870,75	38,895
870,93	43,158
871,11	43,939
871,29	39,612
871,46	36,093
871,64	38,285
871,82	38,859
872,00	43,724
872,18	38,608
872,35	43,913
872,53	39,803
872,71	36,122
872,89	42,994
873,06	36,760
873,24	38,409
873,42	35,714
873,60	33,404
873,77	35,685
873,95	32,989
874,13	38,689
874,31	34,365
874,49	30,881
874,66	32,707
874,84	33,801
875,02	35,105
875,20	34,680
875,37	33,006
875,55	32,347
875,73	29,808
875,91	31,599
876,08	26,691
876,26	28,004
876,44	26,151
876,61	27,961
876,79	33,946
876,97	27,646
877,15	29,427
877,32	25,746
877,50	24,586
877,68	25,964
877,86	22,090
878,03	28,536
878,21	27,158
878,39	27,105
878,56	22,975
878,74	23,624
878,92	22,599
879,10	22,598
879,27	24,210
879,45	23,648
879,63	24,922
879,80	20,584
879,98	19,187
880,16	19,068
880,34	24,982
880,51	15,773
880,69	18,973
880,87	18,484
881,04	17,004
881,22	20,246
881,40	19,314
881,57	18,820
881,75	18,837
881,93	21,871
882,10	20,028
882,28	21,655
882,46	20,890
882,63	18,820
882,81	22,433
882,99	22,490
883,16	19,777
883,34	21,658
883,52	24,480
883,69	22,868
883,87	19,141
884,05	20,463
884,22	22,505
884,40	20,780
884,58	21,921
884,75	23,678
884,93	20,803
885,11	26,865
885,28	23,331
885,46	21,156
885,64	23,237
885,81	24,087
885,99	24,845
886,17	23,981
886,34	23,244
886,52	24,417
886,70	26,423
886,87	22,132
887,05	24,523
887,22	23,132
887,40	25,824
887,58	22,982
887,75	25,140
887,93	23,982
888,11	26,255
888,28	24,841
888,46	24,842
888,63	23,195
888,81	24,492
888,99	23,283
889,16	24,785
889,34	19,334
889,51	22,311
889,69	22,177
889,87	22,913
890,04	21,970
890,22	21,258
890,39	19,801
890,57	20,754
890,75	20,804
890,92	20,201
891,10	18,668
891,27	19,054
891,45	18,216
891,63	21,597
891,80	18,144
891,98	19,724
892,15	16,674
892,33	16,290
892,51	18,318
892,68	17,255
892,86	15,367
893,03	15,515
893,21	17,535
893,38	14,882
893,56	15,701
893,74	16,157
893,91	15,309
894,09	15,262
894,26	14,588
894,44	12,413
894,61	13,101
894,79	12,187
894,96	13,055
895,14	12,754
895,32	12,230
895,49	10,737
895,67	10,769
895,84	9,310
896,02	10,095
896,19	10,093
896,37	9,397
896,54	10,021
896,72	9,334
896,89	7,926
897,07	9,578
897,25	8,028
897,42	8,032
897,60	10,172
897,77	8,930
897,95	6,378
898,12	8,470
898,30	6,664
898,47	5,939
898,65	5,129
898,82	6,216
899,00	6,331
899,17	5,713
899,35	5,713
899,52	6,647
899,70	5,227
899,87	5,384
900,05	5,061
900,22	5,943
900,40	4,841
900,57	5,269
900,75	4,146
900,92	5,376
901,10	5,322
901,27	3,886
901,45	7,069
901,62	5,732
901,80	4,440
901,97	4,712
902,15	5,452
902,32	5,605
902,50	4,162
902,67	7,386
902,85	4,563
903,02	5,673
903,20	5,815
903,37	3,843
903,54	5,101
903,72	6,973
903,89	5,653
904,07	5,348
904,24	5,832
904,42	4,824
904,59	4,536
904,77	4,988
904,94	5,822
905,12	4,713
905,29	4,847
905,47	5,298
905,64	5,860
905,81	6,054
905,99	5,425
906,16	5,862
906,34	6,881
906,51	5,596
906,69	7,246
906,86	5,293
907,03	5,718
907,21	4,482
907,38	5,616
907,56	6,770
907,73	6,520
907,91	5,251
908,08	6,586
908,25	7,198
908,43	5,101
908,60	5,178
908,78	5,607
908,95	6,619
909,13	7,568
909,30	7,621
909,47	6,395
909,65	6,988
909,82	5,966
910,00	5,760
910,17	6,072
910,34	6,498
910,52	6,104
910,69	4,921
910,87	7,456
911,04	4,997
911,21	6,572
911,39	5,502
911,56	6,943
911,73	6,160
911,91	6,789
912,08	6,700
912,26	4,742
912,43	4,972
912,60	4,600
912,78	4,962
912,95	5,759
913,13	5,110
913,30	5,635
913,47	4,749
913,65	5,377
913,82	5,474
913,99	5,615
914,17	4,948
914,34	3,962
914,51	5,230
914,69	4,247
914,86	6,933
915,03	4,983
915,21	3,215
915,38	4,163
915,56	4,501
915,73	3,781
915,90	3,009
916,08	4,837
916,25	4,267
916,42	4,311
916,60	4,030
916,77	4,357
916,94	3,671
917,12	4,223
917,29	4,053
917,46	3,597
917,64	3,310
917,81	3,614
917,98	2,183
918,16	3,077
918,33	3,521
918,50	2,932
918,67	3,941
918,85	2,582
919,02	2,538
919,19	2,528
919,37	2,488
919,54	2,553
919,71	3,791
919,89	1,693
920,06	3,074
920,23	2,686
920,41	2,269
920,58	2,547
920,75	2,348
920,92	2,333
921,10	1,052
921,27	1,775
921,44	2,781
921,62	2,254
921,79	1,762
921,96	1,619
922,13	1,451
922,31	1,216
922,48	2,405
922,65	2,164
922,82	1,578
923,00	2,342
923,17	1,051
923,34	1,642
923,52	0,913
923,69	1,664
923,86	3,030
924,03	2,524
924,21	1,866
924,38	1,873
924,55	2,010
924,72	1,370
924,90	1,561
925,07	1,773
925,24	0,684
925,41	2,659
925,59	1,028
925,76	0,439
925,93	2,067
926,10	1,610
926,28	1,316
926,45	0,930
926,62	1,758
926,79	2,004
926,96	2,274
927,14	2,752
927,31	1,810
927,48	1,192
927,65	1,514
927,83	1,853
928,00	1,701
928,17	1,803
928,34	1,952
928,51	1,162
928,69	1,987
928,86	1,464
929,03	1,801
929,20	0,882
929,37	1,000
929,55	1,792
929,72	1,269
929,89	1,215
930,06	1,899
930,23	2,421
930,41	0,978
930,58	2,609
930,75	1,556
930,92	1,809
931,09	1,679
931,27	1,444
931,44	1,514
931,61	1,896
931,78	1,786
931,95	0,898
932,12	2,305
932,30	1,810
932,47	0,701
932,64	1,786
932,81	1,298
932,98	1,572
933,16	2,257
933,33	1,803
933,50	1,120
933,67	2,122
933,84	1,944
934,01	1,530
934,18	1,888
934,36	1,661
934,53	2,133
934,70	1,730
934,87	1,255
935,04	2,114
935,21	1,361
935,38	1,463
935,56	2,712
935,73	2,255
935,90	2,519
936,07	2,473
936,24	2,763
936,41	2,642
936,58	2,570
936,76	3,006
936,93	2,382
937,10	3,933
937,27	3,945
937,44	3,645
937,61	3,838
937,78	3,993
937,95	3,764
938,13	3,672
938,30	5,090
938,47	4,634
938,64	5,981
938,81	5,088
938,98	5,784
939,15	5,490
939,32	6,615
939,49	6,570
939,66	7,376
939,84	6,785
940,01	8,024
940,18	7,915
940,35	8,671
940,52	8,404
940,69	8,195
940,86	8,892
941,03	9,068
941,20	9,581
941,37	8,206
941,54	10,141
941,71	10,293
941,89	9,660
942,06	9,432
942,23	10,626
942,40	9,556
942,57	10,683
942,74	9,843
942,91	11,285
943,08	10,852
943,25	11,074
943,42	10,104
943,59	11,998
943,76	11,887
943,93	9,350
944,10	8,978
944,27	8,891
944,44	10,553
944,61	11,063
944,79	11,866
944,96	10,290
945,13	8,948
945,30	10,667
945,47	11,149
945,64	10,240
945,81	11,187
945,98	10,772
946,15	10,610
946,32	11,490
946,49	10,451
946,66	11,547
946,83	9,620
947,00	10,338
947,17	9,647
947,34	10,589
947,51	11,177
947,68	11,824
947,85	9,424
948,02	10,551
948,19	11,855
948,36	12,154
948,53	8,617
948,70	8,728
948,87	11,331
949,04	11,820
949,21	10,137
949,38	10,327
949,55	11,367
949,72	9,665
949,89	10,841
950,06	11,000
950,23	10,932
950,40	9,529
950,57	9,881
950,74	9,417
950,91	9,281
951,08	10,526
951,25	8,939
951,42	10,550
951,59	9,005
951,76	8,078
951,93	7,659
952,10	7,779
952,27	10,182
952,44	9,598
952,61	8,780
952,77	8,119
952,94	6,946
953,11	8,349
953,28	10,114
953,45	8,481
953,62	6,835
953,79	7,852
953,96	9,191
954,13	8,606
954,30	11,164
954,47	8,866
954,64	6,518
954,81	7,839
954,98	6,685
955,15	5,320
955,32	7,023
955,49	6,418
955,65	7,348
955,82	6,814
955,99	7,469
956,16	10,061
956,33	4,785
956,50	8,186
956,67	7,625
956,84	10,318
957,01	8,806
957,18	9,278
957,35	5,693
957,52	8,043
957,68	7,096
957,85	9,540
958,02	9,658
958,19	7,404
958,36	13,518
958,53	9,632
958,70	10,977
958,87	7,285
959,04	13,701
959,21	13,087
959,37	14,547
959,54	9,948
959,71	17,196
959,88	10,581
960,05	13,620
960,22	10,440
960,39	11,809
960,56	12,532
960,72	12,050
960,89	17,852
961,06	13,573
961,23	11,468
961,40	11,013
961,57	15,495
961,74	15,515
961,90	16,110
962,07	17,788
962,24	17,817
962,41	22,069
962,58	19,565
962,75	22,051
962,92	20,175
963,08	17,708
963,25	15,339
963,42	28,514
963,59	26,694
963,76	29,423
963,93	23,422
964,10	19,683
964,26	29,286
964,43	23,023
964,60	26,914
964,77	28,859
964,94	18,519
965,10	16,713
965,27	19,274
965,44	17,778
965,61	29,110
965,78	26,708
965,95	36,070
966,11	32,727
966,28	36,034
966,45	40,523
966,62	4,530
966,79	23,549
966,95	32,028
967,12	30,794
967,29	32,099
967,46	49,466
967,63	50,980
967,79	57,718
967,96	36,697
968,13	34,286
968,30	48,971
968,47	45,000
968,63	33,824
968,80	38,697
968,97	33,526
969,14	53,107
969,31	43,878
969,47	55,435
969,64	29,121
969,81	43,871
969,98	41,053
970,14	30,645
970,31	32,704
970,48	65,772
970,65	42,975
970,81	16,084
970,98	61,979
971,15	49,697
971,32	83,333
971,48	67,857
971,65	43,709
971,82	50,000
971,99	62,658
972,15	20,930
972,32	52,778
972,49	48,361
972,66	44,628
972,82	32,192
972,99	27,500
973,16	78,808
973,33	51,852
973,49	47,561
973,66	50,476
973,83	92,593
974,00	79,747
974,16	149,091
974,33	136,000
974,50	55,556
974,67	64,286
974,83	42,857
975,00	154,545
975,17	61,290
975,33	75,862
975,50	119,672
975,67	155,769
975,84	47,561
976,00	86,842
976,17	93,478
976,34	69,412
976,50	71,429
976,67	84,524
976,84	145,833
977,00	108,974
977,17	124,444
977,34	159,615
977,50	107,143
977,67	78,824
977,84	147,458
978,01	93,243
978,17	89,655
978,34	251,852
978,51	252,000
978,67	81,633
978,84	23,636
979,01	157,895
979,17	32,857
979,34	173,913
979,51	97,727
979,67	287,500
979,84	142,373
980,01	136,538
980,17	123,529
980,34	94,521
980,51	700,000
980,67	48,889
980,84	94,286
981,01	200,000
981,17	144,118
981,34	80,000
981,50	103,158
981,67	169,048
981,84	121,429
982,00	7100,000
982,17	135,938
982,34	275,610
982,50	0,000
982,67	-828,571
982,84	280,000
983,00	85,185
983,17	-500,000
983,33	788,889
983,50	160,976
983,67	111,594
983,83	361,905
984,00	126,087
984,17	633,333
984,33	-307,143
984,50	167,568
984,66	250,000
984,83	487,500
985,00	38,462
985,16	67,742
985,33	4250,000
985,49	111,628
985,66	147,500
985,83	-2033,333
985,99	144,444
986,16	447,368
986,32	57,534
986,49	-980,000
986,66	680,000
986,82	206,061
986,99	-620,000
987,15	260,606
987,32	305,882
987,49	103,571
987,65	-339,130
987,82	-30,000
987,98	125,758
988,15	471,429
988,31	122,857
988,48	152,941
988,65	530,000
988,81	100,000
988,98	324,324
989,14	190,000
989,31	79,661
989,47	14,286
989,64	250,000
989,80	107,447
989,97	141,818
990,14	514,286
990,30	-487,500
990,47	-16,667
990,63	163,158
990,80	1066,667
990,96	808,333
991,13	126,667
991,29	182,353
991,46	152,083
991,62	0,000
991,79	-810,000
991,95	229,412
992,12	1566,667
992,29	-57,143
992,45	183,333
992,62	-100,000
992,78	-300,000
992,95	332,258
993,11	850,000
993,28	-6200,000
993,44	-175,862
993,61	85,965
993,77	0,000
993,94	343,590
994,10	1614,286
994,27	-150,000
994,43	268,750
994,60	828,571
994,76	127,273
994,93	-630,000
995,09	-562,500
995,26	341,667
995,42	575,000
995,59	213,333
995,75	-333,333
995,92	-1200,000
996,08	-2080,000
996,25	269,697
996,41	2000,000
996,58	392,000
996,74	-500,000
996,91	112,903
997,07	300,000
997,23	209,804
997,40	1000,000
997,56	-1566,667
997,73	443,478
997,89	1280,000
998,06	114,035
998,22	80,851
998,39	202,041
998,55	489,474
998,72	-2500,000
998,88	100,000
999,05	513,333
999,21	523,529
999,37	302,326
999,54	293,548
999,70	319,048
999,87	400,000
1000,03	306,667
1000,20	307,143
1000,36	-1037,500
1000,52	3450,000
1000,69	384,000
1000,85	-366,667
1001,02	442,857
1001,18	980,000
1001,35	0,000
1001,51	414,286
1001,67	460,000
1001,84	139,024
1002,00	-636,364
1002,17	750,000
1002,33	-650,000
1002,50	566,667
1002,66	625,000
1002,82	307,317
1002,99	-422,727
1003,15	-3400,000
1003,32	-357,143
1003,48	-2433,333
1003,64	330,435
1003,81	-147,368
1003,97	133,333
1004,14	-123,636
1004,30	409,091
1004,46	-10300,000
1004,63	-446,154
1004,79	132,432
1004,95	-720,000
1005,12	-92,308
1005,28	205,556
1005,45	-1333,333
1005,61	507,692
1005,77	-1028,571
1005,94	221,739
1006,10	50,000
1006,26	-100,000
1006,43	287,879
1006,59	303,226
1006,76	-124,000
1006,92	286,957
1007,08	159,091
1007,25	272,222
1007,41	245,455
1007,57	-217,647
1007,74	208,696
1007,90	-292,857
1008,06	-186,667
1008,23	-431,579
1008,39	277,778
1008,55	124,706
1008,72	-850,000
1008,88	-88,571
1009,04	-533,333
1009,21	156,250
1009,37	374,194
1009,53	-230,000
1009,70	-19,697
1009,86	436,842
1010,02	102,273
1010,19	666,667
1010,35	5800,000
1010,51	340,000
1010,68	254,545
1010,84	280,000
1011,00	457,143
1011,17	2700,000
1011,33	253,846
1011,49	481,250
1011,66	378,125
1011,82	-608,333
1011,98	940,000
1012,14	453,846
1012,31	315,909
1012,47	-442,857
1012,63	3800,000
1012,80	472,222
1012,96	144,444
1013,12	-207,407
1013,29	275,000
1013,45	-144,118
1013,61	-800,000
1013,77	-288,889
1013,94	337,500
1014,10	900,000
1014,26	2,941
1014,43	355,263
1014,59	0,000
1014,75	710,000
1014,91	180,000
1015,08	288,462
1015,24	473,333
1015,40	473,333
1015,56	411,765
1015,73	159,184
1015,89	288,889
1016,05	159,459
1016,21	211,111
1016,38	121,053
1016,54	-272,000
1016,70	447,368
1016,86	-400,000
1017,03	0,000
1017,19	550,000
1017,35	300,000
1017,51	1700,000
1017,68	942,857
1017,84	526,316
1018,00	280,952
1018,16	-400,000
1018,33	9,091
1018,49	285,714
1018,65	-495,455
1018,81	-21,951
1018,97	400,000
1019,14	-757,143
1019,30	290,476
1019,46	343,590
1019,62	5100,000
1019,79	-614,286
1019,95	-1300,000
1020,11	560,000
1020,27	125,000
1020,43	-1300,000
1020,60	0,000
1020,76	150,000
1020,92	3200,000
1021,08	-153,333
1021,24	-2050,000
1021,41	303,030
1021,57	-362,500
1021,73	0,000
1021,89	-336,364
1022,05	362,857
1022,21	-276,923
1022,38	394,737
1022,54	1180,000
1022,70	255,556
1022,86	-1300,000
1023,02	455,556
1023,19	-315,000
1023,35	252,830
1023,51	248,387
1023,67	105,263
1023,83	554,545
1023,99	245,714
1024,16	-55,385
1024,32	525,000
1024,48	202,041
1024,64	-220,000
1024,80	466,667
1024,96	538,462
1025,12	1600,000
1025,29	-1550,000
1025,45	112,500
1025,61	2500,000
1025,77	404,762
1025,93	-284,615
1026,09	3350,000
1026,26	-900,000
1026,42	-1000,000
1026,58	196,154
1026,74	571,429
1026,90	442,105
1027,06	-290,000
1027,22	-583,333
1027,38	922,222
1027,55	-268,000
1027,71	737,500
1027,87	77,500
1028,03	139,394
1028,19	-203,030
1028,35	105,405
1028,51	37,097
1028,67	-920,000
1028,83	95,238
1029,00	614,286
1029,16	-306,667
1029,32	458,824
1029,48	3250,000
1029,64	1085,714
1029,80	1550,000
1029,96	205,882
1030,12	150,000
1030,28	1825,000
1030,44	-3650,000
1030,61	221,875
1030,77	-300,000
1030,93	286,047
1031,09	-414,286
1031,25	-555,556
1031,41	-1500,000
1031,57	-189,474
1031,73	709,091
1031,89	-206,061
1032,05	1085,714
1032,21	460,000
1032,37	-111,765
1032,53	-160,000
1032,69	-6000,000
1032,86	1583,333
1033,02	356,250
1033,18	-738,462
1033,34	-153,846
1033,50	148,387
1033,66	-122,222
1033,82	392,857
1033,98	-452,941
1034,14	922,222
1034,30	-259,091
1034,46	345,833
1034,62	427,778
1034,78	122,222
1034,94	-54,839
1035,10	-309,091
1035,26	-1000,000
1035,42	102,857
1035,58	1060,000
1035,74	-110,000
1035,90	-233,333
1036,06	179,245
1036,22	-200,000
1036,38	626,667
1036,54	620,000
1036,70	-3750,000
1036,86	-407,143
1037,02	-2200,000
1037,18	-75,000
1037,34	308,696
1037,50	-480,000
1037,66	-3066,667
1037,82	-147,059
1037,98	490,476
1038,14	-224,138
1038,30	-13,462
1038,46	160,417
1038,62	219,355
1038,78	233,333
1038,94	-68,421
1039,10	-137,500
1039,26	-400,000
1039,42	-842,857
1039,58	115,094
1039,74	118,750
1039,90	-56,410
1040,06	317,647
>>>>>End Processed Spectral Data<<<<<
