SpectraSuite Data File
++++++++++++++++++++++++++++++++++++
Date: Thu Feb 02 17:26:56 EET 2017
User: optolab
Dark Spectrum Present: Yes
Reference Spectrum Present: Yes
Number of Sampled Component Spectra: 1
Spectrometers: USB4C02475
Integration Time (usec): 100000 (USB4C02475)
Spectra Averaged: 1 (USB4C02475)
Boxcar Smoothing: 0 (USB4C02475)
Correct for Electrical Dark: No (USB4C02475)
Strobe/Lamp Enabled: No (USB4C02475)
Correct for Detector Non-linearity: No (USB4C02475)
Correct for Stray Light: No (USB4C02475)
Number of Pixels in Processed Spectrum: 3648
>>>>>Begin Processed Spectral Data<<<<<
344,91	-1025,000
345,13	-1025,000
345,35	-1025,000
345,57	-17,647
345,79	10,870
346,00	-100,000
346,22	-1028,571
346,44	-9,091
346,66	268,085
346,87	247,826
347,09	523,077
347,31	5900,000
347,53	-625,000
347,74	-146,512
347,96	-1042,857
348,18	367,647
348,40	511,765
348,61	-164,103
348,83	6900,000
349,05	171,795
349,27	405,882
349,48	-3700,000
349,70	578,571
349,92	185,714
350,14	121,622
350,35	-323,077
350,57	-94,444
350,79	12,821
351,01	-200,000
351,22	590,000
351,44	58,333
351,66	105,556
351,87	1016,667
352,09	102,632
352,31	194,643
352,53	288,571
352,74	-457,143
352,96	115,789
353,18	40,625
353,40	-237,500
353,61	433,333
353,83	141,667
354,05	212,500
354,26	225,000
354,48	-860,000
354,70	285,714
354,92	291,667
355,13	-76,744
355,35	224,074
355,57	129,688
355,78	85,714
356,00	176,596
356,22	254,545
356,44	179,070
356,65	85,714
356,87	163,889
357,09	214,286
357,30	81,818
357,52	-1066,667
357,74	287,097
357,95	302,857
358,17	111,594
358,39	368,000
358,60	152,778
358,82	350,000
359,04	264,103
359,26	138,636
359,47	-261,538
359,69	432,143
359,91	404,000
360,12	305,000
360,34	88,889
360,56	-650,000
360,77	933,333
360,99	558,333
361,21	243,478
361,42	-1900,000
361,64	-266,667
361,86	92,537
362,07	620,000
362,29	142,500
362,51	218,919
362,72	-740,000
362,94	237,037
363,16	164,286
363,37	890,909
363,59	-4900,000
363,81	912,500
364,02	89,333
364,24	118,182
364,46	276,190
364,67	161,905
364,89	435,294
365,11	318,919
365,32	81,481
365,54	200,000
365,76	150,000
365,97	146,341
366,19	182,456
366,41	220,000
366,62	167,000
366,84	208,333
367,05	112,745
367,27	700,000
367,49	248,718
367,70	411,111
367,92	122,917
368,14	-276,923
368,35	169,118
368,57	257,576
368,79	242,308
369,00	89,744
369,22	133,333
369,43	273,684
369,65	13,793
369,87	-323,529
370,08	320,000
370,30	378,571
370,51	45,455
370,73	119,444
370,95	415,000
371,16	122,807
371,38	190,566
371,60	200,000
371,81	108,696
372,03	-675,000
372,24	-62,500
372,46	966,667
372,68	114,706
372,89	68,807
373,11	132,558
373,32	75,630
373,54	427,273
373,76	355,556
373,97	212,121
374,19	-131,579
374,40	108,571
374,62	435,294
374,84	291,667
375,05	150,000
375,27	183,784
375,48	106,173
375,70	464,706
375,92	151,786
376,13	600,000
376,35	333,333
376,56	235,000
376,78	140,816
376,99	209,091
377,21	175,000
377,43	193,939
377,64	88,000
377,86	200,000
378,07	22,727
378,29	130,556
378,51	71,429
378,72	-290,909
378,94	106,522
379,15	161,364
379,37	306,250
379,58	113,333
379,80	115,909
380,01	80,000
380,23	317,391
380,45	172,917
380,66	143,056
380,88	200,000
381,09	217,391
381,31	228,205
381,52	226,087
381,74	189,286
381,95	242,857
382,17	204,000
382,39	122,581
382,60	470,588
382,82	306,897
383,03	2266,667
383,25	106,173
383,46	375,000
383,68	125,532
383,89	295,455
384,11	115,068
384,32	186,842
384,54	-800,000
384,76	223,529
384,97	85,000
385,19	84,211
385,40	287,500
385,62	196,774
385,83	102,128
386,05	900,000
386,26	300,000
386,48	653,846
386,69	197,222
386,91	680,000
387,12	205,128
387,34	67,797
387,55	128,571
387,77	244,000
387,98	197,959
388,20	121,127
388,41	106,349
388,63	141,429
388,84	250,000
389,06	165,116
389,27	156,250
389,49	68,675
389,70	220,339
389,92	129,545
390,13	151,282
390,35	102,083
390,56	176,562
390,78	254,545
390,99	57,778
391,21	88,636
391,42	78,261
391,64	-200,000
391,85	184,483
392,07	-221,429
392,28	138,462
392,50	1100,000
392,71	1100,000
392,93	91,935
393,14	230,435
393,36	146,154
393,57	379,167
393,79	123,810
394,00	58,904
394,22	86,000
394,43	232,143
394,65	321,429
394,86	228,125
395,08	-362,500
395,29	146,809
395,50	-2900,000
395,72	842,857
395,93	296,000
396,15	-200,000
396,36	163,333
396,58	-95,238
396,79	153,488
397,01	223,810
397,22	101,449
397,44	82,979
397,65	74,324
397,87	80,000
398,08	88,462
398,29	366,667
398,51	129,268
398,72	158,696
398,94	153,488
399,15	136,667
399,37	171,739
399,58	122,222
399,80	333,333
400,01	170,588
400,22	192,857
400,44	247,619
400,65	152,055
400,87	2200,000
401,08	51,685
401,30	108,000
401,51	92,727
401,72	104,839
401,94	197,561
402,15	69,388
402,37	106,818
402,58	162,791
402,80	212,500
403,01	22,222
403,22	57,831
403,44	-25,000
403,65	55,102
403,87	109,333
404,08	198,077
404,30	209,375
404,51	118,571
404,72	1127,273
404,94	132,530
405,15	202,985
405,37	94,505
405,58	303,226
405,79	607,143
406,01	88,148
406,22	100,000
406,44	140,351
406,65	119,048
406,86	130,000
407,08	87,654
407,29	93,333
407,51	71,154
407,72	124,752
407,93	132,911
408,15	121,591
408,36	202,857
408,58	105,000
408,79	84,496
409,00	97,872
409,22	126,471
409,43	145,946
409,64	96,154
409,86	88,636
410,07	93,913
410,29	96,000
410,50	73,016
410,71	112,903
410,93	144,554
411,14	123,364
411,35	106,250
411,57	131,944
411,78	97,794
412,00	122,000
412,21	90,265
412,42	109,268
412,64	111,111
412,85	89,637
413,06	92,411
413,28	99,608
413,49	115,814
413,70	104,292
413,92	117,619
414,13	109,486
414,34	98,513
414,56	117,447
414,77	105,535
414,98	116,254
415,20	122,939
415,41	105,195
415,63	104,274
415,84	101,662
416,05	109,036
416,27	106,964
416,48	95,261
416,69	102,035
416,91	109,600
417,12	90,045
417,33	102,032
417,55	106,800
417,76	100,000
417,97	107,116
418,19	106,276
418,40	113,220
418,61	103,087
418,83	97,183
419,04	97,364
419,25	93,301
419,46	104,815
419,68	99,558
419,89	97,760
420,10	107,258
420,32	105,563
420,53	96,062
420,74	99,881
420,96	100,237
421,17	95,667
421,38	98,335
421,60	99,250
421,81	90,991
422,02	98,332
422,23	103,806
422,45	100,478
422,66	94,565
422,87	93,045
423,09	96,481
423,30	100,483
423,51	100,074
423,73	100,607
423,94	100,072
424,15	103,357
424,36	100,680
424,58	96,097
424,79	100,260
425,00	101,985
425,22	93,706
425,43	100,000
425,64	105,626
425,85	97,069
426,07	93,793
426,28	102,936
426,49	98,779
426,71	94,388
426,92	95,928
427,13	97,371
427,34	100,811
427,56	100,085
427,77	97,516
427,98	97,739
428,19	98,527
428,41	100,890
428,62	99,234
428,83	93,324
429,04	95,788
429,26	96,837
429,47	99,580
429,68	95,334
429,89	96,912
430,11	96,759
430,32	99,557
430,53	100,222
430,74	96,456
430,96	97,195
431,17	100,990
431,38	99,408
431,59	97,121
431,81	95,982
432,02	96,869
432,23	96,334
432,44	97,065
432,66	98,946
432,87	97,020
433,08	98,155
433,29	98,442
433,51	98,744
433,72	96,501
433,93	99,487
434,14	98,006
434,35	98,933
434,57	96,373
434,78	97,405
434,99	94,071
435,20	97,088
435,42	94,596
435,63	94,248
435,84	96,651
436,05	90,973
436,26	89,024
436,48	88,714
436,69	89,094
436,90	87,468
437,11	87,115
437,32	86,371
437,54	87,083
437,75	87,649
437,96	88,626
438,17	89,623
438,38	90,076
438,60	89,066
438,81	89,056
439,02	88,914
439,23	88,193
439,44	86,548
439,66	85,530
439,87	82,909
440,08	78,216
440,29	70,122
440,50	57,760
440,72	43,482
440,93	29,558
441,14	18,400
441,35	11,157
441,56	6,119
441,77	3,703
441,99	1,997
442,20	1,660
442,41	0,825
442,62	0,452
442,83	0,634
443,04	0,701
443,26	0,693
443,47	0,852
443,68	0,298
443,89	0,647
444,10	0,452
444,31	1,055
444,53	0,785
444,74	0,577
444,95	0,419
445,16	0,384
445,37	0,257
445,58	0,571
445,80	0,513
446,01	0,547
446,22	0,673
446,43	0,528
446,64	0,459
446,85	0,376
447,06	0,463
447,28	0,333
447,49	0,609
447,70	0,665
447,91	0,608
448,12	0,280
448,33	0,347
448,54	0,402
448,76	0,443
448,97	0,424
449,18	0,621
449,39	0,415
449,60	0,378
449,81	0,715
450,02	0,613
450,23	0,465
450,45	0,571
450,66	0,267
450,87	0,665
451,08	0,414
451,29	0,682
451,50	0,805
451,71	0,485
451,92	0,404
452,13	0,803
452,35	0,349
452,56	0,388
452,77	0,708
452,98	0,848
453,19	0,436
453,40	0,854
453,61	0,601
453,82	0,367
454,03	0,607
454,25	0,300
454,46	0,284
454,67	0,482
454,88	0,650
455,09	0,680
455,30	0,415
455,51	0,481
455,72	0,523
455,93	0,636
456,14	0,534
456,35	0,120
456,56	0,451
456,78	0,719
456,99	0,911
457,20	0,368
457,41	0,229
457,62	0,358
457,83	0,586
458,04	0,488
458,25	0,394
458,46	0,529
458,67	0,458
458,88	0,356
459,09	0,485
459,30	0,306
459,51	0,355
459,73	0,240
459,94	0,554
460,15	0,221
460,36	0,218
460,57	0,556
460,78	0,470
460,99	0,381
461,20	0,332
461,41	0,502
461,62	0,300
461,83	0,345
462,04	0,362
462,25	0,429
462,46	0,319
462,67	0,403
462,88	0,436
463,09	0,321
463,30	0,364
463,51	0,322
463,72	0,394
463,93	0,425
464,15	0,300
464,36	0,262
464,57	0,165
464,78	0,269
464,99	0,690
465,20	0,313
465,41	0,355
465,62	0,294
465,83	0,377
466,04	0,263
466,25	0,417
466,46	0,447
466,67	0,375
466,88	0,259
467,09	0,374
467,30	0,241
467,51	0,260
467,72	0,405
467,93	0,372
468,14	0,265
468,35	0,401
468,56	0,419
468,77	0,215
468,98	0,671
469,19	0,342
469,40	0,292
469,61	0,367
469,82	0,492
470,03	0,282
470,24	0,179
470,45	0,386
470,66	0,657
470,87	0,393
471,08	0,605
471,29	0,299
471,50	0,509
471,71	0,379
471,92	0,269
472,13	0,521
472,34	0,393
472,55	0,498
472,76	0,397
472,97	0,517
473,18	0,285
473,39	0,433
473,60	0,401
473,81	0,526
474,01	0,505
474,22	0,465
474,43	0,574
474,64	0,478
474,85	0,264
475,06	0,473
475,27	0,401
475,48	0,418
475,69	0,365
475,90	0,434
476,11	0,720
476,32	0,310
476,53	0,596
476,74	0,504
476,95	0,563
477,16	0,558
477,37	0,676
477,58	0,443
477,79	0,439
478,00	0,179
478,21	0,719
478,41	0,570
478,62	0,541
478,83	0,556
479,04	0,554
479,25	0,729
479,46	0,539
479,67	0,461
479,88	0,496
480,09	0,521
480,30	0,511
480,51	0,736
480,72	0,369
480,93	0,643
481,14	0,560
481,34	0,629
481,55	0,599
481,76	0,713
481,97	0,454
482,18	0,528
482,39	0,474
482,60	0,572
482,81	0,316
483,02	0,409
483,23	0,624
483,44	0,605
483,65	0,402
483,85	0,582
484,06	0,663
484,27	0,585
484,48	0,432
484,69	0,692
484,90	0,710
485,11	0,767
485,32	0,661
485,53	0,876
485,73	0,911
485,94	0,757
486,15	0,965
486,36	0,782
486,57	1,044
486,78	0,972
486,99	0,907
487,20	0,978
487,41	1,041
487,61	1,034
487,82	1,015
488,03	1,122
488,24	1,162
488,45	1,312
488,66	1,303
488,87	1,800
489,08	2,532
489,28	3,657
489,49	6,289
489,70	10,345
489,91	17,109
490,12	25,161
490,33	35,853
490,54	48,668
490,74	60,318
490,95	69,797
491,16	78,400
491,37	83,598
491,58	86,618
491,79	89,123
492,00	89,390
492,20	91,638
492,41	92,147
492,62	90,975
492,83	90,867
493,04	91,340
493,25	91,222
493,45	91,573
493,66	92,560
493,87	93,455
494,08	93,473
494,29	93,810
494,50	95,204
494,70	95,609
494,91	95,957
495,12	96,494
495,33	95,842
495,54	95,554
495,75	94,932
495,95	94,557
496,16	94,497
496,37	94,158
496,58	94,792
496,79	95,122
496,99	94,254
497,20	95,749
497,41	94,828
497,62	95,511
497,83	94,843
498,04	95,090
498,24	97,697
498,45	97,040
498,66	96,634
498,87	97,676
499,08	96,792
499,28	96,270
499,49	97,596
499,70	97,282
499,91	96,071
500,12	95,332
500,32	95,198
500,53	94,892
500,74	95,285
500,95	95,969
501,15	93,042
501,36	94,201
501,57	93,559
501,78	93,500
501,99	92,605
502,19	92,563
502,40	92,719
502,61	92,947
502,82	92,482
503,02	93,805
503,23	92,330
503,44	93,025
503,65	92,990
503,86	93,817
504,06	94,762
504,27	95,313
504,48	95,697
504,69	97,160
504,89	96,186
505,10	96,744
505,31	97,259
505,52	98,144
505,72	98,344
505,93	98,144
506,14	97,710
506,35	98,446
506,55	98,753
506,76	97,563
506,97	97,504
507,18	96,827
507,38	96,665
507,59	97,084
507,80	96,897
508,01	96,604
508,21	95,018
508,42	94,359
508,63	92,930
508,84	92,844
509,04	91,393
509,25	89,645
509,46	89,277
509,67	88,413
509,87	89,545
510,08	88,572
510,29	88,871
510,49	89,251
510,70	89,732
510,91	91,369
511,12	90,852
511,32	91,765
511,53	92,006
511,74	91,424
511,94	92,313
512,15	90,478
512,36	91,230
512,57	89,900
512,77	90,062
512,98	89,952
513,19	89,093
513,39	87,245
513,60	85,408
513,81	80,268
514,01	72,870
514,22	63,737
514,43	52,896
514,64	40,108
514,84	29,089
515,05	19,482
515,26	12,640
515,46	7,797
515,67	4,757
515,88	3,364
516,08	2,449
516,29	1,377
516,50	1,190
516,70	0,945
516,91	0,835
517,12	0,778
517,32	0,543
517,53	0,460
517,74	0,699
517,95	0,675
518,15	0,583
518,36	0,710
518,57	0,451
518,77	0,653
518,98	0,556
519,19	0,468
519,39	0,740
519,60	0,384
519,80	0,279
520,01	0,409
520,22	0,577
520,42	0,218
520,63	0,477
520,84	0,478
521,04	0,370
521,25	0,555
521,46	0,348
521,66	0,461
521,87	0,423
522,08	0,425
522,28	0,544
522,49	0,543
522,70	0,446
522,90	0,562
523,11	0,384
523,31	0,320
523,52	0,394
523,73	0,202
523,93	0,641
524,14	0,336
524,35	0,446
524,55	0,452
524,76	0,432
524,97	0,382
525,17	0,407
525,38	0,534
525,58	0,370
525,79	0,413
526,00	0,373
526,20	0,624
526,41	0,457
526,61	0,474
526,82	0,404
527,03	0,471
527,23	0,386
527,44	0,404
527,64	0,492
527,85	0,173
528,06	0,491
528,26	0,373
528,47	0,412
528,68	0,563
528,88	0,321
529,09	0,438
529,29	0,665
529,50	0,305
529,70	0,481
529,91	0,335
530,12	0,439
530,32	0,299
530,53	0,460
530,73	0,335
530,94	0,541
531,15	0,367
531,35	0,603
531,56	0,540
531,76	0,409
531,97	0,374
532,17	0,278
532,38	0,445
532,59	0,370
532,79	0,452
533,00	0,228
533,20	0,261
533,41	0,294
533,61	0,268
533,82	0,201
534,03	0,260
534,23	0,402
534,44	0,503
534,64	0,522
534,85	0,252
535,05	0,285
535,26	0,390
535,46	0,273
535,67	0,202
535,88	0,264
536,08	0,506
536,29	0,523
536,49	0,380
536,70	0,566
536,90	0,453
537,11	0,386
537,31	0,424
537,52	0,275
537,72	0,478
537,93	0,200
538,13	0,414
538,34	0,273
538,55	0,333
538,75	0,235
538,96	0,398
539,16	0,330
539,37	0,419
539,57	0,475
539,78	0,365
539,98	0,469
540,19	0,445
540,39	0,316
540,60	0,159
540,80	0,447
541,01	0,482
541,21	0,565
541,42	0,307
541,62	0,321
541,83	0,339
542,03	0,397
542,24	0,567
542,44	0,489
542,65	0,372
542,85	0,544
543,06	0,425
543,26	0,359
543,47	0,508
543,67	0,494
543,88	0,489
544,08	0,498
544,29	0,478
544,49	0,285
544,70	0,351
544,90	0,528
545,11	0,401
545,31	0,512
545,52	0,351
545,72	0,435
545,93	0,401
546,13	0,338
546,34	0,417
546,54	0,371
546,75	0,349
546,95	0,631
547,15	0,349
547,36	0,474
547,56	0,399
547,77	0,305
547,97	0,182
548,18	0,252
548,38	0,361
548,59	0,298
548,79	0,647
549,00	0,401
549,20	0,468
549,41	0,493
549,61	0,364
549,81	0,447
550,02	0,397
550,22	0,282
550,43	0,438
550,63	0,421
550,84	0,441
551,04	0,406
551,25	0,503
551,45	0,494
551,65	0,390
551,86	0,323
552,06	0,462
552,27	0,372
552,47	0,521
552,68	0,476
552,88	0,484
553,08	0,477
553,29	0,671
553,49	0,457
553,70	0,491
553,90	0,499
554,11	0,561
554,31	0,332
554,51	0,547
554,72	0,578
554,92	0,607
555,13	0,474
555,33	0,648
555,53	0,529
555,74	0,822
555,94	0,651
556,15	0,726
556,35	0,835
556,56	0,816
556,76	0,598
556,96	0,907
557,17	1,025
557,37	0,975
557,58	0,873
557,78	1,000
557,98	1,103
558,19	1,102
558,39	1,315
558,59	1,895
558,80	2,620
559,00	3,842
559,21	5,917
559,41	9,039
559,61	13,686
559,82	20,938
560,02	29,748
560,23	40,888
560,43	53,196
560,63	64,606
560,84	75,097
561,04	83,088
561,24	87,377
561,45	89,960
561,65	92,266
561,85	94,674
562,06	95,665
562,26	95,635
562,47	97,235
562,67	96,953
562,87	97,800
563,08	98,391
563,28	97,619
563,48	98,506
563,69	98,284
563,89	98,779
564,09	98,274
564,30	98,606
564,50	97,698
564,70	98,038
564,91	99,079
565,11	97,271
565,31	98,719
565,52	98,005
565,72	98,211
565,92	98,643
566,13	97,464
566,33	97,481
566,53	97,035
566,74	95,675
566,94	95,479
567,14	95,683
567,35	94,830
567,55	94,064
567,75	92,899
567,96	92,570
568,16	93,897
568,36	92,849
568,57	93,124
568,77	92,612
568,97	93,390
569,18	93,900
569,38	93,747
569,58	95,106
569,79	95,851
569,99	95,589
570,19	95,833
570,39	96,708
570,60	96,609
570,80	96,559
571,00	97,481
571,21	97,065
571,41	97,441
571,61	96,352
571,82	96,160
572,02	95,898
572,22	95,331
572,42	95,563
572,63	94,937
572,83	94,962
573,03	94,918
573,24	94,593
573,44	95,706
573,64	94,102
573,84	95,114
574,05	94,167
574,25	93,945
574,45	93,575
574,66	94,024
574,86	94,956
575,06	94,455
575,26	94,194
575,47	93,943
575,67	94,148
575,87	94,086
576,07	94,324
576,28	93,989
576,48	93,232
576,68	93,954
576,88	94,585
577,09	92,882
577,29	93,288
577,49	92,744
577,69	92,914
577,90	92,942
578,10	92,397
578,30	92,190
578,50	91,766
578,71	92,836
578,91	92,597
579,11	92,755
579,31	93,794
579,52	94,848
579,72	93,774
579,92	95,198
580,12	93,820
580,33	93,122
580,53	92,975
580,73	91,772
580,93	90,000
581,13	87,623
581,34	82,306
581,54	76,856
581,74	69,987
581,94	61,021
582,15	52,581
582,35	41,375
582,55	31,316
582,75	22,535
582,95	15,728
583,16	10,151
583,36	6,997
583,56	4,710
583,76	2,996
583,96	2,342
584,17	1,710
584,37	1,076
584,57	0,777
584,77	0,744
584,97	0,517
585,18	0,641
585,38	0,336
585,58	0,570
585,78	0,533
585,98	0,337
586,19	0,573
586,39	0,433
586,59	0,443
586,79	0,458
586,99	0,315
587,20	0,237
587,40	0,355
587,60	0,184
587,80	0,416
588,00	0,227
588,20	0,522
588,41	0,322
588,61	0,439
588,81	0,248
589,01	0,391
589,21	0,428
589,41	0,225
589,62	0,365
589,82	0,362
590,02	0,281
590,22	0,380
590,42	0,526
590,62	0,300
590,83	0,300
591,03	0,192
591,23	0,349
591,43	0,452
591,63	0,358
591,83	0,402
592,03	0,372
592,24	0,322
592,44	0,314
592,64	0,288
592,84	0,367
593,04	0,311
593,24	0,174
593,44	0,319
593,65	0,152
593,85	0,372
594,05	0,277
594,25	0,229
594,45	0,252
594,65	0,148
594,85	0,299
595,06	0,295
595,26	0,516
595,46	0,189
595,66	0,259
595,86	0,151
596,06	0,321
596,26	0,265
596,46	0,331
596,66	0,352
596,87	0,296
597,07	0,268
597,27	0,276
597,47	0,226
597,67	0,170
597,87	0,101
598,07	0,252
598,27	0,308
598,47	0,429
598,67	0,194
598,88	0,333
599,08	0,181
599,28	0,428
599,48	0,137
599,68	0,507
599,88	0,186
600,08	0,267
600,28	0,350
600,48	0,233
600,68	0,257
600,88	0,433
601,09	0,330
601,29	0,430
601,49	0,071
601,69	0,192
601,89	0,162
602,09	0,279
602,29	0,113
602,49	0,288
602,69	0,205
602,89	0,282
603,09	0,424
603,29	0,399
603,49	0,280
603,69	0,301
603,90	0,173
604,10	0,289
604,30	0,213
604,50	0,262
604,70	0,035
604,90	0,297
605,10	0,266
605,30	0,272
605,50	0,211
605,70	0,302
605,90	0,073
606,10	0,226
606,30	0,199
606,50	0,321
606,70	0,297
606,90	0,093
607,10	0,382
607,30	0,291
607,50	0,128
607,70	0,284
607,90	0,173
608,10	0,367
608,30	0,313
608,50	0,100
608,70	0,344
608,90	0,225
609,11	0,132
609,31	0,295
609,51	0,316
609,71	0,133
609,91	0,093
610,11	0,421
610,31	0,351
610,51	0,221
610,71	0,337
610,91	0,251
611,11	0,157
611,31	0,102
611,51	0,059
611,71	0,111
611,91	0,339
612,11	0,232
612,31	0,439
612,51	0,204
612,71	0,219
612,91	-0,020
613,11	0,270
613,31	0,134
613,51	0,131
613,71	0,139
613,91	0,337
614,11	0,203
614,31	0,166
614,50	0,427
614,70	0,295
614,90	0,188
615,10	0,177
615,30	0,302
615,50	0,071
615,70	0,345
615,90	0,220
616,10	0,140
616,30	0,242
616,50	0,110
616,70	0,319
616,90	0,190
617,10	0,314
617,30	0,143
617,50	0,226
617,70	0,032
617,90	0,377
618,10	0,134
618,30	0,170
618,50	0,321
618,70	0,299
618,90	0,084
619,10	0,160
619,30	0,008
619,49	0,375
619,69	0,241
619,89	0,198
620,09	0,155
620,29	0,158
620,49	0,238
620,69	0,158
620,89	0,167
621,09	0,105
621,29	0,162
621,49	0,243
621,69	0,133
621,89	0,313
622,09	0,308
622,29	0,000
622,48	0,294
622,68	0,219
622,88	0,175
623,08	0,209
623,28	0,233
623,48	0,230
623,68	0,160
623,88	0,221
624,08	0,144
624,28	0,244
624,48	0,328
624,67	0,108
624,87	0,199
625,07	0,303
625,27	0,111
625,47	0,216
625,67	0,304
625,87	0,206
626,07	0,279
626,27	0,099
626,47	0,257
626,66	0,105
626,86	0,125
627,06	0,258
627,26	0,221
627,46	0,075
627,66	0,026
627,86	0,232
628,06	0,187
628,25	0,277
628,45	0,230
628,65	0,284
628,85	0,190
629,05	0,418
629,25	0,097
629,45	0,248
629,65	0,182
629,84	0,056
630,04	0,314
630,24	0,215
630,44	0,060
630,64	0,288
630,84	0,103
631,04	0,354
631,23	0,058
631,43	0,065
631,63	0,119
631,83	0,274
632,03	0,135
632,23	0,217
632,42	0,220
632,62	0,319
632,82	0,199
633,02	0,193
633,22	0,182
633,42	0,231
633,62	0,065
633,81	0,057
634,01	0,290
634,21	0,286
634,41	0,223
634,61	0,412
634,80	0,223
635,00	0,442
635,20	0,318
635,40	-0,067
635,60	0,245
635,80	0,221
635,99	0,347
636,19	0,141
636,39	0,096
636,59	0,319
636,79	0,324
636,98	0,151
637,18	0,121
637,38	0,308
637,58	0,118
637,78	0,238
637,97	0,231
638,17	0,282
638,37	0,360
638,57	0,073
638,77	0,097
638,96	0,355
639,16	0,589
639,36	0,195
639,56	0,512
639,76	0,277
639,95	0,349
640,15	0,107
640,35	0,279
640,55	0,472
640,75	0,384
640,94	0,157
641,14	0,425
641,34	0,296
641,54	0,195
641,73	-0,075
641,93	0,348
642,13	0,374
642,33	0,195
642,53	0,052
642,72	0,260
642,92	0,443
643,12	0,306
643,32	0,310
643,51	0,588
643,71	0,013
643,91	0,339
644,11	0,185
644,30	0,089
644,50	0,356
644,70	0,244
644,90	0,345
645,09	0,262
645,29	0,546
645,49	0,378
645,69	0,101
645,88	0,173
646,08	0,297
646,28	0,460
646,48	0,405
646,67	0,131
646,87	0,413
647,07	0,157
647,26	0,380
647,46	0,363
647,66	0,152
647,86	0,431
648,05	0,394
648,25	1,106
648,45	0,348
648,65	0,313
648,84	0,291
649,04	0,406
649,24	0,532
649,43	0,433
649,63	0,295
649,83	0,345
650,03	0,660
650,22	0,314
650,42	0,595
650,62	0,443
650,81	0,266
651,01	0,407
651,21	0,445
651,40	0,630
651,60	0,341
651,80	0,327
652,00	0,488
652,19	0,180
652,39	0,569
652,59	0,584
652,78	0,140
652,98	-0,008
653,18	0,335
653,37	0,401
653,57	0,642
653,77	0,610
653,96	0,348
654,16	0,790
654,36	0,144
654,55	0,101
654,75	0,224
654,95	0,443
655,14	0,198
655,34	0,658
655,54	0,602
655,73	-0,043
655,93	0,192
656,13	0,070
656,32	-0,185
656,52	0,583
656,72	0,400
656,91	0,803
657,11	0,466
657,31	0,296
657,50	0,379
657,70	0,764
657,90	0,521
658,09	0,564
658,29	0,528
658,49	0,148
658,68	0,695
658,88	0,323
659,07	0,497
659,27	0,052
659,47	0,287
659,66	0,362
659,86	0,157
660,06	0,424
660,25	0,239
660,45	0,495
660,64	0,413
660,84	0,314
661,04	0,315
661,23	0,498
661,43	0,509
661,63	0,516
661,82	0,277
662,02	0,452
662,21	0,401
662,41	0,542
662,61	0,666
662,80	0,378
663,00	0,139
663,19	0,297
663,39	0,414
663,59	0,439
663,78	0,507
663,98	0,735
664,17	0,435
664,37	0,362
664,57	0,334
664,76	0,314
664,96	0,051
665,15	0,221
665,35	0,136
665,55	-0,103
665,74	0,127
665,94	0,338
666,13	0,141
666,33	0,616
666,53	0,401
666,72	0,270
666,92	0,470
667,11	0,416
667,31	0,173
667,50	0,331
667,70	0,337
667,90	0,139
668,09	0,238
668,29	0,139
668,48	0,488
668,68	0,179
668,87	0,564
669,07	-0,096
669,26	0,465
669,46	0,489
669,66	0,515
669,85	0,473
670,05	0,166
670,24	0,304
670,44	0,567
670,63	0,187
670,83	0,273
671,02	0,446
671,22	0,194
671,42	0,147
671,61	0,236
671,81	0,100
672,00	0,689
672,20	-0,061
672,39	0,525
672,59	0,248
672,78	0,000
672,98	0,331
673,17	0,274
673,37	-0,015
673,56	0,392
673,76	-0,044
673,95	0,321
674,15	0,404
674,34	0,171
674,54	0,449
674,73	0,405
674,93	0,390
675,13	0,342
675,32	0,407
675,52	0,427
675,71	0,583
675,91	0,483
676,10	0,275
676,30	0,124
676,49	-0,047
676,69	0,381
676,88	0,237
677,08	0,098
677,27	0,117
677,47	0,351
677,66	0,369
677,86	0,269
678,05	0,141
678,24	0,248
678,44	0,506
678,63	0,305
678,83	0,173
679,02	0,227
679,22	0,420
679,41	0,399
679,61	0,188
679,80	0,166
680,00	-0,107
680,19	0,135
680,39	0,313
680,58	0,244
680,78	0,000
680,97	0,188
681,17	0,266
681,36	0,107
681,56	0,258
681,75	0,017
681,94	0,110
682,14	0,361
682,33	0,298
682,53	0,022
682,72	0,167
682,92	0,363
683,11	0,190
683,31	0,273
683,50	0,172
683,69	0,232
683,89	0,447
684,08	0,253
684,28	0,026
684,47	0,165
684,67	0,099
684,86	0,222
685,06	0,306
685,25	0,221
685,44	0,334
685,64	0,365
685,83	0,304
686,03	0,234
686,22	0,228
686,42	0,157
686,61	0,241
686,80	0,105
687,00	0,117
687,19	0,213
687,39	0,133
687,58	0,141
687,77	0,178
687,97	0,300
688,16	0,278
688,36	0,039
688,55	0,039
688,74	0,111
688,94	0,047
689,13	0,172
689,33	0,167
689,52	0,165
689,71	0,219
689,91	0,061
690,10	0,143
690,30	0,032
690,49	0,115
690,68	0,357
690,88	0,063
691,07	-0,036
691,27	0,059
691,46	0,343
691,65	0,154
691,85	0,169
692,04	0,044
692,23	0,051
692,43	0,107
692,62	0,184
692,82	0,268
693,01	0,123
693,20	0,278
693,40	0,012
693,59	-0,012
693,78	0,131
693,98	0,069
694,17	0,050
694,36	0,249
694,56	-0,021
694,75	0,205
694,94	0,192
695,14	0,052
695,33	0,251
695,53	0,347
695,72	0,453
695,91	-0,121
696,11	0,122
696,30	0,346
696,49	0,352
696,69	0,193
696,88	0,239
697,07	0,125
697,27	0,170
697,46	0,143
697,65	0,148
697,85	0,088
698,04	0,372
698,23	0,189
698,43	0,343
698,62	-0,090
698,81	0,460
699,01	0,520
699,20	0,175
699,39	0,123
699,58	0,255
699,78	-0,061
699,97	0,196
700,16	0,137
700,36	0,192
700,55	0,432
700,74	0,315
700,94	0,099
701,13	0,455
701,32	0,010
701,52	0,488
701,71	0,696
701,90	0,470
702,09	0,705
702,29	0,381
702,48	0,159
702,67	0,833
702,87	0,616
703,06	0,438
703,25	0,675
703,44	0,524
703,64	0,691
703,83	0,387
704,02	0,461
704,22	0,487
704,41	0,186
704,60	1,293
704,79	0,625
704,99	0,827
705,18	1,778
705,37	1,534
705,56	0,597
705,76	1,535
705,95	1,290
706,14	0,677
706,33	1,223
706,53	0,973
706,72	0,753
706,91	0,988
707,11	0,516
707,30	0,674
707,49	0,730
707,68	1,228
707,88	1,165
708,07	0,293
708,26	0,845
708,45	0,493
708,64	3,324
708,84	0,755
709,03	1,676
709,22	-0,502
709,41	2,404
709,61	1,102
709,80	3,263
709,99	1,202
710,18	2,128
710,38	1,290
710,57	0,127
710,76	0,983
710,95	2,130
711,14	2,350
711,34	0,998
711,53	2,450
711,72	2,248
711,91	1,033
712,11	2,347
712,30	1,270
712,49	1,034
712,68	-0,317
712,87	2,163
713,07	1,967
713,26	1,374
713,45	-0,083
713,64	0,524
713,83	0,528
714,03	1,880
714,22	2,941
714,41	2,886
714,60	1,709
714,79	-0,288
714,99	1,326
715,18	1,903
715,37	4,300
715,56	1,747
715,75	1,651
715,94	3,051
716,14	3,386
716,33	3,382
716,52	5,294
716,71	2,763
716,90	0,721
717,10	-0,501
717,29	2,757
717,48	3,170
717,67	2,707
717,86	3,114
718,05	3,162
718,24	1,427
718,44	6,044
718,63	1,764
718,82	2,561
719,01	2,491
719,20	2,540
719,39	4,641
719,59	0,977
719,78	-1,202
719,97	1,473
720,16	3,159
720,35	3,510
720,54	1,537
720,73	4,573
720,93	1,157
721,12	0,934
721,31	4,082
721,50	6,109
721,69	4,015
721,88	5,607
722,07	1,350
722,27	5,074
722,46	4,498
722,65	-0,079
722,84	1,452
723,03	2,313
723,22	2,498
723,41	0,914
723,60	3,925
723,79	7,426
723,99	5,029
724,18	6,340
724,37	0,182
724,56	4,003
724,75	3,739
724,94	7,264
725,13	4,120
725,32	5,581
725,51	1,488
725,71	6,034
725,90	1,134
726,09	4,658
726,28	0,572
726,47	4,635
726,66	6,137
726,85	1,232
727,04	0,306
727,23	3,152
727,42	8,754
727,61	4,527
727,81	-1,189
728,00	1,975
728,19	3,142
728,38	3,384
728,57	10,104
728,76	0,644
728,95	5,729
729,14	5,628
729,33	5,806
729,52	3,600
729,71	2,820
729,90	4,945
730,09	6,089
730,28	7,135
730,48	4,966
730,67	6,362
730,86	6,501
731,05	2,334
731,24	-1,463
731,43	12,079
731,62	6,758
731,81	4,313
732,00	10,419
732,19	1,322
732,38	7,051
732,57	4,401
732,76	5,472
732,95	2,831
733,14	-0,430
733,33	-1,190
733,52	1,826
733,71	4,591
733,90	1,271
734,09	6,081
734,28	6,168
734,47	3,750
734,66	2,941
734,85	3,714
735,04	3,566
735,23	10,084
735,42	9,699
735,61	6,122
735,81	10,651
736,00	0,000
736,19	3,647
736,38	8,832
736,57	7,407
736,76	8,759
736,95	5,255
737,14	11,324
737,33	8,204
737,52	6,615
737,71	-1,148
737,90	9,892
738,09	8,219
738,28	11,211
738,47	2,737
738,66	3,365
738,85	9,610
739,04	7,719
739,22	4,348
739,41	3,309
739,60	-3,242
739,79	2,698
739,98	0,179
740,17	11,263
740,36	6,510
740,55	9,076
740,74	14,580
740,93	-0,956
741,12	8,750
741,31	6,690
741,50	-1,134
741,69	6,372
741,88	2,174
742,07	9,239
742,26	0,190
742,45	12,705
742,64	5,850
742,83	11,327
743,02	0,421
743,21	10,650
743,40	-2,484
743,59	12,684
743,78	4,110
743,97	11,346
744,16	8,858
744,34	2,098
744,53	7,835
744,72	7,307
744,91	5,462
745,10	9,224
745,29	9,476
745,48	13,864
745,67	7,745
745,86	13,907
746,05	12,322
746,24	10,103
746,43	11,349
746,62	17,026
746,81	15,730
747,00	10,722
747,18	12,854
747,37	19,789
747,56	13,176
747,75	-10,345
747,94	11,165
748,13	23,043
748,32	10,714
748,51	8,883
748,70	18,062
748,89	16,628
749,08	-4,070
749,26	10,132
749,45	0,536
749,64	11,587
749,83	7,191
750,02	22,283
750,21	12,723
750,40	22,065
750,59	13,137
750,78	11,721
750,96	17,956
751,15	5,140
751,34	-0,852
751,53	3,552
751,72	7,324
751,91	11,399
752,10	5,759
752,29	16,000
752,47	-2,006
752,66	10,794
752,85	25,956
753,04	3,352
753,23	11,765
753,42	6,469
753,61	10,345
753,80	7,560
753,98	16,667
754,17	7,599
754,36	5,484
754,55	7,831
754,74	1,623
754,93	9,366
755,12	5,935
755,30	-1,948
755,49	13,663
755,68	20,245
755,87	10,355
756,06	10,764
756,25	21,277
756,43	1,342
756,62	25,155
756,81	11,589
757,00	17,105
757,19	25,694
757,38	17,375
757,56	-7,600
757,75	14,334
757,94	7,224
758,13	6,507
758,32	6,528
758,51	12,121
758,69	-5,405
758,88	6,397
759,07	18,563
759,26	17,668
759,45	7,368
759,63	29,870
759,82	10,877
760,01	8,059
760,20	21,698
760,39	20,820
760,57	16,725
760,76	17,073
760,95	18,056
761,14	20,073
761,33	24,516
761,51	5,714
761,70	14,498
761,89	11,556
762,08	36,059
762,27	17,329
762,45	6,159
762,64	18,090
762,83	29,880
763,02	16,522
763,21	7,500
763,39	9,441
763,58	7,063
763,77	29,114
763,96	7,171
764,14	1,250
764,33	10,000
764,52	16,964
764,71	26,230
764,89	15,625
765,08	-2,956
765,27	19,149
765,46	34,081
765,65	25,098
765,83	28,959
766,02	0,476
766,21	22,404
766,40	22,568
766,58	13,228
766,77	36,239
766,96	13,821
767,15	21,008
767,33	26,087
767,52	35,808
767,71	34,649
767,90	7,538
768,08	21,557
768,27	22,764
768,46	29,386
768,64	12,037
768,83	3,431
769,02	-0,985
769,21	17,188
769,39	39,286
769,58	32,468
769,77	34,574
769,96	29,730
770,14	29,508
770,33	15,888
770,52	14,388
770,70	21,081
770,89	23,784
771,08	4,819
771,27	17,895
771,45	-12,353
771,64	29,697
771,83	19,118
772,01	48,969
772,20	34,328
772,39	32,278
772,57	11,443
772,76	31,757
772,95	35,057
773,14	27,891
773,32	14,689
773,51	20,238
773,70	5,036
773,88	27,742
774,07	23,350
774,26	-29,839
774,44	24,060
774,63	38,922
774,82	13,636
775,00	26,168
775,19	3,571
775,38	34,043
775,56	36,025
775,75	19,780
775,94	33,333
776,12	30,719
776,31	31,579
776,50	17,123
776,68	35,484
776,87	42,584
777,06	40,252
777,24	20,168
777,43	48,128
777,62	55,056
777,80	45,283
777,99	19,167
778,18	47,701
778,36	36,441
778,55	8,475
778,74	17,969
778,92	19,753
779,11	53,636
779,29	-23,404
779,48	18,440
779,67	45,045
779,85	35,965
780,04	28,986
780,23	64,286
780,41	45,763
780,60	21,477
780,79	47,581
780,97	39,869
781,16	19,681
781,34	46,622
781,53	23,214
781,72	20,721
781,90	23,353
782,09	8,140
782,28	40,816
782,46	54,286
782,65	45,070
782,83	7,547
783,02	53,509
783,21	55,639
783,39	28,571
783,58	78,261
783,76	33,333
783,95	87,324
784,14	50,000
784,32	-3,529
784,51	54,054
784,69	-10,937
784,88	51,402
785,06	47,682
785,25	41,135
785,44	53,226
785,62	22,857
785,81	34,259
785,99	27,820
786,18	27,027
786,37	23,077
786,55	51,389
786,74	39,091
786,92	32,168
787,11	44,444
787,29	29,464
787,48	41,935
787,67	33,019
787,85	72,152
788,04	32,432
788,22	-3,960
788,41	25,984
788,59	34,211
788,78	58,242
788,96	28,099
789,15	43,333
789,34	5,769
789,52	29,032
789,71	69,065
789,89	-11,688
790,08	28,750
790,26	39,490
790,45	30,556
790,63	52,874
790,82	63,846
791,00	14,159
791,19	36,000
791,38	29,524
791,56	55,455
791,75	41,667
791,93	62,000
792,12	15,652
792,30	22,628
792,49	38,384
792,67	45,588
792,86	40,800
793,04	36,111
793,23	56,842
793,41	25,362
793,60	31,250
793,78	25,714
793,97	63,889
794,15	78,195
794,34	0,000
794,52	10,753
794,71	56,589
794,89	48,485
795,08	52,000
795,26	52,000
795,45	55,556
795,63	41,129
795,82	68,132
796,00	52,000
796,19	43,902
796,37	42,748
796,56	-23,301
796,74	12,632
796,93	27,273
797,11	45,783
797,30	56,111
797,48	42,187
797,67	23,577
797,85	46,154
798,04	6,780
798,22	105,128
798,41	30,769
798,59	47,619
798,77	30,120
798,96	46,914
799,14	69,355
799,33	77,982
799,51	43,056
799,70	56,154
799,88	61,468
800,07	70,229
800,25	31,325
800,44	12,963
800,62	27,778
800,80	54,930
800,99	57,534
801,17	50,000
801,36	57,857
801,54	54,000
801,73	56,842
801,91	38,017
802,10	41,176
802,28	48,800
802,46	-13,158
802,65	28,058
802,83	112,000
803,02	75,000
803,20	67,470
803,39	81,609
803,57	53,543
803,75	41,463
803,94	54,762
804,12	58,621
804,31	89,855
804,49	16,000
804,67	8,824
804,86	0,000
805,04	86,747
805,23	56,637
805,41	70,000
805,59	71,233
805,78	59,200
805,96	24,096
806,15	48,515
806,33	47,368
806,51	10,667
806,70	40,602
806,88	32,558
807,07	78,378
807,25	93,407
807,43	52,679
807,62	53,982
807,80	46,667
807,99	76,154
808,17	21,260
808,35	37,000
808,54	49,275
808,72	33,333
808,90	32,877
809,09	45,652
809,27	114,667
809,46	78,022
809,64	82,927
809,82	42,384
810,01	47,656
810,19	65,657
810,37	67,969
810,56	77,778
810,74	38,961
810,92	44,000
811,11	7,018
811,29	61,321
811,48	48,462
811,66	13,483
811,84	36,264
812,03	56,557
812,21	61,404
812,39	22,609
812,58	50,526
812,76	66,187
812,94	22,892
813,13	10,638
813,31	37,000
813,49	60,185
813,68	20,000
813,86	51,685
814,04	29,752
814,23	39,759
814,41	5,618
814,59	57,282
814,78	67,647
814,96	45,912
815,14	28,972
815,33	23,256
815,51	32,283
815,69	41,905
815,87	25,743
816,06	52,174
816,24	49,689
816,42	36,029
816,61	34,591
816,79	26,724
816,97	31,818
817,16	35,503
817,34	53,175
817,52	47,107
817,70	33,663
817,89	40,741
818,07	17,123
818,25	6,122
818,44	60,256
818,62	31,008
818,80	33,083
818,98	35,669
819,17	40,336
819,35	38,830
819,53	18,657
819,72	45,570
819,90	25,581
820,08	33,333
820,26	20,690
820,45	28,859
820,63	53,571
820,81	19,200
820,99	32,624
821,18	14,286
821,36	60,127
821,54	51,034
821,73	49,444
821,91	20,175
822,09	17,742
822,27	40,000
822,46	8,824
822,64	25,600
822,82	45,304
823,00	14,365
823,19	29,121
823,37	36,970
823,55	39,773
823,73	56,552
823,91	37,681
824,10	27,957
824,28	50,251
824,46	37,864
824,64	28,947
824,83	29,814
825,01	21,333
825,19	34,677
825,37	31,304
825,56	49,057
825,74	29,082
825,92	11,465
826,10	31,818
826,28	52,976
826,47	12,105
826,65	52,482
826,83	38,793
827,01	25,434
827,19	25,000
827,38	38,889
827,56	39,773
827,74	42,458
827,92	45,930
828,10	27,564
828,29	51,479
828,47	31,301
828,65	40,000
828,83	10,303
829,01	32,065
829,20	52,747
829,38	42,045
829,56	39,130
829,74	-4,403
829,92	25,794
830,10	52,874
830,29	18,593
830,47	28,643
830,65	21,951
830,83	25,000
831,01	33,929
831,20	28,155
831,38	22,488
831,56	27,907
831,74	48,341
831,92	63,158
832,10	42,857
832,29	26,351
832,47	-6,180
832,65	36,765
832,83	19,249
833,01	19,500
833,19	26,697
833,37	34,389
833,56	17,722
833,74	25,000
833,92	16,667
834,10	19,087
834,28	26,160
834,46	23,529
834,64	15,278
834,83	30,000
835,01	32,780
835,19	15,200
835,37	16,529
835,55	18,229
835,73	23,645
835,91	30,996
836,09	21,293
836,28	11,070
836,46	4,400
836,64	20,301
836,82	12,217
837,00	26,812
837,18	2,974
837,36	23,108
837,54	36,364
837,72	19,397
837,91	23,881
838,09	9,562
838,27	23,667
838,45	19,149
838,63	18,382
838,81	-5,063
838,99	14,516
839,17	13,176
839,35	22,340
839,53	3,860
839,72	18,421
839,90	13,058
840,08	22,462
840,26	9,524
840,44	24,471
840,62	17,241
840,80	29,592
840,98	8,627
841,16	12,928
841,34	14,047
841,52	24,159
841,70	15,692
841,89	16,935
842,07	30,408
842,25	23,563
842,43	18,103
842,61	28,070
842,79	20,339
842,97	7,818
843,15	20,132
843,33	4,416
843,51	21,386
843,69	25,641
843,87	13,806
844,05	17,021
844,23	20,420
844,41	-0,940
844,59	10,375
844,77	10,644
844,95	20,231
845,13	28,923
845,31	-2,035
845,50	13,089
845,68	16,077
845,86	14,368
846,04	24,302
846,22	7,084
846,40	20,430
846,58	12,536
846,76	6,720
846,94	19,202
847,12	13,990
847,30	10,309
847,48	1,238
847,66	17,488
847,84	3,552
848,02	14,493
848,20	12,403
848,38	22,792
848,56	15,057
848,74	19,809
848,92	4,489
849,10	5,500
849,28	14,170
849,46	20,533
849,64	11,778
849,82	7,099
850,00	18,224
850,18	17,660
850,36	3,311
850,54	11,278
850,72	15,681
850,90	20,217
851,08	15,755
851,26	14,442
851,44	12,832
851,62	13,023
851,80	18,722
851,98	14,286
852,16	10,402
852,34	14,227
852,52	8,705
852,70	-0,683
852,87	3,653
853,05	1,559
853,23	7,216
853,41	12,472
853,59	8,506
853,77	18,651
853,95	18,565
854,13	6,637
854,31	16,016
854,49	10,978
854,67	13,823
854,85	8,696
855,03	14,028
855,21	10,316
855,39	6,036
855,57	11,470
855,75	16,971
855,93	4,510
856,11	18,375
856,28	4,982
856,46	14,769
856,64	15,619
856,82	6,186
857,00	7,099
857,18	10,108
857,36	11,804
857,54	13,149
857,72	8,947
857,90	6,827
858,08	10,000
858,26	5,590
858,44	5,848
858,61	4,704
858,79	10,727
858,97	11,858
859,15	8,824
859,33	10,781
859,51	8,375
859,69	4,114
859,87	6,425
860,05	1,599
860,23	13,474
860,40	6,228
860,58	6,066
860,76	6,190
860,94	6,992
861,12	10,308
861,30	5,651
861,48	11,143
861,66	0,159
861,84	2,840
862,01	10,309
862,19	5,085
862,37	6,505
862,55	13,112
862,73	-0,929
862,91	3,377
863,09	7,292
863,27	4,598
863,44	1,834
863,62	8,016
863,80	4,782
863,98	3,412
864,16	2,457
864,34	10,184
864,52	12,735
864,69	3,363
864,87	-2,315
865,05	5,986
865,23	8,889
865,41	10,081
865,59	5,653
865,76	9,961
865,94	8,786
866,12	11,355
866,30	3,647
866,48	13,219
866,66	9,005
866,83	10,687
867,01	3,964
867,19	8,322
867,37	-1,035
867,55	9,080
867,73	6,130
867,90	2,275
868,08	4,595
868,26	7,598
868,44	4,338
868,62	3,931
868,79	5,498
868,97	1,889
869,15	0,348
869,33	6,838
869,51	2,091
869,69	5,244
869,86	4,561
870,04	11,264
870,22	7,692
870,40	4,795
870,57	6,344
870,75	8,177
870,93	2,842
871,11	10,065
871,29	9,247
871,46	4,415
871,64	6,485
871,82	4,521
872,00	11,831
872,18	2,637
872,35	10,406
872,53	1,535
872,71	8,163
872,89	7,962
873,06	8,619
873,24	4,656
873,42	4,861
873,60	4,110
873,77	2,352
873,95	-3,102
874,13	0,740
874,31	5,160
874,49	6,583
874,66	3,477
874,84	7,121
875,02	8,249
875,20	5,813
875,37	3,390
875,55	6,584
875,73	4,021
875,91	3,810
876,08	2,468
876,26	2,385
876,44	1,043
876,61	4,915
876,79	8,399
876,97	2,099
877,15	1,762
877,32	2,813
877,50	3,063
877,68	2,999
877,86	-0,935
878,03	6,617
878,21	5,542
878,39	5,854
878,56	0,496
878,74	5,352
878,92	-2,906
879,10	2,306
879,27	8,558
879,45	2,782
879,63	5,823
879,80	5,240
879,98	2,483
880,16	3,493
880,34	4,348
880,51	0,631
880,69	1,488
880,87	3,399
881,04	2,750
881,22	6,224
881,40	3,639
881,57	0,421
881,75	2,216
881,93	6,057
882,10	1,827
882,28	1,172
882,46	3,288
882,63	2,982
882,81	4,578
882,99	5,150
883,16	2,431
883,34	4,211
883,52	6,103
883,69	5,023
883,87	0,911
884,05	4,689
884,22	2,022
884,40	5,484
884,58	0,967
884,75	1,983
884,93	3,041
885,11	3,881
885,28	2,121
885,46	1,230
885,64	1,482
885,81	2,827
885,99	1,797
886,17	2,328
886,34	3,400
886,52	1,981
886,70	2,671
886,87	3,100
887,05	4,377
887,22	0,387
887,40	4,670
887,58	2,191
887,75	3,367
887,93	5,061
888,11	3,909
888,28	2,654
888,46	3,112
888,63	3,277
888,81	2,814
888,99	4,293
889,16	3,649
889,34	0,646
889,51	1,151
889,69	2,419
889,87	3,827
890,04	5,369
890,22	4,778
890,39	1,787
890,57	3,084
890,75	-0,748
890,92	1,958
891,10	2,345
891,27	0,757
891,45	1,699
891,63	3,000
891,80	3,767
891,98	1,655
892,15	1,695
892,33	1,384
892,51	2,912
892,68	3,533
892,86	1,733
893,03	1,968
893,21	1,314
893,38	-0,091
893,56	2,811
893,74	2,025
893,91	3,087
894,09	2,205
894,26	2,688
894,44	2,292
894,61	0,936
894,79	2,166
894,96	1,664
895,14	3,814
895,32	3,661
895,49	1,875
895,67	2,998
895,84	0,296
896,02	0,773
896,19	1,520
896,37	2,121
896,54	1,649
896,72	0,933
896,89	1,779
897,07	5,117
897,25	1,630
897,42	2,903
897,60	4,606
897,77	3,218
897,95	1,513
898,12	4,489
898,30	1,774
898,47	2,019
898,65	0,822
898,82	0,971
899,00	0,354
899,17	3,546
899,35	1,143
899,52	4,003
899,70	1,946
899,87	0,649
900,05	0,875
900,22	1,029
900,40	3,139
900,57	1,113
900,75	0,224
900,92	2,336
901,10	1,303
901,27	-0,074
901,45	4,141
901,62	1,986
901,80	0,709
901,97	3,058
902,15	2,638
902,32	2,012
902,50	0,431
902,67	3,729
902,85	1,533
903,02	3,242
903,20	1,712
903,37	0,320
903,54	1,652
903,72	2,554
903,89	1,334
904,07	1,533
904,24	1,518
904,42	-0,070
904,59	0,500
904,77	0,955
904,94	1,062
905,12	0,319
905,29	0,632
905,47	1,011
905,64	2,651
905,81	1,009
905,99	0,490
906,16	1,006
906,34	2,020
906,51	1,796
906,69	2,105
906,86	2,178
907,03	1,514
907,21	1,461
907,38	2,144
907,56	2,103
907,73	1,337
907,91	1,095
908,08	2,173
908,25	2,034
908,43	0,805
908,60	1,327
908,78	2,426
908,95	0,936
909,13	3,543
909,30	3,074
909,47	0,653
909,65	3,446
909,82	1,301
910,00	1,177
910,17	1,246
910,34	1,601
910,52	1,619
910,69	1,703
910,87	1,598
911,04	1,484
911,21	1,757
911,39	0,274
911,56	1,494
911,73	0,571
911,91	0,845
912,08	1,638
912,26	0,574
912,43	2,900
912,60	0,747
912,78	0,609
912,95	0,900
913,13	1,010
913,30	3,055
913,47	1,651
913,65	2,226
913,82	1,642
913,99	1,280
914,17	1,342
914,34	0,086
914,51	0,943
914,69	2,066
914,86	1,969
915,03	1,354
915,21	0,603
915,38	1,012
915,56	1,473
915,73	0,824
915,90	1,226
916,08	2,178
916,25	1,088
916,42	1,691
916,60	2,390
916,77	1,241
916,94	2,002
917,12	1,971
917,29	0,441
917,46	0,082
917,64	1,196
917,81	0,465
917,98	0,710
918,16	0,294
918,33	1,774
918,50	2,125
918,67	1,511
918,85	0,870
919,02	1,243
919,19	1,564
919,37	1,231
919,54	1,922
919,71	1,466
919,89	0,755
920,06	1,819
920,23	1,714
920,41	1,247
920,58	1,300
920,75	1,894
920,92	0,533
921,10	0,975
921,27	1,525
921,44	2,117
921,62	1,323
921,79	1,489
921,96	1,325
922,13	1,376
922,31	1,045
922,48	0,835
922,65	1,775
922,82	0,148
923,00	1,255
923,17	0,342
923,34	1,642
923,52	0,421
923,69	1,149
923,86	2,044
924,03	0,684
924,21	1,677
924,38	1,399
924,55	1,940
924,72	0,945
924,90	0,466
925,07	1,631
925,24	0,637
925,41	1,506
925,59	0,982
925,76	-0,023
925,93	1,885
926,10	1,270
926,28	0,454
926,45	0,953
926,62	0,879
926,79	1,776
926,96	2,053
927,14	1,123
927,31	1,501
927,48	1,321
927,65	1,341
927,83	1,920
928,00	1,228
928,17	1,434
928,34	1,410
928,51	-0,022
928,69	0,769
928,86	0,874
929,03	0,791
929,20	0,430
929,37	0,511
929,55	1,792
929,72	1,438
929,89	0,838
930,06	0,668
930,23	0,724
930,41	-0,062
930,58	2,104
930,75	0,685
930,92	1,199
931,09	1,044
931,27	0,970
931,44	1,023
931,61	1,331
931,78	1,096
931,95	0,959
932,12	1,463
932,30	0,915
932,47	0,165
932,64	1,705
932,81	0,852
932,98	0,641
933,16	1,592
933,33	1,236
933,50	0,590
933,67	0,808
933,84	1,483
934,01	0,664
934,18	1,446
934,36	1,053
934,53	1,630
934,70	0,805
934,87	0,708
935,04	1,276
935,21	-0,079
935,38	0,601
935,56	2,460
935,73	0,798
935,90	0,754
936,07	1,178
936,24	1,567
936,41	1,045
936,58	0,514
936,76	0,707
936,93	0,335
937,10	1,546
937,27	1,074
937,44	0,637
937,61	1,266
937,78	1,703
937,95	1,050
938,13	0,602
938,30	1,505
938,47	0,943
938,64	1,920
938,81	0,855
938,98	1,336
939,15	1,367
939,32	1,634
939,49	1,015
939,66	1,909
939,84	0,828
940,01	1,277
940,18	1,194
940,35	0,185
940,52	0,555
940,69	0,223
940,86	1,705
941,03	0,866
941,20	0,932
941,37	0,000
941,54	1,597
941,71	2,071
941,89	2,208
942,06	1,362
942,23	1,226
942,40	1,221
942,57	1,788
942,74	1,446
942,91	2,832
943,08	1,709
943,25	2,419
943,42	0,999
943,59	1,851
943,76	2,319
943,93	1,076
944,10	1,440
944,27	1,100
944,44	1,267
944,61	2,553
944,79	3,175
944,96	3,068
945,13	1,874
945,30	1,965
945,47	3,354
945,64	2,232
945,81	2,583
945,98	1,886
946,15	2,615
946,32	3,311
946,49	2,280
946,66	3,467
946,83	2,236
947,00	2,887
947,17	2,174
947,34	2,836
947,51	2,538
947,68	2,716
947,85	2,342
948,02	3,316
948,19	2,203
948,36	3,082
948,53	1,106
948,70	2,219
948,87	2,902
949,04	2,677
949,21	1,374
949,38	2,865
949,55	3,672
949,72	2,245
949,89	2,557
950,06	2,393
950,23	1,413
950,40	2,035
950,57	2,453
950,74	1,811
950,91	1,247
951,08	3,497
951,25	1,937
951,42	1,583
951,59	2,090
951,76	0,796
951,93	1,837
952,10	0,685
952,27	0,169
952,44	3,562
952,61	1,317
952,77	1,440
952,94	2,530
953,11	3,731
953,28	3,645
953,45	2,842
953,62	3,324
953,79	2,025
953,96	4,520
954,13	3,825
954,30	4,298
954,47	3,869
954,64	0,172
954,81	2,576
954,98	2,416
955,15	1,330
955,32	1,393
955,49	4,493
955,65	4,856
955,82	3,470
955,99	4,494
956,16	9,183
956,33	-0,485
956,50	3,614
956,67	2,179
956,84	5,795
957,01	2,015
957,18	5,932
957,35	6,271
957,52	1,327
957,68	3,218
957,85	4,940
958,02	5,356
958,19	7,029
958,36	3,726
958,53	5,005
958,70	4,930
958,87	-0,599
959,04	5,419
959,21	8,991
959,37	8,342
959,54	5,759
959,71	8,543
959,88	3,023
960,05	7,451
960,22	7,673
960,39	3,894
960,56	6,777
960,72	7,341
960,89	4,430
961,06	4,709
961,23	6,881
961,40	5,286
961,57	7,827
961,74	8,295
961,90	6,386
962,07	8,969
962,24	4,013
962,41	6,897
962,58	6,522
962,75	6,667
962,92	9,649
963,08	3,958
963,25	0,797
963,42	15,261
963,59	3,696
963,76	8,350
963,93	11,202
964,10	2,036
964,26	17,381
964,43	0,930
964,60	12,065
964,77	19,463
964,94	5,679
965,10	11,699
965,27	4,190
965,44	13,333
965,61	7,534
965,78	4,969
965,95	18,905
966,11	17,879
966,28	17,039
966,45	13,725
966,62	2,439
966,79	5,802
966,95	9,253
967,12	21,905
967,29	19,136
967,46	32,740
967,63	21,961
967,79	29,866
967,96	35,780
968,13	20,476
968,30	21,399
968,47	12,692
968,63	36,765
968,80	22,989
968,97	20,809
969,14	25,989
969,31	29,592
969,47	35,326
969,64	14,286
969,81	16,129
969,98	22,105
970,14	17,742
970,31	42,138
970,48	22,819
970,65	19,008
970,81	16,783
970,98	40,625
971,15	40,606
971,32	28,030
971,48	58,929
971,65	35,762
971,82	34,545
971,99	58,861
972,15	22,093
972,32	43,056
972,49	40,984
972,66	64,463
972,82	63,014
972,99	20,000
973,16	54,305
973,33	27,407
973,49	52,439
973,66	26,667
973,83	60,494
974,00	68,354
974,16	-1,818
974,33	49,333
974,50	64,646
974,67	-1,190
974,83	90,816
975,00	145,455
975,17	96,774
975,33	60,920
975,50	81,967
975,67	69,231
975,84	64,634
976,00	68,421
976,17	76,087
976,34	49,412
976,50	51,648
976,67	115,476
976,84	125,000
977,00	80,769
977,17	84,444
977,34	184,615
977,50	64,286
977,67	96,471
977,84	159,322
978,01	87,838
978,17	67,241
978,34	140,741
978,51	124,000
978,67	179,592
978,84	121,818
979,01	160,526
979,17	64,286
979,34	221,739
979,51	93,182
979,67	116,667
979,84	96,610
980,01	88,462
980,17	194,118
980,34	45,205
980,51	722,222
980,67	33,333
980,84	128,571
981,01	241,176
981,17	142,647
981,34	87,143
981,50	94,737
981,67	157,143
981,84	160,714
982,00	3600,000
982,17	193,750
982,34	221,951
982,50	0,000
982,67	-500,000
982,84	330,000
983,00	133,333
983,17	-357,143
983,33	633,333
983,50	168,293
983,67	121,739
983,83	180,952
984,00	134,783
984,17	1055,556
984,33	-250,000
984,50	24,324
984,66	-6,250
984,83	637,500
985,00	115,385
985,16	74,194
985,33	3700,000
985,49	100,000
985,66	72,500
985,83	-2833,333
985,99	466,667
986,16	278,947
986,32	53,425
986,49	-520,000
986,66	400,000
986,82	148,485
986,99	320,000
987,15	136,364
987,32	229,412
987,49	246,429
987,65	52,174
987,82	-65,000
987,98	77,273
988,15	800,000
988,31	234,286
988,48	121,569
988,65	460,000
988,81	109,091
988,98	267,568
989,14	170,000
989,31	101,695
989,47	107,143
989,64	350,000
989,80	131,915
989,97	143,636
990,14	378,571
990,30	-137,500
990,47	-158,333
990,63	142,105
990,80	750,000
990,96	466,667
991,13	160,000
991,29	113,725
991,46	110,417
991,62	0,000
991,79	-270,000
991,95	264,706
992,12	450,000
992,29	-238,095
992,45	250,000
992,62	-92,857
992,78	-683,333
992,95	129,032
993,11	912,500
993,28	-6000,000
993,44	-175,862
993,61	149,123
993,77	0,000
993,94	182,051
994,10	885,714
994,27	-73,684
994,43	165,625
994,60	428,571
994,76	136,364
994,93	-310,000
995,09	-375,000
995,26	379,167
995,42	150,000
995,59	246,667
995,75	-458,333
995,92	-900,000
996,08	-860,000
996,25	224,242
996,41	60,000
996,58	272,000
996,74	-480,000
996,91	120,968
997,07	264,000
997,23	154,902
997,40	1050,000
997,56	-1200,000
997,73	295,652
997,89	1160,000
998,06	128,070
998,22	136,170
998,39	130,612
998,55	557,895
998,72	-4700,000
998,88	156,000
999,05	600,000
999,21	370,588
999,37	116,279
999,54	261,290
999,70	200,000
999,87	1233,333
1000,03	230,000
1000,20	457,143
1000,36	-550,000
1000,52	1050,000
1000,69	432,000
1000,85	-300,000
1001,02	228,571
1001,18	1000,000
1001,35	0,000
1001,51	135,714
1001,67	245,000
1001,84	85,366
1002,00	-109,091
1002,17	675,000
1002,33	-475,000
1002,50	366,667
1002,66	1037,500
1002,82	253,659
1002,99	-190,909
1003,15	-4900,000
1003,32	42,857
1003,48	-1300,000
1003,64	191,304
1003,81	-89,474
1003,97	139,130
1004,14	-90,909
1004,30	136,364
1004,46	-3000,000
1004,63	-200,000
1004,79	227,027
1004,95	-480,000
1005,12	-176,923
1005,28	269,444
1005,45	-700,000
1005,61	530,769
1005,77	-500,000
1005,94	228,261
1006,10	-140,000
1006,26	-118,519
1006,43	106,061
1006,59	358,065
1006,76	-236,000
1006,92	73,913
1007,08	109,091
1007,25	222,222
1007,41	272,727
1007,57	-335,294
1007,74	186,957
1007,90	-342,857
1008,06	-266,667
1008,23	-247,368
1008,39	161,111
1008,55	96,471
1008,72	-712,500
1008,88	-157,143
1009,04	-733,333
1009,21	184,375
1009,37	454,839
1009,53	-205,000
1009,70	6,061
1009,86	384,211
1010,02	172,727
1010,19	720,000
1010,35	7200,000
1010,51	305,714
1010,68	240,909
1010,84	320,000
1011,00	285,714
1011,17	2700,000
1011,33	96,154
1011,49	393,750
1011,66	181,250
1011,82	-808,333
1011,98	606,667
1012,14	261,538
1012,31	288,636
1012,47	-842,857
1012,63	5800,000
1012,80	283,333
1012,96	77,778
1013,12	-225,926
1013,29	375,000
1013,45	-85,294
1013,61	-1180,000
1013,77	-33,333
1013,94	220,833
1014,10	6400,000
1014,26	-41,176
1014,43	215,789
1014,59	0,000
1014,75	220,000
1014,91	177,143
1015,08	265,385
1015,24	546,667
1015,40	506,667
1015,56	235,294
1015,73	157,143
1015,89	644,444
1016,05	121,622
1016,21	229,630
1016,38	113,158
1016,54	-388,000
1016,70	342,105
1016,86	-353,846
1017,03	0,000
1017,19	325,000
1017,35	283,333
1017,51	533,333
1017,68	942,857
1017,84	321,053
1018,00	157,143
1018,16	-431,250
1018,33	518,182
1018,49	385,714
1018,65	-272,727
1018,81	-97,561
1018,97	615,385
1019,14	-957,143
1019,30	385,714
1019,46	146,154
1019,62	2950,000
1019,79	-571,429
1019,95	-1150,000
1020,11	700,000
1020,27	77,500
1020,43	-512,500
1020,60	0,000
1020,76	114,706
1020,92	7000,000
1021,08	-140,000
1021,24	-1050,000
1021,41	284,848
1021,57	-183,333
1021,73	0,000
1021,89	-181,818
1022,05	168,571
1022,21	-284,615
1022,38	342,105
1022,54	940,000
1022,70	240,741
1022,86	-1700,000
1023,02	577,778
1023,19	-290,000
1023,35	179,245
1023,51	396,774
1023,67	89,474
1023,83	590,909
1023,99	222,857
1024,16	-60,000
1024,32	331,250
1024,48	246,939
1024,64	-440,000
1024,80	666,667
1024,96	300,000
1025,12	2533,333
1025,29	-975,000
1025,45	258,333
1025,61	200,000
1025,77	333,333
1025,93	46,154
1026,09	3500,000
1026,26	-842,857
1026,42	-1075,000
1026,58	63,462
1026,74	714,286
1026,90	252,632
1027,06	-450,000
1027,22	-425,000
1027,38	755,556
1027,55	-236,000
1027,71	437,500
1027,87	105,000
1028,03	119,697
1028,19	-24,242
1028,35	104,054
1028,51	-9,677
1028,67	280,000
1028,83	166,667
1029,00	578,571
1029,16	-420,000
1029,32	394,118
1029,48	3450,000
1029,64	1085,714
1029,80	1066,667
1029,96	158,824
1030,12	100,000
1030,28	1450,000
1030,44	-1000,000
1030,61	200,000
1030,77	-113,043
1030,93	132,558
1031,09	-78,571
1031,25	-733,333
1031,41	-1800,000
1031,57	-52,632
1031,73	709,091
1031,89	-84,848
1032,05	1471,429
1032,21	530,000
1032,37	-100,000
1032,53	-75,000
1032,69	-4200,000
1032,86	1000,000
1033,02	181,250
1033,18	-630,769
1033,34	-476,923
1033,50	158,065
1033,66	-188,889
1033,82	314,286
1033,98	-370,588
1034,14	800,000
1034,30	-177,273
1034,46	200,000
1034,62	416,667
1034,78	88,889
1034,94	-58,065
1035,10	-372,727
1035,26	-1055,556
1035,42	125,714
1035,58	1020,000
1035,74	-60,000
1035,90	-616,667
1036,06	209,434
1036,22	-296,000
1036,38	540,000
1036,54	570,000
1036,70	-2350,000
1036,86	-78,571
1037,02	-1200,000
1037,18	-142,857
1037,34	226,087
1037,50	-333,333
1037,66	-3266,667
1037,82	-41,176
1037,98	233,333
1038,14	-0,000
1038,30	84,615
1038,46	135,417
1038,62	141,935
1038,78	166,667
1038,94	-21,053
1039,10	-233,333
1039,26	-126,316
1039,42	-414,286
1039,58	120,755
1039,74	75,000
1039,90	-56,410
1040,06	311,765
>>>>>End Processed Spectral Data<<<<<
