SpectraSuite Data File
++++++++++++++++++++++++++++++++++++
Date: Thu Feb 02 17:38:32 EET 2017
User: optolab
Dark Spectrum Present: Yes
Reference Spectrum Present: Yes
Number of Sampled Component Spectra: 1
Spectrometers: USB4C02475
Integration Time (usec): 100000 (USB4C02475)
Spectra Averaged: 1 (USB4C02475)
Boxcar Smoothing: 0 (USB4C02475)
Correct for Electrical Dark: No (USB4C02475)
Strobe/Lamp Enabled: No (USB4C02475)
Correct for Detector Non-linearity: No (USB4C02475)
Correct for Stray Light: No (USB4C02475)
Number of Pixels in Processed Spectrum: 3648
>>>>>Begin Processed Spectral Data<<<<<
344,91	-1475,000
345,13	-1475,000
345,35	-1475,000
345,57	-76,471
345,79	-32,609
346,00	-202,941
346,22	-1214,286
346,44	-45,455
346,66	300,000
346,87	191,304
347,09	715,385
347,31	3600,000
347,53	-1175,000
347,74	-213,953
347,96	-1071,429
348,18	223,529
348,40	635,294
348,61	-156,410
348,83	7200,000
349,05	241,026
349,27	352,941
349,48	-3700,000
349,70	485,714
349,92	142,857
350,14	116,216
350,35	-823,077
350,57	-350,000
350,79	17,949
351,01	-313,333
351,22	770,000
351,44	233,333
351,66	288,889
351,87	1116,667
352,09	52,632
352,31	201,786
352,53	197,143
352,74	-1057,143
352,96	163,158
353,18	106,250
353,40	-750,000
353,61	226,667
353,83	131,250
354,05	278,125
354,26	307,143
354,48	-1320,000
354,70	328,571
354,92	183,333
355,13	-46,512
355,35	242,593
355,57	190,625
355,78	235,714
356,00	219,149
356,22	109,091
356,44	283,721
356,65	342,857
356,87	36,111
357,09	160,000
357,30	136,364
357,52	-1333,333
357,74	400,000
357,95	277,143
358,17	84,058
358,39	228,000
358,60	216,667
358,82	231,818
359,04	235,897
359,26	140,909
359,47	-538,462
359,69	339,286
359,91	412,000
360,12	305,000
360,34	177,778
360,56	-250,000
360,77	577,778
360,99	408,333
361,21	104,348
361,42	-1450,000
361,64	-225,926
361,86	120,896
362,07	886,667
362,29	220,000
362,51	272,973
362,72	-1380,000
362,94	351,852
363,16	188,571
363,37	472,727
363,59	-7300,000
363,81	512,500
364,02	94,667
364,24	229,545
364,46	380,952
364,67	192,857
364,89	241,176
365,11	170,270
365,32	222,222
365,54	250,000
365,76	211,364
365,97	190,244
366,19	163,158
366,41	930,000
366,62	135,000
366,84	408,333
367,05	143,137
367,27	1220,000
367,49	279,487
367,70	477,778
367,92	162,500
368,14	-146,154
368,35	111,765
368,57	142,424
368,79	138,462
369,00	67,949
369,22	361,111
369,43	536,842
369,65	-165,517
369,87	-323,529
370,08	410,000
370,30	421,429
370,51	345,455
370,73	175,000
370,95	230,000
371,16	187,719
371,38	158,491
371,60	220,000
371,81	100,000
372,03	-1350,000
372,24	-78,125
372,46	2533,333
372,68	152,941
372,89	128,440
373,11	58,140
373,32	114,286
373,54	636,364
373,76	288,889
373,97	236,364
374,19	-252,632
374,40	160,000
374,62	623,529
374,84	333,333
375,05	144,231
375,27	213,514
375,48	108,642
375,70	264,706
375,92	203,571
376,13	473,684
376,35	220,833
376,56	290,000
376,78	100,000
376,99	157,576
377,21	206,250
377,43	127,273
377,64	118,000
377,86	362,500
378,07	131,818
378,29	222,222
378,51	172,619
378,72	-190,909
378,94	117,391
379,15	190,909
379,37	343,750
379,58	163,333
379,80	77,273
380,01	194,000
380,23	60,870
380,45	141,667
380,66	143,056
380,88	235,135
381,09	439,130
381,31	274,359
381,52	247,826
381,74	153,571
381,95	300,000
382,17	348,000
382,39	116,129
382,60	552,941
382,82	296,552
383,03	1866,667
383,25	91,358
383,46	483,333
383,68	176,596
383,89	236,364
384,11	91,781
384,32	234,211
384,54	-985,714
384,76	179,412
384,97	130,000
385,19	257,895
385,40	309,375
385,62	167,742
385,83	110,638
386,05	1200,000
386,26	473,077
386,48	261,538
386,69	202,778
386,91	370,000
387,12	210,256
387,34	62,712
387,55	328,571
387,77	308,000
387,98	159,184
388,20	174,648
388,41	95,238
388,63	102,857
388,84	112,500
389,06	195,349
389,27	112,500
389,49	63,855
389,70	111,864
389,92	172,727
390,13	115,385
390,35	76,042
390,56	215,625
390,78	236,364
390,99	171,111
391,21	70,455
391,42	134,783
391,64	-120,000
391,85	91,379
392,07	50,000
392,28	119,231
392,50	1220,000
392,71	5700,000
392,93	93,548
393,14	154,348
393,36	111,538
393,57	191,667
393,79	76,190
394,00	89,041
394,22	68,000
394,43	246,429
394,65	160,714
394,86	262,500
395,08	-287,500
395,29	48,936
395,50	-6000,000
395,72	957,143
395,93	240,000
396,15	-214,286
396,36	166,667
396,58	-333,333
396,79	179,070
397,01	233,333
397,22	105,797
397,44	210,638
397,65	67,568
397,87	94,286
398,08	176,923
398,29	33,333
398,51	265,854
398,72	208,696
398,94	213,953
399,15	123,333
399,37	117,391
399,58	74,603
399,80	120,000
400,01	205,882
400,22	271,429
400,44	328,571
400,65	150,685
400,87	-1500,000
401,08	62,921
401,30	86,667
401,51	78,182
401,72	80,645
401,94	204,878
402,15	53,061
402,37	106,818
402,58	232,558
402,80	312,500
403,01	150,000
403,22	114,458
403,44	200,000
403,65	75,510
403,87	98,667
404,08	103,846
404,30	212,500
404,51	57,143
404,72	800,000
404,94	59,036
405,15	67,164
405,37	108,791
405,58	141,935
405,79	300,000
406,01	44,444
406,22	79,762
406,44	45,614
406,65	80,952
406,86	78,000
407,08	65,432
407,29	76,000
407,51	35,577
407,72	65,347
407,93	67,089
408,15	80,682
408,36	108,571
408,58	67,500
408,79	76,744
409,00	63,121
409,22	90,196
409,43	54,955
409,64	25,641
409,86	55,682
410,07	15,652
410,29	25,333
410,50	29,365
410,71	50,806
410,93	-6,931
411,14	52,336
411,35	52,778
411,57	40,972
411,78	44,853
412,00	18,000
412,21	34,956
412,42	40,976
412,64	50,556
412,85	41,969
413,06	29,018
413,28	41,569
413,49	19,535
413,70	25,322
413,92	20,476
414,13	27,273
414,34	9,665
414,56	42,553
414,77	3,690
414,98	9,894
415,20	31,541
415,41	17,532
415,63	27,066
415,84	27,147
416,05	17,771
416,27	26,184
416,48	33,886
416,69	9,593
416,91	8,000
417,12	7,014
417,33	14,673
417,55	22,000
417,76	11,628
417,97	19,663
418,19	0,628
418,40	8,529
418,61	6,861
418,83	10,211
419,04	3,101
419,25	5,104
419,46	11,075
419,68	6,342
419,89	14,756
420,10	6,317
420,32	5,563
420,53	7,876
420,74	7,885
420,96	5,687
421,17	8,780
421,38	4,329
421,60	7,824
421,81	3,403
422,02	5,496
422,23	6,660
422,45	5,072
422,66	9,365
422,87	2,969
423,09	6,352
423,30	2,498
423,51	5,130
423,73	3,263
423,94	5,054
424,15	4,895
424,36	6,390
424,58	4,845
424,79	4,294
425,00	3,908
425,22	4,059
425,43	4,009
425,64	3,993
425,85	5,975
426,07	7,102
426,28	6,514
426,49	6,053
426,71	6,957
426,92	8,412
427,13	8,913
427,34	8,835
427,56	12,659
427,77	8,861
427,98	12,574
428,19	10,159
428,41	14,203
428,62	13,421
428,83	13,180
429,04	13,219
429,26	13,557
429,47	13,700
429,68	10,980
429,89	9,997
430,11	11,487
430,32	11,042
430,53	10,914
430,74	10,659
430,96	10,982
431,17	12,570
431,38	12,246
431,59	12,784
431,81	13,466
432,02	14,115
432,23	16,562
432,44	15,159
432,66	15,297
432,87	16,614
433,08	18,344
433,29	18,573
433,51	19,090
433,72	18,990
433,93	20,479
434,14	21,556
434,35	22,749
434,57	23,924
434,78	25,951
434,99	28,021
435,20	30,749
435,42	31,381
435,63	33,378
435,84	37,280
436,05	35,879
436,26	38,907
436,48	40,875
436,69	42,083
436,90	41,396
437,11	43,313
437,32	42,243
437,54	42,139
437,75	43,387
437,96	42,118
438,17	41,671
438,38	40,510
438,60	40,343
438,81	38,884
439,02	38,850
439,23	38,150
439,44	36,446
439,66	36,057
439,87	35,257
440,08	33,761
440,29	33,818
440,50	33,782
440,72	32,883
440,93	32,916
441,14	32,377
441,35	30,850
441,56	31,208
441,77	30,515
441,99	30,693
442,20	31,303
442,41	30,409
442,62	31,226
442,83	31,185
443,04	31,371
443,26	31,997
443,47	32,069
443,68	32,082
443,89	31,318
444,10	30,314
444,31	29,416
444,53	28,828
444,74	27,346
444,95	24,927
445,16	24,291
445,37	21,897
445,58	20,705
445,80	19,770
446,01	18,619
446,22	16,922
446,43	15,975
446,64	15,114
446,85	14,618
447,06	14,775
447,28	14,254
447,49	13,143
447,70	14,412
447,91	14,131
448,12	14,267
448,33	14,544
448,54	15,371
448,76	15,797
448,97	16,840
449,18	17,728
449,39	18,936
449,60	19,605
449,81	20,203
450,02	21,281
450,23	22,295
450,45	22,979
450,66	22,675
450,87	22,571
451,08	21,578
451,29	21,452
451,50	19,199
451,71	18,439
451,92	16,210
452,13	14,634
452,35	11,735
452,56	10,015
452,77	8,267
452,98	6,312
453,19	5,106
453,40	4,150
453,61	2,901
453,82	2,210
454,03	1,939
454,25	1,438
454,46	1,264
454,67	1,374
454,88	1,253
455,09	1,272
455,30	0,943
455,51	0,850
455,72	1,032
455,93	0,460
456,14	0,822
456,35	0,703
456,56	0,767
456,78	0,891
456,99	1,024
457,20	0,330
457,41	0,490
457,62	0,471
457,83	0,479
458,04	0,710
458,25	0,376
458,46	0,607
458,67	0,731
458,88	0,457
459,09	0,473
459,30	0,311
459,51	0,383
459,73	0,251
459,94	0,719
460,15	0,470
460,36	0,357
460,57	0,556
460,78	0,495
460,99	0,513
461,20	0,352
461,41	0,422
461,62	0,108
461,83	0,254
462,04	0,193
462,25	0,571
462,46	0,564
462,67	0,324
462,88	0,288
463,09	0,370
463,30	0,307
463,51	0,266
463,72	0,390
463,93	0,394
464,15	0,430
464,36	0,333
464,57	0,087
464,78	0,252
464,99	0,517
465,20	0,228
465,41	0,214
465,62	0,354
465,83	0,321
466,04	0,376
466,25	0,429
466,46	0,498
466,67	0,311
466,88	0,227
467,09	0,453
467,30	0,217
467,51	0,272
467,72	0,231
467,93	0,319
468,14	0,213
468,35	0,401
468,56	0,231
468,77	0,309
468,98	0,434
469,19	0,191
469,40	0,304
469,61	0,169
469,82	0,274
470,03	0,322
470,24	0,354
470,45	0,295
470,66	0,535
470,87	0,401
471,08	0,446
471,29	0,299
471,50	0,343
471,71	0,284
471,92	0,207
472,13	0,315
472,34	0,165
472,55	0,481
472,76	0,444
472,97	0,336
473,18	0,328
473,39	0,281
473,60	0,263
473,81	0,278
474,01	0,399
474,22	0,390
474,43	0,375
474,64	0,430
474,85	0,146
475,06	0,478
475,27	0,446
475,48	0,446
475,69	0,489
475,90	0,297
476,11	0,421
476,32	0,602
476,53	0,559
476,74	0,344
476,95	0,498
477,16	0,447
477,37	0,643
477,58	0,476
477,79	0,501
478,00	0,499
478,21	0,771
478,41	0,565
478,62	0,710
478,83	0,574
479,04	0,898
479,25	0,345
479,46	0,573
479,67	0,648
479,88	0,773
480,09	0,750
480,30	0,894
480,51	1,183
480,72	0,870
480,93	1,457
481,14	1,475
481,34	2,014
481,55	2,078
481,76	2,631
481,97	2,765
482,18	2,786
482,39	3,343
482,60	3,409
482,81	3,667
483,02	3,757
483,23	4,473
483,44	4,518
483,65	4,513
483,85	4,345
484,06	5,167
484,27	4,858
484,48	4,962
484,69	5,298
484,90	5,262
485,11	5,274
485,32	5,170
485,53	5,170
485,73	4,978
485,94	4,431
486,15	4,127
486,36	3,822
486,57	3,642
486,78	3,367
486,99	3,315
487,20	3,316
487,41	3,519
487,61	3,875
487,82	4,585
488,03	5,424
488,24	6,071
488,45	7,237
488,66	8,359
488,87	9,721
489,08	10,908
489,28	12,673
489,49	13,800
489,70	15,002
489,91	16,726
490,12	17,754
490,33	18,194
490,54	19,792
490,74	21,276
490,95	21,652
491,16	22,475
491,37	23,352
491,58	23,294
491,79	24,096
492,00	23,573
492,20	24,704
492,41	24,898
492,62	24,124
492,83	23,810
493,04	23,240
493,25	22,723
493,45	22,394
493,66	21,824
493,87	20,998
494,08	20,017
494,29	19,546
494,50	19,070
494,70	18,605
494,91	18,520
495,12	17,729
495,33	17,937
495,54	17,429
495,75	17,595
495,95	16,864
496,16	17,486
496,37	16,908
496,58	17,491
496,79	18,374
496,99	18,164
497,20	19,428
497,41	19,943
497,62	20,109
497,83	21,297
498,04	22,061
498,24	23,633
498,45	24,661
498,66	25,465
498,87	26,763
499,08	27,522
499,28	27,783
499,49	28,974
499,70	29,525
499,91	30,198
500,12	31,008
500,32	30,677
500,53	31,266
500,74	31,345
500,95	31,352
501,15	31,099
501,36	30,575
501,57	30,527
501,78	29,783
501,99	28,777
502,19	29,140
502,40	28,219
502,61	28,194
502,82	27,674
503,02	27,311
503,23	26,885
503,44	26,958
503,65	27,353
503,86	27,490
504,06	27,016
504,27	27,612
504,48	27,626
504,69	27,226
504,89	27,015
505,10	27,512
505,31	28,028
505,52	27,490
505,72	27,861
505,93	27,036
506,14	27,210
506,35	26,620
506,55	26,529
506,76	25,807
506,97	25,468
507,18	24,977
507,38	24,036
507,59	23,535
507,80	22,286
508,01	21,473
508,21	20,727
508,42	19,690
508,63	19,032
508,84	18,543
509,04	17,222
509,25	16,377
509,46	15,439
509,67	14,543
509,87	13,978
510,08	13,108
510,29	11,713
510,49	11,114
510,70	10,204
510,91	9,595
511,12	8,784
511,32	8,045
511,53	7,311
511,74	6,974
511,94	6,986
512,15	6,740
512,36	6,316
512,57	6,642
512,77	6,484
512,98	6,527
513,19	6,771
513,39	6,792
513,60	6,713
513,81	7,041
514,01	7,165
514,22	6,891
514,43	6,968
514,64	6,048
514,84	5,994
515,05	5,778
515,26	5,060
515,46	4,428
515,67	3,868
515,88	3,246
516,08	2,735
516,29	2,143
516,50	1,794
516,70	1,385
516,91	1,350
517,12	1,154
517,32	0,899
517,53	0,537
517,74	0,732
517,95	0,691
518,15	0,693
518,36	0,901
518,57	0,629
518,77	0,785
518,98	0,942
519,19	0,707
519,39	0,883
519,60	0,751
519,80	0,793
520,01	0,823
520,22	0,886
520,42	0,692
520,63	0,900
520,84	0,666
521,04	0,524
521,25	0,628
521,46	0,498
521,66	0,510
521,87	0,403
522,08	0,470
522,28	0,409
522,49	0,361
522,70	0,188
522,90	0,210
523,11	0,233
523,31	0,308
523,52	0,205
523,73	0,153
523,93	0,363
524,14	0,258
524,35	0,272
524,55	0,280
524,76	0,354
524,97	0,297
525,17	0,354
525,38	0,238
525,58	0,259
525,79	0,233
526,00	0,176
526,20	0,382
526,41	0,189
526,61	0,163
526,82	0,095
527,03	0,323
527,23	0,122
527,44	0,144
527,64	0,156
527,85	0,049
528,06	0,315
528,26	0,176
528,47	0,111
528,68	0,352
528,88	0,132
529,09	0,149
529,29	0,381
529,50	0,222
529,70	0,116
529,91	0,033
530,12	0,112
530,32	0,234
530,53	0,476
530,73	0,206
530,94	0,281
531,15	0,227
531,35	0,394
531,56	0,334
531,76	0,343
531,97	0,164
532,17	0,217
532,38	0,245
532,59	0,132
532,79	0,314
533,00	0,120
533,20	0,216
533,41	0,129
533,61	0,222
533,82	0,197
534,03	0,210
534,23	0,238
534,44	0,293
534,64	0,206
534,85	0,107
535,05	0,126
535,26	0,168
535,46	0,186
535,67	0,083
535,88	0,128
536,08	0,337
536,29	0,342
536,49	0,351
536,70	0,347
536,90	0,367
537,11	0,275
537,31	0,335
537,52	0,296
537,72	0,457
537,93	0,110
538,13	0,280
538,34	0,342
538,55	0,230
538,75	-0,004
538,96	0,390
539,16	0,086
539,37	0,150
539,57	0,313
539,78	0,227
539,98	0,279
540,19	0,214
540,39	0,130
540,60	0,012
540,80	0,081
541,01	0,344
541,21	0,305
541,42	0,251
541,62	0,361
541,83	0,192
542,03	0,191
542,24	0,285
542,44	0,196
542,65	0,065
542,85	0,250
543,06	0,328
543,26	0,192
543,47	0,288
543,67	0,196
543,88	0,291
544,08	0,020
544,29	0,196
544,49	0,237
544,70	-0,004
544,90	0,244
545,11	0,202
545,31	0,256
545,52	0,287
545,72	0,189
545,93	0,065
546,13	0,157
546,34	0,272
546,54	0,240
546,75	0,246
546,95	0,390
547,15	0,132
547,36	0,237
547,56	0,186
547,77	0,147
547,97	0,087
548,18	0,088
548,38	0,282
548,59	0,183
548,79	0,369
549,00	0,266
549,20	0,238
549,41	0,139
549,61	0,111
549,81	0,281
550,02	0,187
550,22	0,172
550,43	0,179
550,63	0,147
550,84	0,262
551,04	0,084
551,25	0,224
551,45	0,300
551,65	0,268
551,86	0,236
552,06	0,213
552,27	0,087
552,47	0,031
552,68	0,169
552,88	0,209
553,08	0,312
553,29	0,137
553,49	0,137
553,70	0,390
553,90	0,157
554,11	0,340
554,31	0,008
554,51	0,418
554,72	0,190
554,92	0,187
555,13	0,214
555,33	0,085
555,53	0,213
555,74	0,288
555,94	0,039
556,15	0,201
556,35	0,050
556,56	0,012
556,76	0,146
556,96	0,241
557,17	0,404
557,37	0,301
557,58	0,019
557,78	0,096
557,98	0,174
558,19	0,123
558,39	0,147
558,59	0,131
558,80	0,096
559,00	0,223
559,21	0,267
559,41	0,140
559,61	0,167
559,82	0,334
560,02	0,217
560,23	0,261
560,43	0,271
560,63	-0,073
560,84	0,237
561,04	0,267
561,24	0,225
561,45	0,192
561,65	0,130
561,85	0,179
562,06	0,190
562,26	0,114
562,47	0,265
562,67	0,223
562,87	0,049
563,08	0,296
563,28	0,283
563,48	0,110
563,69	0,246
563,89	0,271
564,09	0,046
564,30	0,201
564,50	0,098
564,70	0,262
564,91	0,095
565,11	0,064
565,31	0,201
565,52	0,068
565,72	0,256
565,92	0,191
566,13	0,101
566,33	0,282
566,53	0,212
566,74	0,041
566,94	0,114
567,14	0,163
567,35	0,094
567,55	0,173
567,75	0,350
567,96	0,263
568,16	0,256
568,36	0,067
568,57	0,204
568,77	0,030
568,97	0,176
569,18	0,208
569,38	-0,085
569,58	0,109
569,79	0,082
569,99	0,248
570,19	0,056
570,39	0,200
570,60	0,179
570,80	0,174
571,00	0,186
571,21	0,261
571,41	0,242
571,61	0,156
571,82	0,329
572,02	0,111
572,22	0,004
572,42	0,263
572,63	0,103
572,83	0,196
573,03	0,142
573,24	0,089
573,44	0,289
573,64	0,211
573,84	0,004
574,05	-0,004
574,25	0,193
574,45	0,166
574,66	0,302
574,86	0,167
575,06	0,189
575,26	0,071
575,47	0,229
575,67	0,081
575,87	0,148
576,07	0,092
576,28	0,258
576,48	0,170
576,68	0,292
576,88	0,093
577,09	0,151
577,29	0,323
577,49	0,108
577,69	0,011
577,90	0,157
578,10	0,077
578,30	0,169
578,50	0,062
578,71	0,162
578,91	0,074
579,11	0,235
579,31	0,240
579,52	0,163
579,72	0,184
579,92	0,188
580,12	0,129
580,33	0,203
580,53	0,277
580,73	0,267
580,93	0,159
581,13	0,145
581,34	0,143
581,54	0,270
581,74	0,237
581,94	0,272
582,15	0,192
582,35	-0,128
582,55	0,111
582,75	0,113
582,95	0,257
583,16	0,129
583,36	0,177
583,56	0,174
583,76	-0,007
583,96	0,213
584,17	0,126
584,37	0,151
584,57	0,204
584,77	0,029
584,97	0,018
585,18	0,280
585,38	-0,011
585,58	0,110
585,78	0,148
585,98	0,093
586,19	0,252
586,39	0,342
586,59	0,070
586,79	0,201
586,99	0,066
587,20	0,026
587,40	0,293
587,60	0,151
587,80	0,190
588,00	0,253
588,20	0,252
588,41	0,088
588,61	0,220
588,81	0,073
589,01	0,210
589,21	0,205
589,41	0,174
589,62	0,062
589,82	0,154
590,02	0,150
590,22	0,172
590,42	0,281
590,62	0,179
590,83	0,175
591,03	0,058
591,23	0,105
591,43	0,237
591,63	0,157
591,83	0,199
592,03	0,277
592,24	0,145
592,44	0,168
592,64	0,065
592,84	0,298
593,04	0,076
593,24	0,156
593,44	0,116
593,65	0,206
593,85	0,256
594,05	0,223
594,25	0,040
594,45	0,202
594,65	0,086
594,85	-0,025
595,06	0,178
595,26	0,365
595,46	0,018
595,66	0,140
595,86	0,115
596,06	0,133
596,26	0,199
596,46	0,291
596,66	0,221
596,87	0,340
597,07	0,076
597,27	0,145
597,47	0,281
597,67	0,134
597,87	0,214
598,07	0,154
598,27	0,125
598,47	0,305
598,67	0,187
598,88	0,150
599,08	0,229
599,28	0,354
599,48	0,248
599,68	0,235
599,88	0,416
600,08	0,429
600,28	0,446
600,48	0,497
600,68	0,466
600,88	0,717
601,09	0,788
601,29	0,841
601,49	0,670
601,69	0,835
601,89	0,930
602,09	1,053
602,29	1,104
602,49	1,117
602,69	1,392
602,89	1,287
603,09	1,415
603,29	1,625
603,49	1,645
603,69	1,509
603,90	1,484
604,10	1,659
604,30	1,720
604,50	1,688
604,70	1,647
604,90	1,592
605,10	1,598
605,30	1,468
605,50	1,357
605,70	1,604
605,90	1,120
606,10	1,231
606,30	1,118
606,50	1,311
606,70	0,965
606,90	0,786
607,10	0,706
607,30	0,815
607,50	0,801
607,70	0,773
607,90	0,767
608,10	0,594
608,30	0,463
608,50	0,339
608,70	0,460
608,90	0,415
609,11	0,288
609,31	0,322
609,51	0,258
609,71	0,246
609,91	0,043
610,11	0,286
610,31	0,254
610,51	0,303
610,71	0,149
610,91	0,247
611,11	0,204
611,31	0,219
611,51	0,203
611,71	0,008
611,91	0,343
612,11	0,318
612,31	0,285
612,51	0,291
612,71	0,175
612,91	0,206
613,11	0,342
613,31	0,356
613,51	0,183
613,71	0,254
613,91	0,266
614,11	0,475
614,31	0,197
614,50	0,359
614,70	0,272
614,90	0,283
615,10	0,280
615,30	0,425
615,50	0,131
615,70	0,531
615,90	0,348
616,10	0,339
616,30	0,139
616,50	0,365
616,70	0,228
616,90	0,201
617,10	0,362
617,30	0,179
617,50	0,336
617,70	0,180
617,90	0,282
618,10	0,257
618,30	0,265
618,50	0,293
618,70	0,248
618,90	0,135
619,10	0,176
619,30	-0,008
619,49	0,312
619,69	0,233
619,89	0,249
620,09	0,111
620,29	0,202
620,49	0,329
620,69	0,170
620,89	0,107
621,09	0,156
621,29	0,134
621,49	0,121
621,69	0,125
621,89	0,174
622,09	0,269
622,29	0,316
622,48	0,176
622,68	0,199
622,88	0,276
623,08	0,198
623,28	0,147
623,48	0,269
623,68	0,086
623,88	0,182
624,08	0,101
624,28	0,294
624,48	0,343
624,67	0,178
624,87	0,302
625,07	0,418
625,27	0,434
625,47	0,331
625,67	0,450
625,87	0,203
626,07	0,259
626,27	0,232
626,47	0,586
626,66	0,308
626,86	0,431
627,06	0,449
627,26	0,334
627,46	0,291
627,66	0,415
627,86	0,471
628,06	0,334
628,25	0,377
628,45	0,419
628,65	0,310
628,85	0,462
629,05	0,407
629,25	0,208
629,45	0,525
629,65	0,309
629,84	0,296
630,04	0,303
630,24	0,376
630,44	0,151
630,64	0,398
630,84	0,287
631,04	0,202
631,23	0,257
631,43	0,142
631,63	0,194
631,83	0,196
632,03	0,350
632,23	0,165
632,42	0,179
632,62	0,413
632,82	0,249
633,02	0,252
633,22	0,173
633,42	0,291
633,62	0,273
633,81	0,004
634,01	0,223
634,21	0,273
634,41	0,269
634,61	0,252
634,80	0,265
635,00	0,438
635,20	0,399
635,40	0,053
635,60	0,240
635,80	0,182
635,99	0,407
636,19	0,156
636,39	0,297
636,59	0,062
636,79	0,386
636,98	0,381
637,18	0,137
637,38	0,207
637,58	0,188
637,78	0,329
637,97	0,231
638,17	0,426
638,37	0,183
638,57	0,258
638,77	0,204
638,96	0,298
639,16	0,335
639,36	0,315
639,56	0,337
639,76	0,242
639,95	0,402
640,15	0,203
640,35	-0,061
640,55	0,453
640,75	0,433
640,94	0,188
641,14	0,512
641,34	0,241
641,54	0,252
641,73	0,288
641,93	0,646
642,13	0,322
642,33	0,378
642,53	0,622
642,72	0,396
642,92	0,599
643,12	0,439
643,32	0,495
643,51	0,815
643,71	-0,080
643,91	0,386
644,11	0,561
644,30	0,288
644,50	0,781
644,70	0,307
644,90	0,492
645,09	0,468
645,29	0,362
645,49	0,321
645,69	0,223
645,88	0,619
646,08	0,441
646,28	0,584
646,48	0,287
646,67	0,291
646,87	0,266
647,07	0,239
647,26	0,485
647,46	0,567
647,66	0,592
647,86	0,476
648,05	0,478
648,25	1,061
648,45	0,348
648,65	0,229
648,84	0,046
649,04	0,766
649,24	0,524
649,43	0,402
649,63	0,490
649,83	0,705
650,03	0,652
650,22	0,690
650,42	0,429
650,62	0,451
650,81	0,556
651,01	0,327
651,21	0,421
651,40	0,573
651,60	-0,065
651,80	0,498
652,00	0,488
652,19	0,311
652,39	0,504
652,59	0,403
652,78	0,304
652,98	-0,066
653,18	0,485
653,37	0,685
653,57	1,001
653,77	0,577
653,96	0,203
654,16	0,504
654,36	0,314
654,55	0,463
654,75	0,518
654,95	0,170
655,14	0,405
655,34	0,675
655,54	0,181
655,73	0,217
655,93	0,140
656,13	0,252
656,32	-0,159
656,52	0,733
656,72	0,608
656,91	0,653
657,11	0,233
657,31	0,174
657,50	0,336
657,70	0,538
657,90	0,730
658,09	0,738
658,29	0,666
658,49	0,271
658,68	0,339
658,88	0,357
659,07	0,566
659,27	0,288
659,47	0,279
659,66	0,353
659,86	-0,044
660,06	-0,069
660,25	0,256
660,45	0,347
660,64	0,518
660,84	0,331
661,04	0,403
661,23	0,369
661,43	0,395
661,63	0,026
661,82	0,173
662,02	0,660
662,21	0,183
662,41	0,630
662,61	0,854
662,80	0,237
663,00	0,277
663,19	0,376
663,39	0,319
663,59	0,525
663,78	0,241
663,98	0,598
664,17	0,503
664,37	0,543
664,57	0,566
664,76	0,323
664,96	0,204
665,15	0,221
665,35	0,339
665,55	0,367
665,74	0,455
665,94	0,852
666,13	0,175
666,33	0,591
666,53	0,810
666,72	0,708
666,92	0,445
667,11	0,990
667,31	0,165
667,50	0,745
667,70	0,452
667,90	0,327
668,09	0,648
668,29	0,638
668,48	0,683
668,68	0,593
668,87	0,508
669,07	0,128
669,26	0,409
669,46	0,465
669,66	0,380
669,85	0,450
670,05	0,418
670,24	0,416
670,44	0,236
670,63	0,257
670,83	0,273
671,02	0,477
671,22	0,589
671,42	0,417
671,61	0,401
671,81	0,454
672,00	0,666
672,20	0,243
672,39	0,375
672,59	0,338
672,78	0,407
672,98	0,346
673,17	0,371
673,37	0,225
673,56	0,210
673,76	0,153
673,95	0,357
674,15	0,260
674,34	0,500
674,54	0,556
674,73	0,348
674,93	0,248
675,13	0,634
675,32	0,428
675,52	0,588
675,71	0,446
675,91	0,490
676,10	0,371
676,30	0,233
676,49	0,210
676,69	0,522
676,88	0,132
677,08	0,301
677,27	0,456
677,47	0,631
677,66	0,789
677,86	0,653
678,05	0,537
678,24	0,604
678,44	0,809
678,63	0,691
678,83	0,693
679,02	0,940
679,22	1,154
679,41	1,238
679,61	1,243
679,80	1,421
680,00	1,398
680,19	1,919
680,39	1,782
680,58	1,795
680,78	1,642
680,97	2,106
681,17	2,389
681,36	2,325
681,56	2,672
681,75	2,811
681,94	2,860
682,14	3,422
682,33	3,459
682,53	3,454
682,72	3,564
682,92	3,920
683,11	3,817
683,31	4,165
683,50	4,006
683,69	4,369
683,89	4,358
684,08	4,527
684,28	4,321
684,47	4,788
684,67	4,410
684,86	4,552
685,06	4,600
685,25	4,334
685,44	4,310
685,64	4,433
685,83	4,329
686,03	3,871
686,22	3,735
686,42	3,840
686,61	3,613
686,80	3,193
687,00	3,036
687,19	3,055
687,39	2,760
687,58	2,538
687,77	2,464
687,97	2,247
688,16	2,096
688,36	1,747
688,55	1,613
688,74	1,413
688,94	1,422
689,13	1,282
689,33	1,145
689,52	1,125
689,71	0,993
689,91	0,829
690,10	0,729
690,30	0,571
690,49	0,589
690,68	0,667
690,88	0,634
691,07	0,428
691,27	0,333
691,46	0,556
691,65	0,359
691,85	0,279
692,04	0,352
692,23	0,178
692,43	0,265
692,62	0,439
692,82	0,349
693,01	0,283
693,20	0,347
693,40	0,268
693,59	0,187
693,78	0,275
693,98	0,126
694,17	0,075
694,36	0,328
694,56	0,227
694,75	0,175
694,94	0,192
695,14	0,153
695,33	0,418
695,53	0,365
695,72	0,256
695,91	0,079
696,11	0,151
696,30	0,327
696,49	0,298
696,69	0,122
696,88	0,127
697,07	0,125
697,27	0,181
697,46	0,440
697,65	0,136
697,85	-0,035
698,04	0,260
698,23	0,176
698,43	0,661
698,62	-0,026
698,81	0,256
699,01	0,403
699,20	0,126
699,39	0,339
699,58	0,218
699,78	0,161
699,97	0,251
700,16	0,307
700,36	0,342
700,55	0,716
700,74	0,797
700,94	0,458
701,13	0,559
701,32	0,068
701,52	0,379
701,71	0,481
701,90	1,036
702,09	0,846
702,29	0,874
702,48	0,319
702,67	0,654
702,87	0,961
703,06	0,964
703,25	1,065
703,44	0,645
703,64	0,442
703,83	0,960
704,02	1,513
704,22	0,841
704,41	0,681
704,60	0,483
704,79	0,337
704,99	1,357
705,18	1,474
705,37	1,500
705,56	0,959
705,76	1,770
705,95	1,178
706,14	1,219
706,33	1,183
706,53	0,994
706,72	0,481
706,91	2,123
707,11	1,332
707,30	1,841
707,49	1,369
707,68	1,137
707,88	0,874
708,07	0,049
708,26	0,721
708,45	0,986
708,64	1,792
708,84	0,485
709,03	1,487
709,22	-0,056
709,41	3,103
709,61	1,160
709,80	2,966
709,99	1,562
710,18	2,775
710,38	0,535
710,57	1,144
710,76	0,229
710,95	1,420
711,14	1,754
711,34	1,824
711,53	1,995
711,72	1,892
711,91	1,292
712,11	2,238
712,30	0,192
712,49	0,766
712,68	0,198
712,87	1,224
713,07	2,288
713,26	1,000
713,45	0,666
713,64	2,270
713,83	2,023
714,03	0,671
714,22	2,805
714,41	3,259
714,60	0,047
714,79	-0,240
714,99	1,847
715,18	2,440
715,37	4,730
715,56	1,947
715,75	3,302
715,94	4,872
716,14	5,255
716,33	2,185
716,52	2,987
716,71	3,294
716,90	2,053
717,10	-0,223
717,29	0,450
717,48	0,612
717,67	3,328
717,86	4,268
718,05	3,806
718,24	4,102
718,44	4,673
718,63	-0,608
718,82	3,435
719,01	2,366
719,20	1,905
719,39	6,275
719,59	0,260
719,78	3,808
719,97	0,000
720,16	5,914
720,35	1,583
720,54	0,140
720,73	3,208
720,93	1,229
721,12	0,934
721,31	3,936
721,50	6,691
721,69	3,643
721,88	7,143
722,07	1,650
722,27	6,167
722,46	3,823
722,65	1,986
722,84	0,161
723,03	4,395
723,22	2,740
723,41	2,492
723,60	3,189
723,79	9,736
723,99	4,443
724,18	3,719
724,37	2,997
724,56	5,111
724,75	5,304
724,94	7,010
725,13	3,605
725,32	8,821
725,51	2,698
725,71	5,501
725,90	4,726
726,09	4,658
726,28	4,290
726,47	0,296
726,66	4,332
726,85	7,299
727,04	2,956
727,23	5,731
727,42	7,209
727,61	7,407
727,81	2,054
728,00	5,094
728,19	3,142
728,38	-0,109
728,57	4,479
728,76	3,863
728,95	13,542
729,14	8,874
729,33	6,452
729,52	2,700
729,71	4,664
729,90	8,132
730,09	6,440
730,28	3,727
730,48	6,546
730,67	6,250
730,86	7,092
731,05	2,450
731,24	1,463
731,43	6,969
731,62	8,477
731,81	1,703
732,00	4,431
732,19	5,529
732,38	3,462
732,57	2,200
732,76	2,326
732,95	4,118
733,14	-4,304
733,33	-0,132
733,52	6,601
733,71	4,017
733,90	-0,565
734,09	8,108
734,28	4,987
734,47	8,472
734,66	4,679
734,85	4,429
735,04	4,422
735,23	8,683
735,42	9,016
735,61	11,224
735,81	11,982
736,00	7,692
736,19	7,903
736,38	0,449
736,57	10,837
736,76	9,051
736,95	5,732
737,14	11,005
737,33	7,214
737,52	7,846
737,71	4,426
737,90	6,028
738,09	9,741
738,28	8,670
738,47	5,839
738,66	6,571
738,85	8,108
739,04	6,690
739,22	7,860
739,41	4,779
739,60	3,754
739,79	3,058
739,98	2,330
740,17	12,287
740,36	5,063
740,55	14,172
740,74	19,383
740,93	8,413
741,12	1,964
741,31	4,754
741,50	1,701
741,69	12,566
741,88	6,917
742,07	17,210
742,26	7,810
742,45	14,754
742,64	11,517
742,83	13,805
743,02	3,579
743,21	13,899
743,40	4,348
743,59	10,846
743,78	5,675
743,97	10,577
744,16	17,520
744,34	1,166
744,53	13,402
744,72	13,987
744,91	-1,891
745,10	8,805
745,29	10,887
745,48	17,727
745,67	10,478
745,86	14,128
746,05	8,057
746,24	5,361
746,43	7,495
746,62	17,672
746,81	6,067
747,00	11,816
747,18	13,725
747,37	16,421
747,56	22,118
747,75	-0,739
747,94	18,447
748,13	21,924
748,32	10,238
748,51	27,665
748,70	14,537
748,89	12,178
749,08	1,453
749,26	14,758
749,45	11,260
749,64	10,076
749,83	12,584
750,02	5,435
750,21	9,160
750,40	30,162
750,59	5,898
750,78	6,484
750,96	10,497
751,15	18,458
751,34	9,375
751,53	8,743
751,72	16,620
751,91	20,207
752,10	8,901
752,29	20,267
752,47	10,315
752,66	11,429
752,85	19,399
753,04	5,307
753,23	0,929
753,42	15,903
753,61	18,182
753,80	8,591
753,98	19,949
754,17	13,070
754,36	7,419
754,55	16,566
754,74	-0,974
754,93	20,937
755,12	24,036
755,30	7,468
755,49	16,860
755,68	28,221
755,87	4,438
756,06	13,194
756,25	17,021
756,43	0,671
756,62	17,702
756,81	17,881
757,00	4,934
757,19	4,514
757,38	14,672
757,56	-4,400
757,75	8,532
757,94	-0,760
758,13	11,986
758,32	13,353
758,51	13,131
758,69	12,355
758,88	11,785
759,07	23,952
759,26	13,781
759,45	21,053
759,63	31,602
759,82	22,807
760,01	19,414
760,20	29,560
760,39	39,117
760,57	5,575
760,76	12,195
760,95	13,889
761,14	9,124
761,33	26,452
761,51	21,429
761,70	18,216
761,89	3,111
762,08	22,677
762,27	12,274
762,45	19,203
762,64	10,050
762,83	27,888
763,02	6,087
763,21	-9,000
763,39	23,776
763,58	13,383
763,77	19,409
763,96	15,139
764,14	27,500
764,33	15,238
764,52	44,196
764,71	20,984
764,89	45,089
765,08	20,197
765,27	8,085
765,46	36,323
765,65	24,314
765,83	32,127
766,02	4,762
766,21	14,754
766,40	35,409
766,58	24,339
766,77	25,229
766,96	38,618
767,15	17,647
767,33	27,053
767,52	23,144
767,71	26,316
767,90	14,070
768,08	39,521
768,27	32,927
768,46	37,281
768,64	17,130
768,83	26,961
769,02	28,079
769,21	27,083
769,39	50,000
769,58	33,333
769,77	34,043
769,96	34,685
770,14	25,683
770,33	20,561
770,52	52,518
770,70	31,892
770,89	31,892
771,08	4,819
771,27	28,947
771,45	25,882
771,64	56,364
771,83	34,314
772,01	46,392
772,20	47,761
772,39	24,051
772,57	31,343
772,76	0,676
772,95	21,264
773,14	37,415
773,32	30,508
773,51	20,238
773,70	56,115
773,88	3,226
774,07	43,147
774,26	11,290
774,44	48,872
774,63	37,725
774,82	-4,545
775,00	27,103
775,19	5,357
775,38	16,489
775,56	41,615
775,75	25,275
775,94	16,667
776,12	31,373
776,31	-19,549
776,50	14,384
776,68	33,333
776,87	40,670
777,06	37,107
777,24	37,815
777,43	49,198
777,62	38,764
777,80	29,560
777,99	59,167
778,18	31,609
778,36	81,356
778,55	40,678
778,74	51,562
778,92	29,630
779,11	50,909
779,29	9,220
779,48	16,312
779,67	63,964
779,85	15,789
780,04	40,580
780,23	44,048
780,41	60,169
780,60	27,517
780,79	8,065
780,97	24,837
781,16	31,915
781,34	27,027
781,53	64,286
781,72	35,135
781,90	23,952
782,09	-8,140
782,28	56,463
782,46	52,857
782,65	56,338
782,83	34,591
783,02	70,175
783,21	28,571
783,39	48,739
783,58	75,652
783,76	52,381
783,95	78,873
784,14	59,211
784,32	12,941
784,51	62,838
784,69	17,969
784,88	46,729
785,06	33,775
785,25	24,823
785,44	59,677
785,62	23,571
785,81	22,222
785,99	26,316
786,18	27,027
786,37	54,945
786,55	36,806
786,74	43,636
786,92	13,986
787,11	38,889
787,29	68,750
787,48	49,462
787,67	49,057
787,85	82,278
788,04	29,730
788,22	41,584
788,41	61,417
788,59	61,184
788,78	34,066
788,96	42,975
789,15	42,500
789,34	63,462
789,52	45,161
789,71	64,029
789,89	14,286
790,08	61,250
790,26	71,975
790,45	133,333
790,63	26,437
790,82	46,154
791,00	27,434
791,19	37,600
791,38	10,476
791,56	79,091
791,75	-36,111
791,93	57,000
792,12	41,739
792,30	46,715
792,49	28,283
792,67	27,941
792,86	49,600
793,04	56,481
793,23	55,789
793,41	62,319
793,60	50,694
793,78	26,667
793,97	68,056
794,15	72,180
794,34	78,667
794,52	31,183
794,71	72,868
794,89	31,818
795,08	63,200
795,26	61,333
795,45	77,778
795,63	27,419
795,82	26,374
796,00	63,000
796,19	69,106
796,37	25,191
796,56	29,126
796,74	22,105
796,93	125,758
797,11	59,036
797,30	33,333
797,48	32,812
797,67	49,593
797,85	61,538
798,04	33,898
798,22	102,564
798,41	25,000
798,59	35,238
798,77	40,964
798,96	45,062
799,14	43,548
799,33	37,615
799,51	52,778
799,70	49,231
799,88	114,679
800,07	51,145
800,25	39,759
800,44	88,889
800,62	20,833
800,80	52,113
800,99	89,041
801,17	16,379
801,36	67,857
801,54	56,000
801,73	50,526
801,91	86,777
802,10	47,059
802,28	32,800
802,46	-3,947
802,65	52,518
802,83	112,000
803,02	60,484
803,20	62,651
803,39	26,437
803,57	48,031
803,75	62,602
803,94	22,222
804,12	86,897
804,31	46,377
804,49	44,000
804,67	33,088
804,86	46,903
805,04	59,036
805,23	67,257
805,41	72,500
805,59	82,877
805,78	66,400
805,96	32,530
806,15	50,495
806,33	97,368
806,51	44,000
806,70	44,361
806,88	83,721
807,07	59,459
807,25	31,868
807,43	91,964
807,62	55,752
807,80	52,381
807,99	70,769
808,17	28,346
808,35	69,000
808,54	48,551
808,72	51,351
808,90	40,411
809,09	57,609
809,27	70,667
809,46	87,912
809,64	70,732
809,82	47,682
810,01	76,562
810,19	75,758
810,37	71,094
810,56	110,000
810,74	84,416
810,92	41,333
811,11	21,053
811,29	38,679
811,48	46,154
811,66	53,933
811,84	7,692
812,03	42,623
812,21	51,754
812,39	49,565
812,58	91,579
812,76	58,993
812,94	37,349
813,13	27,660
813,31	67,000
813,49	57,407
813,68	8,182
813,86	25,843
814,04	72,727
814,23	30,120
814,41	-2,247
814,59	74,757
814,78	72,794
814,96	57,233
815,14	28,037
815,33	43,411
815,51	47,244
815,69	16,190
815,87	51,485
816,06	71,304
816,24	60,248
816,42	66,912
816,61	50,314
816,79	40,517
816,97	40,909
817,16	39,053
817,34	84,921
817,52	57,025
817,70	82,178
817,89	38,519
818,07	60,274
818,25	42,857
818,44	98,718
818,62	54,264
818,80	42,105
818,98	65,605
819,17	58,824
819,35	38,298
819,53	67,910
819,72	52,532
819,90	51,163
820,08	11,966
820,26	76,724
820,45	36,242
820,63	97,321
820,81	68,800
820,99	53,191
821,18	44,898
821,36	52,532
821,54	61,379
821,73	60,000
821,91	50,877
822,09	25,000
822,27	49,677
822,46	53,676
822,64	23,200
822,82	61,326
823,00	13,812
823,19	31,319
823,37	53,939
823,55	34,659
823,73	58,621
823,91	46,377
824,10	48,387
824,28	57,286
824,46	-1,942
824,64	36,184
824,83	62,112
825,01	32,667
825,19	34,677
825,37	51,304
825,56	38,679
825,74	46,939
825,92	49,045
826,10	57,955
826,28	47,619
826,47	28,947
826,65	43,262
826,83	56,034
827,01	41,040
827,19	27,976
827,38	31,481
827,56	32,955
827,74	21,788
827,92	37,791
828,10	25,641
828,29	48,521
828,47	42,276
828,65	23,077
828,83	14,545
829,01	30,435
829,20	48,901
829,38	55,682
829,56	55,978
829,74	50,314
829,92	34,921
830,10	32,184
830,29	23,618
830,47	26,131
830,65	0,000
830,83	28,125
831,01	29,167
831,20	50,000
831,38	36,364
831,56	26,977
831,74	55,924
831,92	44,079
832,10	29,524
832,29	48,649
832,47	13,483
832,65	30,882
832,83	33,333
833,01	27,500
833,19	42,534
833,37	39,819
833,56	27,004
833,74	47,549
833,92	24,537
834,10	29,876
834,28	40,084
834,46	37,557
834,64	32,407
834,83	35,000
835,01	24,066
835,19	38,800
835,37	22,314
835,55	8,854
835,73	32,020
835,91	31,365
836,09	29,278
836,28	53,875
836,46	8,800
836,64	38,722
836,82	19,005
837,00	19,203
837,18	23,048
837,36	37,450
837,54	38,182
837,72	24,569
837,91	23,507
838,09	31,076
838,27	21,000
838,45	19,504
838,63	20,956
838,81	21,519
838,99	39,516
839,17	32,770
839,35	19,504
839,53	31,930
839,72	33,459
839,90	37,113
840,08	32,000
840,26	25,397
840,44	36,858
840,62	25,862
840,80	31,293
840,98	29,020
841,16	28,137
841,34	24,415
841,52	33,333
841,70	44,615
841,89	33,468
842,07	37,304
842,25	42,529
842,43	33,190
842,61	35,439
842,79	44,633
842,97	20,521
843,15	30,693
843,33	33,754
843,51	34,639
843,69	43,305
843,87	26,866
844,05	37,082
844,23	39,339
844,41	25,705
844,59	48,415
844,77	30,812
844,95	49,133
845,13	42,154
845,31	26,163
845,50	45,812
845,68	51,447
845,86	46,552
846,04	56,704
846,22	25,068
846,40	44,624
846,58	48,148
846,76	51,075
846,94	48,130
847,12	46,632
847,30	31,701
847,48	37,461
847,66	45,320
847,84	32,514
848,02	51,932
848,20	46,512
848,38	47,578
848,56	60,227
848,74	47,255
848,92	26,683
849,10	39,750
849,28	32,996
849,46	56,267
849,64	45,497
849,82	43,519
850,00	58,411
850,18	39,149
850,36	37,307
850,54	42,607
850,72	44,473
850,90	48,478
851,08	38,512
851,26	49,015
851,44	30,531
851,62	42,558
851,80	44,493
851,98	48,132
852,16	52,955
852,34	29,897
852,52	37,946
852,70	38,497
852,87	44,064
853,05	37,622
853,23	38,144
853,41	42,177
853,59	42,324
853,77	46,825
853,95	54,852
854,13	40,708
854,31	46,817
854,49	41,118
854,67	38,229
854,85	40,166
855,03	52,104
855,21	53,895
855,39	40,644
855,57	33,333
855,75	55,109
855,93	49,216
856,11	48,549
856,28	50,000
856,46	50,712
856,64	49,714
856,82	43,471
857,00	46,450
857,18	46,390
857,36	43,170
857,54	42,042
857,72	39,825
857,90	40,406
858,08	52,157
858,26	42,857
858,44	44,055
858,61	36,760
858,79	43,080
858,97	46,903
859,15	46,285
859,33	37,187
859,51	47,069
859,69	37,567
859,87	31,796
860,05	37,123
860,23	35,552
860,40	35,231
860,58	32,295
860,76	27,302
860,94	36,423
861,12	30,154
861,30	35,008
861,48	32,143
861,66	27,778
861,84	27,354
862,01	36,082
862,19	34,068
862,37	25,719
862,55	30,692
862,73	22,910
862,91	22,761
863,09	25,446
863,27	24,569
863,44	17,772
863,62	21,875
863,80	23,066
863,98	21,958
864,16	21,965
864,34	26,874
864,52	28,418
864,69	23,977
864,87	20,550
865,05	23,401
865,23	19,869
865,41	27,285
865,59	18,170
865,76	23,286
865,94	24,419
866,12	22,839
866,30	15,708
866,48	24,235
866,66	17,473
866,83	27,226
867,01	20,716
867,19	23,537
867,37	17,853
867,55	17,802
867,73	18,990
867,90	17,126
868,08	22,491
868,26	22,794
868,44	23,329
868,62	25,061
868,79	22,451
868,97	21,537
869,15	16,589
869,33	23,687
869,51	23,577
869,69	23,415
869,86	30,292
870,04	32,069
870,22	28,978
870,40	32,281
870,57	30,796
870,75	30,497
870,93	29,053
871,11	26,407
871,29	32,648
871,46	27,704
871,64	31,381
871,82	29,925
872,00	33,745
872,18	26,371
872,35	31,426
872,53	29,057
872,71	29,898
872,89	31,953
873,06	30,841
873,24	29,389
873,42	28,274
873,60	27,503
873,77	27,914
873,95	29,162
874,13	26,850
874,31	28,070
874,49	27,783
874,66	23,872
874,84	27,382
875,02	26,214
875,20	27,783
875,37	26,405
875,55	24,714
875,73	20,892
875,91	22,305
876,08	19,013
876,26	21,201
876,44	25,109
876,61	22,885
876,79	25,547
876,97	18,157
877,15	21,322
877,32	22,251
877,50	18,957
877,68	13,710
877,86	13,764
878,03	21,175
878,21	15,360
878,39	17,562
878,56	12,314
878,74	15,291
878,92	12,914
879,10	14,297
879,27	13,416
879,45	14,374
879,63	12,345
879,80	13,174
879,98	7,976
880,16	12,373
880,34	12,528
880,51	6,625
880,69	9,226
880,87	12,606
881,04	9,262
881,22	10,123
881,40	7,838
881,57	8,076
881,75	7,964
881,93	7,470
882,10	8,011
882,28	8,828
882,46	5,479
882,63	6,097
882,81	8,895
882,99	8,475
883,16	7,030
883,34	4,813
883,52	6,908
883,69	6,477
883,87	3,971
884,05	6,638
884,22	7,045
884,40	6,581
884,58	3,482
884,75	7,692
884,93	7,360
885,11	8,065
885,28	3,930
885,46	4,305
885,64	3,616
885,81	5,948
885,99	6,010
886,17	4,773
886,34	5,463
886,52	6,410
886,70	8,014
886,87	5,220
887,05	6,734
887,22	4,649
887,40	6,978
887,58	4,490
887,75	5,780
887,93	2,365
888,11	5,917
888,28	6,210
888,46	6,435
888,63	5,274
888,81	5,107
888,99	6,970
889,16	8,059
889,34	4,076
889,51	4,702
889,69	5,242
889,87	7,803
890,04	5,369
890,22	6,875
890,39	4,268
890,57	8,615
890,75	4,628
890,92	5,778
891,10	5,675
891,27	7,707
891,45	7,739
891,63	7,476
891,80	7,533
891,98	7,540
892,15	6,276
892,33	7,430
892,51	8,173
892,68	7,654
892,86	6,338
893,03	8,238
893,21	8,518
893,38	6,080
893,56	7,872
893,74	9,316
893,91	7,376
894,09	8,171
894,26	10,004
894,44	7,007
894,61	7,912
894,79	7,261
894,96	8,447
895,14	7,966
895,32	7,321
895,49	6,860
895,67	7,770
895,84	6,602
896,02	6,186
896,19	5,912
896,37	7,983
896,54	7,794
896,72	6,981
896,89	7,966
897,07	8,923
897,25	7,213
897,42	6,918
897,60	9,051
897,77	7,763
897,95	7,155
898,12	8,197
898,30	5,954
898,47	5,629
898,65	3,446
898,82	5,983
899,00	3,814
899,17	5,516
899,35	4,019
899,52	7,455
899,70	5,570
899,87	3,742
900,05	5,213
900,22	6,057
900,40	4,198
900,57	4,490
900,75	5,006
900,92	3,745
901,10	4,726
901,27	2,702
901,45	6,105
901,62	4,309
901,80	3,284
901,97	2,806
902,15	3,588
902,32	4,096
902,50	2,404
902,67	5,844
902,85	2,781
903,02	3,383
903,20	3,710
903,37	2,918
903,54	4,023
903,72	3,659
903,89	2,493
904,07	2,103
904,24	4,244
904,42	1,585
904,59	1,857
904,77	3,219
904,94	1,062
905,12	1,630
905,29	2,353
905,47	2,684
905,64	3,383
905,81	2,157
905,99	2,170
906,16	-0,347
906,34	1,986
906,51	2,729
906,69	3,727
906,86	2,513
907,03	3,128
907,21	0,930
907,38	3,199
907,56	3,681
907,73	1,906
907,91	2,126
908,08	3,878
908,25	2,776
908,43	1,376
908,60	1,165
908,78	1,672
908,95	1,873
909,13	3,833
909,30	2,434
909,47	1,207
909,65	3,606
909,82	2,920
910,00	1,889
910,17	1,886
910,34	2,341
910,52	1,183
910,69	2,902
910,87	2,412
911,04	1,454
911,21	3,816
911,39	1,824
911,56	2,335
911,73	2,374
911,91	2,293
912,08	2,770
912,26	0,815
912,43	2,930
912,60	1,314
912,78	2,089
912,95	2,759
913,13	1,559
913,30	3,885
913,47	3,128
913,65	2,400
913,82	2,046
913,99	1,484
914,17	1,202
914,34	1,866
914,51	3,029
914,69	1,463
914,86	2,340
915,03	1,210
915,21	1,177
915,38	2,689
915,56	1,612
915,73	0,853
915,90	2,006
916,08	3,791
916,25	1,227
916,42	1,944
916,60	3,141
916,77	2,675
916,94	2,336
917,12	2,928
917,29	1,792
917,46	1,977
917,64	2,782
917,81	2,300
917,98	1,365
918,16	2,515
918,33	1,165
918,50	3,121
918,67	2,645
918,85	2,038
919,02	2,176
919,19	2,684
919,37	3,431
919,54	2,580
919,71	3,917
919,89	2,683
920,06	4,790
920,23	2,763
920,41	3,741
920,58	3,873
920,75	4,798
920,92	2,688
921,10	3,927
921,27	4,474
921,44	6,153
921,62	5,293
921,79	6,056
921,96	5,494
922,13	6,732
922,31	6,954
922,48	6,578
922,65	5,981
922,82	6,979
923,00	8,643
923,17	9,484
923,34	9,017
923,52	9,338
923,69	10,947
923,86	10,654
924,03	11,158
924,21	10,324
924,38	10,481
924,55	12,108
924,72	10,487
924,90	12,043
925,07	12,621
925,24	12,662
925,41	12,494
925,59	11,487
925,76	11,291
925,93	12,537
926,10	13,200
926,28	12,367
926,45	13,025
926,62	11,722
926,79	14,006
926,96	13,712
927,14	13,672
927,31	13,264
927,48	11,893
927,65	12,930
927,83	12,688
928,00	12,470
928,17	12,362
928,34	12,364
928,51	12,360
928,69	11,902
928,86	11,650
929,03	12,033
929,20	11,644
929,37	11,636
929,55	11,859
929,72	11,929
929,89	12,565
930,06	11,686
930,23	11,838
930,41	11,303
930,58	10,393
930,75	10,044
930,92	11,524
931,09	10,956
931,27	9,761
931,44	9,718
931,61	9,986
931,78	9,598
931,95	9,143
932,12	8,978
932,30	8,582
932,47	7,881
932,64	8,404
932,81	7,343
932,98	7,258
933,16	6,690
933,33	6,646
933,50	6,331
933,67	6,122
933,84	7,255
934,01	6,322
934,18	6,908
934,36	5,207
934,53	5,835
934,70	4,465
934,87	4,675
935,04	5,364
935,21	4,380
935,38	3,426
935,56	4,281
935,73	4,032
935,90	3,829
936,07	3,298
936,24	4,271
936,41	3,214
936,58	2,807
936,76	3,183
936,93	2,993
937,10	3,815
937,27	3,476
937,44	3,246
937,61	3,055
937,78	3,327
937,95	3,348
938,13	3,245
938,30	3,189
938,47	3,631
938,64	2,841
938,81	1,968
938,98	3,391
939,15	2,815
939,32	2,638
939,49	2,927
939,66	2,763
939,84	2,524
940,01	2,857
940,18	3,623
940,35	2,034
940,52	3,452
940,69	2,975
940,86	3,938
941,03	3,112
941,20	3,869
941,37	2,763
941,54	4,770
941,71	5,230
941,89	5,202
942,06	5,051
942,23	4,259
942,40	5,388
942,57	4,522
942,74	5,527
942,91	6,930
943,08	7,199
943,25	6,525
943,42	6,374
943,59	7,739
943,76	7,722
943,93	6,390
944,10	7,111
944,27	7,745
944,44	8,664
944,61	10,097
944,79	10,684
944,96	10,880
945,13	10,026
945,30	10,877
945,47	11,462
945,64	11,720
945,81	13,210
945,98	14,247
946,15	14,047
946,32	14,653
946,49	14,421
946,66	15,141
946,83	15,393
947,00	16,628
947,17	16,277
947,34	16,937
947,51	17,198
947,68	17,750
947,85	17,002
948,02	17,101
948,19	18,203
948,36	18,116
948,53	16,565
948,70	17,959
948,87	18,987
949,04	19,609
949,21	17,252
949,38	20,088
949,55	19,253
949,72	19,915
949,89	18,382
950,06	17,913
950,23	18,163
950,40	17,769
950,57	19,148
950,74	18,979
950,91	18,599
951,08	19,102
951,25	18,287
951,42	18,877
951,59	17,477
951,76	18,623
951,93	17,585
952,10	17,453
952,27	17,322
952,44	16,890
952,61	16,813
952,77	17,896
952,94	19,273
953,11	18,657
953,28	18,724
953,45	19,059
953,62	17,182
953,79	17,531
953,96	15,520
954,13	16,860
954,30	16,405
954,47	15,153
954,64	14,866
954,81	16,237
954,98	13,146
955,15	13,362
955,32	12,943
955,49	14,249
955,65	14,505
955,82	12,429
955,99	12,095
956,16	16,340
956,33	8,114
956,50	10,177
956,67	10,675
956,84	14,488
957,01	12,612
957,18	14,068
957,35	10,066
957,52	12,604
957,68	11,799
957,85	11,840
958,02	10,009
958,19	9,091
958,36	15,685
958,53	13,503
958,70	9,488
958,87	6,687
959,04	7,464
959,21	16,783
959,37	8,749
959,54	9,948
959,71	11,391
959,88	6,163
960,05	12,806
960,22	8,302
960,39	11,432
960,56	8,184
960,72	10,249
960,89	10,201
961,06	8,726
961,23	8,716
961,40	14,831
961,57	10,064
961,74	7,680
961,90	11,030
962,07	14,798
962,24	14,446
962,41	4,655
962,58	9,365
962,75	12,821
962,92	12,281
963,08	3,333
963,25	1,992
963,42	16,064
963,59	14,784
963,76	8,946
963,93	7,332
964,10	14,027
964,26	16,190
964,43	13,023
964,60	0,000
964,77	21,924
964,94	22,716
965,10	14,763
965,27	16,760
965,44	16,190
965,61	25,000
965,78	19,565
965,95	19,900
966,11	26,970
966,28	24,581
966,45	24,183
966,62	5,575
966,79	18,430
966,95	22,776
967,12	27,619
967,29	29,630
967,46	41,993
967,63	23,137
967,79	38,591
967,96	30,275
968,13	40,952
968,30	57,202
968,47	41,923
968,63	37,745
968,80	36,782
968,97	37,572
969,14	43,503
969,31	47,449
969,47	32,609
969,64	27,473
969,81	33,548
969,98	36,316
970,14	29,570
970,31	35,220
970,48	63,087
970,65	37,190
970,81	60,140
970,98	54,687
971,15	84,848
971,32	36,364
971,48	89,881
971,65	46,358
971,82	45,455
971,99	40,506
972,15	50,000
972,32	77,083
972,49	56,557
972,66	47,107
972,82	45,205
972,99	66,250
973,16	70,861
973,33	51,111
973,49	68,293
973,66	69,524
973,83	74,074
974,00	79,747
974,16	118,182
974,33	98,667
974,50	122,222
974,67	85,714
974,83	89,796
975,00	105,455
975,17	162,903
975,33	105,747
975,50	109,836
975,67	163,462
975,84	119,512
976,00	77,632
976,17	110,870
976,34	61,176
976,50	68,132
976,67	77,381
976,84	177,083
977,00	83,333
977,17	160,000
977,34	142,308
977,50	107,143
977,67	132,941
977,84	174,576
978,01	97,297
978,17	113,793
978,34	107,407
978,51	208,000
978,67	171,429
978,84	76,364
979,01	42,105
979,17	74,286
979,34	178,261
979,51	179,545
979,67	291,667
979,84	111,864
980,01	138,462
980,17	50,000
980,34	115,068
980,51	477,778
980,67	102,222
980,84	97,143
981,01	247,059
981,17	102,941
981,34	194,286
981,50	101,053
981,67	188,095
981,84	167,857
982,00	3400,000
982,17	162,500
982,34	248,780
982,50	0,000
982,67	-514,286
982,84	580,000
983,00	109,259
983,17	-1014,286
983,33	155,556
983,50	82,927
983,67	98,551
983,83	304,762
984,00	291,304
984,17	666,667
984,33	-364,286
984,50	167,568
984,66	150,000
984,83	825,000
985,00	238,462
985,16	161,290
985,33	2300,000
985,49	131,395
985,66	140,000
985,83	-2166,667
985,99	555,556
986,16	457,895
986,32	65,753
986,49	-280,000
986,66	660,000
986,82	178,788
986,99	-640,000
987,15	209,091
987,32	476,471
987,49	214,286
987,65	-234,783
987,82	-250,000
987,98	131,818
988,15	685,714
988,31	185,714
988,48	188,235
988,65	290,000
988,81	103,636
988,98	264,865
989,14	320,000
989,31	166,102
989,47	-32,143
989,64	266,667
989,80	109,574
989,97	158,182
990,14	564,286
990,30	-950,000
990,47	-162,500
990,63	192,105
990,80	1183,333
990,96	916,667
991,13	233,333
991,29	139,216
991,46	116,667
991,62	0,000
991,79	-370,000
991,95	329,412
992,12	983,333
992,29	-261,905
992,45	226,190
992,62	-142,857
992,78	-750,000
992,95	254,839
993,11	1262,500
993,28	-2200,000
993,44	-151,724
993,61	145,614
993,77	0,000
993,94	223,077
994,10	1000,000
994,27	5,263
994,43	303,125
994,60	742,857
994,76	257,576
994,93	-680,000
995,09	-468,750
995,26	420,833
995,42	825,000
995,59	210,000
995,75	-900,000
995,92	-442,857
996,08	-1600,000
996,25	230,303
996,41	920,000
996,58	252,000
996,74	-450,000
996,91	96,774
997,07	272,000
997,23	117,647
997,40	1250,000
997,56	-1733,333
997,73	191,304
997,89	1660,000
998,06	156,140
998,22	197,872
998,39	210,204
998,55	584,211
998,72	-7700,000
998,88	180,000
999,05	606,667
999,21	441,176
999,37	209,302
999,54	196,774
999,70	252,381
999,87	783,333
1000,03	406,667
1000,20	492,857
1000,36	-487,500
1000,52	2200,000
1000,69	468,000
1000,85	-200,000
1001,02	161,905
1001,18	1080,000
1001,35	0,000
1001,51	442,857
1001,67	240,000
1001,84	221,951
1002,00	-436,364
1002,17	825,000
1002,33	-275,000
1002,50	733,333
1002,66	850,000
1002,82	114,634
1002,99	-204,545
1003,15	-4600,000
1003,32	-64,286
1003,48	-1766,667
1003,64	321,739
1003,81	-210,526
1003,97	186,957
1004,14	-92,727
1004,30	345,455
1004,46	-8500,000
1004,63	-161,538
1004,79	237,838
1004,95	-700,000
1005,12	-600,000
1005,28	255,556
1005,45	-1150,000
1005,61	215,385
1005,77	-642,857
1005,94	204,348
1006,10	-470,000
1006,26	-103,704
1006,43	245,455
1006,59	264,516
1006,76	-160,000
1006,92	165,217
1007,08	157,576
1007,25	261,111
1007,41	368,182
1007,57	-376,471
1007,74	256,522
1007,90	-500,000
1008,06	-306,667
1008,23	-189,474
1008,39	211,111
1008,55	94,118
1008,72	-1137,500
1008,88	-51,429
1009,04	-900,000
1009,21	150,000
1009,37	241,935
1009,53	-385,000
1009,70	-10,606
1009,86	336,842
1010,02	138,636
1010,19	520,000
1010,35	5700,000
1010,51	254,286
1010,68	313,636
1010,84	420,000
1011,00	514,286
1011,17	2700,000
1011,33	196,154
1011,49	568,750
1011,66	415,625
1011,82	-891,667
1011,98	886,667
1012,14	215,385
1012,31	254,545
1012,47	-100,000
1012,63	7800,000
1012,80	261,111
1012,96	211,111
1013,12	-48,148
1013,29	437,500
1013,45	-170,588
1013,61	-1000,000
1013,77	-600,000
1013,94	341,667
1014,10	4600,000
1014,26	-55,882
1014,43	260,526
1014,59	0,000
1014,75	590,000
1014,91	182,857
1015,08	296,154
1015,24	346,667
1015,40	506,667
1015,56	588,235
1015,73	87,755
1015,89	455,556
1016,05	205,405
1016,21	162,963
1016,38	228,947
1016,54	-356,000
1016,70	563,158
1016,86	-469,231
1017,03	0,000
1017,19	762,500
1017,35	300,000
1017,51	1800,000
1017,68	685,714
1017,84	536,842
1018,00	261,905
1018,16	-543,750
1018,33	381,818
1018,49	607,143
1018,65	-431,818
1018,81	-0,000
1018,97	684,615
1019,14	-1157,143
1019,30	404,762
1019,46	138,462
1019,62	4050,000
1019,79	-771,429
1019,95	-1525,000
1020,11	1120,000
1020,27	222,500
1020,43	-787,500
1020,60	0,000
1020,76	117,647
1020,92	7700,000
1021,08	-17,778
1021,24	-1850,000
1021,41	287,879
1021,57	-266,667
1021,73	0,000
1021,89	-381,818
1022,05	245,714
1022,21	-323,077
1022,38	436,842
1022,54	1560,000
1022,70	248,148
1022,86	-2350,000
1023,02	500,000
1023,19	-335,000
1023,35	213,208
1023,51	306,452
1023,67	157,895
1023,83	718,182
1023,99	242,857
1024,16	-60,000
1024,32	356,250
1024,48	181,633
1024,64	-900,000
1024,80	466,667
1024,96	338,462
1025,12	2066,667
1025,29	-1825,000
1025,45	233,333
1025,61	2533,333
1025,77	371,429
1025,93	-161,538
1026,09	3550,000
1026,26	-1285,714
1026,42	-1100,000
1026,58	201,923
1026,74	471,429
1026,90	426,316
1027,06	-460,000
1027,22	-491,667
1027,38	655,556
1027,55	-236,000
1027,71	550,000
1027,87	160,000
1028,03	140,909
1028,19	-148,485
1028,35	104,054
1028,51	27,419
1028,67	-640,000
1028,83	130,952
1029,00	664,286
1029,16	-426,667
1029,32	252,941
1029,48	4100,000
1029,64	1157,143
1029,80	1066,667
1029,96	211,765
1030,12	-25,000
1030,28	1425,000
1030,44	-4500,000
1030,61	165,625
1030,77	-352,174
1030,93	190,698
1031,09	-150,000
1031,25	-677,778
1031,41	-750,000
1031,57	-42,105
1031,73	745,455
1031,89	-218,182
1032,05	1285,714
1032,21	450,000
1032,37	-88,235
1032,53	-150,000
1032,69	-10000,000
1032,86	1900,000
1033,02	443,750
1033,18	-684,615
1033,34	-361,538
1033,50	232,258
1033,66	-33,333
1033,82	257,143
1033,98	-623,529
1034,14	1066,667
1034,30	-45,455
1034,46	291,667
1034,62	300,000
1034,78	95,238
1034,94	-35,484
1035,10	-359,091
1035,26	-888,889
1035,42	74,286
1035,58	680,000
1035,74	-120,000
1035,90	-308,333
1036,06	149,057
1036,22	-136,000
1036,38	666,667
1036,54	910,000
1036,70	-4750,000
1036,86	-185,714
1037,02	-1650,000
1037,18	-117,857
1037,34	217,391
1037,50	-460,000
1037,66	-3300,000
1037,82	-305,882
1037,98	452,381
1038,14	-124,138
1038,30	-36,538
1038,46	158,333
1038,62	135,484
1038,78	138,095
1038,94	-52,632
1039,10	-166,667
1039,26	-121,053
1039,42	-700,000
1039,58	103,774
1039,74	209,375
1039,90	-115,385
1040,06	435,294
>>>>>End Processed Spectral Data<<<<<
