SpectraSuite Data File
++++++++++++++++++++++++++++++++++++
Date: Thu Feb 02 18:39:43 EET 2017
User: optolab
Dark Spectrum Present: Yes
Reference Spectrum Present: Yes
Number of Sampled Component Spectra: 1
Spectrometers: USB4C02475
Integration Time (usec): 151411 (USB4C02475)
Spectra Averaged: 1 (USB4C02475)
Boxcar Smoothing: 0 (USB4C02475)
Correct for Electrical Dark: No (USB4C02475)
Strobe/Lamp Enabled: No (USB4C02475)
Correct for Detector Non-linearity: No (USB4C02475)
Correct for Stray Light: No (USB4C02475)
Number of Pixels in Processed Spectrum: 3648
>>>>>Begin Processed Spectral Data<<<<<
344,91	40,741
345,13	40,741
345,35	40,741
345,57	-520,000
345,79	84,615
346,00	16,000
346,22	100,000
346,44	15,385
346,66	1333,333
346,87	-310,000
347,09	-500,000
347,31	300,000
347,53	82,051
347,74	37,500
347,96	211,111
348,18	19,512
348,40	33,333
348,61	74,510
348,83	19,444
349,05	12,727
349,27	45,588
349,48	21,569
349,70	23,636
349,92	82,927
350,14	1000,000
350,35	-7,692
350,57	36,765
350,79	19,149
351,01	154,839
351,22	-0,000
351,44	-15,556
351,66	43,902
351,87	-13,636
352,09	25,000
352,31	8,696
352,53	22,581
352,74	-28,125
352,96	-3,061
353,18	150,000
353,40	178,571
353,61	56,667
353,83	124,000
354,05	48,276
354,26	6,818
354,48	22,727
354,70	-21,250
354,92	30,159
355,13	87,755
355,35	-100,000
355,57	44,156
355,78	45,000
356,00	-18,605
356,22	65,672
356,44	0,000
356,65	87,179
356,87	3,704
357,09	-36,232
357,30	40,541
357,52	-31,429
357,74	41,538
357,95	122,222
358,17	-83,333
358,39	100,000
358,60	8,421
358,82	61,111
359,04	-277,778
359,26	24,444
359,47	20,690
359,69	-25,000
359,91	9,375
360,12	-50,794
360,34	184,211
360,56	25,263
360,77	46,296
360,99	5,000
361,21	69,231
361,42	-122,500
361,64	62,121
361,86	17,582
362,07	48,515
362,29	-250,000
362,51	90,741
362,72	27,500
362,94	-20,000
363,16	97,101
363,37	-6,250
363,59	34,066
363,81	-35,593
364,02	21,212
364,24	32,308
364,46	22,000
364,67	5,556
364,89	21,622
365,11	-700,000
365,32	33,333
365,54	113,043
365,76	76,250
365,97	55,714
366,19	-49,123
366,41	49,231
366,62	50,000
366,84	146,667
367,05	12,500
367,27	-50,000
367,49	60,606
367,70	10,870
367,92	51,899
368,14	13,978
368,35	20,988
368,57	22,222
368,79	-47,297
369,00	67,143
369,22	44,792
369,43	0,000
369,65	45,238
369,87	53,086
370,08	13,043
370,30	22,353
370,51	51,908
370,73	39,683
370,95	-12,371
371,16	18,182
371,38	-13,699
371,60	-12,791
371,81	7,368
372,03	25,455
372,24	73,684
372,46	16,667
372,68	93,671
372,89	47,368
373,11	-85,185
373,32	-34,921
373,54	54,687
373,76	8,403
373,97	9,756
374,19	15,556
374,40	28,696
374,62	10,227
374,84	-21,359
375,05	64,211
375,27	-30,952
375,48	-11,688
375,70	-2,027
375,92	47,826
376,13	20,952
376,35	0,000
376,56	5,128
376,78	8,462
376,99	27,273
377,21	38,095
377,43	29,167
377,64	22,034
377,86	-10,753
378,07	53,684
378,29	2,727
378,51	36,719
378,72	14,815
378,94	19,580
379,15	33,803
379,37	41,606
379,58	36,752
379,80	39,227
380,01	4,000
380,23	41,045
380,45	-9,000
380,66	19,444
380,88	24,118
381,09	-31,818
381,31	7,647
381,52	-20,270
381,74	16,352
381,95	-15,789
382,17	17,416
382,39	25,301
382,60	-7,194
382,82	-22,695
383,03	1,667
383,25	25,532
383,46	-20,000
383,68	-8,228
383,89	40,110
384,11	21,429
384,32	23,571
384,54	-23,810
384,76	23,121
384,97	15,909
385,19	12,800
385,40	20,833
385,62	-10,638
385,83	43,226
386,05	-1,399
386,26	28,571
386,48	-0,649
386,69	3,200
386,91	7,027
387,12	17,021
387,34	-8,287
387,55	5,882
387,77	5,348
387,98	10,648
388,20	21,429
388,41	14,859
388,63	13,333
388,84	-10,738
389,06	8,197
389,27	14,747
389,49	9,223
389,70	26,596
389,92	21,675
390,13	-17,568
390,35	18,304
390,56	32,787
390,78	9,623
390,99	-2,073
391,21	-1,471
391,42	5,668
391,64	1,887
391,85	25,128
392,07	-12,637
392,28	22,222
392,50	20,385
392,71	-6,030
392,93	4,979
393,14	10,383
393,36	10,360
393,57	30,901
393,79	-0,457
394,00	-1,176
394,22	-8,040
394,43	29,075
394,65	7,884
394,86	15,970
395,08	5,202
395,29	-2,222
395,50	13,158
395,72	8,936
395,93	4,959
396,15	17,091
396,36	13,861
396,58	-0,897
396,79	24,658
397,01	-0,844
397,22	1,498
397,44	11,392
397,65	22,615
397,87	10,039
398,08	12,945
398,29	7,071
398,51	26,254
398,72	-1,838
398,94	-1,724
399,15	12,109
399,37	10,616
399,58	-4,706
399,80	22,701
400,01	15,198
400,22	18,729
400,44	-15,481
400,65	-4,000
400,87	22,876
401,08	-2,020
401,30	-2,048
401,51	12,640
401,72	1,103
401,94	11,888
402,15	20,588
402,37	3,846
402,58	4,348
402,80	9,264
403,01	9,737
403,22	22,443
403,44	17,007
403,65	0,350
403,87	0,923
404,08	8,553
404,30	11,236
404,51	23,099
404,72	9,174
404,94	6,366
405,15	8,503
405,37	-0,554
405,58	11,029
405,79	14,628
406,01	6,685
406,22	1,269
406,44	3,675
406,65	10,896
406,86	8,605
407,08	4,178
407,29	18,156
407,51	19,737
407,72	5,570
407,93	15,040
408,15	11,933
408,36	10,000
408,58	6,912
408,79	8,831
409,00	8,994
409,22	5,208
409,43	14,000
409,64	1,774
409,86	14,617
410,07	19,432
410,29	12,667
410,50	15,102
410,71	-6,094
410,93	5,682
411,14	14,534
411,35	11,944
411,57	7,306
411,78	10,200
412,00	13,823
412,21	9,489
412,42	3,721
412,64	5,139
412,85	-1,348
413,06	6,954
413,28	8,142
413,49	4,883
413,70	10,345
413,92	8,182
414,13	8,147
414,34	14,545
414,56	9,808
414,77	12,379
414,98	15,514
415,20	2,918
415,41	23,327
415,63	-1,161
415,84	17,329
416,05	14,059
416,27	10,766
416,48	7,919
416,69	6,283
416,91	1,584
417,12	9,333
417,33	8,427
417,55	9,839
417,76	15,817
417,97	9,532
418,19	3,745
418,40	3,299
418,61	8,523
418,83	2,996
419,04	1,933
419,25	6,667
419,46	3,711
419,68	12,258
419,89	4,417
420,10	15,015
420,32	8,346
420,53	2,117
420,74	11,074
420,96	7,143
421,17	10,143
421,38	7,606
421,60	7,680
421,81	1,818
422,02	4,255
422,23	4,392
422,45	3,105
422,66	3,074
422,87	12,354
423,09	5,643
423,30	6,075
423,51	-0,311
423,73	9,339
423,94	9,917
424,15	4,073
424,36	7,784
424,58	5,767
424,79	7,672
425,00	8,755
425,22	8,987
425,43	5,362
425,64	-1,739
425,85	13,553
426,07	2,180
426,28	7,497
426,49	4,047
426,71	7,823
426,92	3,898
427,13	6,844
427,34	3,991
427,56	6,351
427,77	6,045
427,98	0,887
428,19	4,333
428,41	11,652
428,62	7,852
428,83	9,153
429,04	4,398
429,26	8,546
429,47	6,587
429,68	3,317
429,89	1,205
430,11	7,177
430,32	8,351
430,53	6,910
430,74	3,685
430,96	7,838
431,17	5,377
431,38	5,937
431,59	3,843
431,81	7,384
432,02	3,804
432,23	5,960
432,44	6,122
432,66	4,470
432,87	8,798
433,08	5,292
433,29	3,990
433,51	5,750
433,72	4,279
433,93	7,539
434,14	6,545
434,35	6,226
434,57	6,070
434,78	-1,094
434,99	6,142
435,20	8,575
435,42	7,543
435,63	6,930
435,84	5,680
436,05	4,195
436,26	5,615
436,48	7,328
436,69	4,159
436,90	3,640
437,11	5,291
437,32	4,897
437,54	2,917
437,75	6,439
437,96	3,935
438,17	6,902
438,38	5,578
438,60	3,297
438,81	4,225
439,02	4,831
439,23	7,484
439,44	3,753
439,66	5,782
439,87	2,594
440,08	4,923
440,29	2,864
440,50	2,598
440,72	3,881
440,93	1,769
441,14	3,740
441,35	4,833
441,56	5,185
441,77	2,021
441,99	3,752
442,20	3,859
442,41	5,739
442,62	3,993
442,83	3,342
443,04	2,662
443,26	3,006
443,47	3,561
443,68	3,048
443,89	4,935
444,10	2,552
444,31	2,562
444,53	2,967
444,74	2,081
444,95	3,423
445,16	2,698
445,37	2,614
445,58	2,378
445,80	3,775
446,01	3,490
446,22	2,066
446,43	1,311
446,64	1,696
446,85	3,335
447,06	2,257
447,28	1,578
447,49	2,503
447,70	0,739
447,91	1,880
448,12	2,635
448,33	2,586
448,54	1,565
448,76	2,547
448,97	2,980
449,18	1,994
449,39	1,627
449,60	1,436
449,81	2,441
450,02	1,799
450,23	1,709
450,45	1,175
450,66	1,878
450,87	2,397
451,08	1,989
451,29	1,258
451,50	1,366
451,71	1,810
451,92	1,552
452,13	2,113
452,35	1,106
452,56	1,431
452,77	1,685
452,98	2,479
453,19	1,495
453,40	1,252
453,61	1,482
453,82	1,370
454,03	1,366
454,25	1,178
454,46	1,396
454,67	1,027
454,88	1,067
455,09	1,047
455,30	1,980
455,51	1,202
455,72	0,870
455,93	1,189
456,14	1,562
456,35	0,943
456,56	1,341
456,78	1,821
456,99	1,315
457,20	0,812
457,41	1,165
457,62	1,439
457,83	0,956
458,04	0,640
458,25	1,147
458,46	0,687
458,67	1,046
458,88	1,045
459,09	0,807
459,30	1,173
459,51	0,891
459,73	0,945
459,94	0,576
460,15	0,834
460,36	1,123
460,57	0,720
460,78	0,866
460,99	0,632
461,20	0,870
461,41	0,864
461,62	0,548
461,83	1,024
462,04	0,820
462,25	1,015
462,46	0,819
462,67	0,946
462,88	1,091
463,09	0,881
463,30	0,898
463,51	0,966
463,72	0,853
463,93	0,774
464,15	0,668
464,36	0,937
464,57	0,845
464,78	0,820
464,99	0,680
465,20	0,822
465,41	0,781
465,62	1,121
465,83	0,852
466,04	0,496
466,25	0,849
466,46	0,960
466,67	0,889
466,88	0,732
467,09	0,721
467,30	0,706
467,51	0,557
467,72	0,855
467,93	0,866
468,14	0,697
468,35	0,669
468,56	0,724
468,77	0,810
468,98	0,847
469,19	0,717
469,40	0,722
469,61	0,759
469,82	0,891
470,03	0,684
470,24	0,905
470,45	0,938
470,66	0,689
470,87	1,022
471,08	0,883
471,29	0,845
471,50	0,868
471,71	0,971
471,92	0,698
472,13	0,749
472,34	1,019
472,55	0,967
472,76	0,836
472,97	1,006
473,18	1,094
473,39	1,097
473,60	1,019
473,81	0,950
474,01	0,880
474,22	0,993
474,43	1,192
474,64	1,234
474,85	0,867
475,06	0,938
475,27	1,100
475,48	1,178
475,69	1,253
475,90	0,994
476,11	1,408
476,32	1,205
476,53	1,314
476,74	1,258
476,95	1,216
477,16	1,204
477,37	1,497
477,58	1,375
477,79	1,253
478,00	1,327
478,21	1,612
478,41	1,472
478,62	1,414
478,83	1,452
479,04	1,218
479,25	1,373
479,46	1,301
479,67	1,641
479,88	1,374
480,09	1,483
480,30	1,540
480,51	1,463
480,72	1,705
480,93	1,447
481,14	1,480
481,34	1,528
481,55	1,610
481,76	1,521
481,97	1,526
482,18	1,603
482,39	1,470
482,60	1,469
482,81	1,521
483,02	1,604
483,23	1,866
483,44	1,775
483,65	1,880
483,85	1,824
484,06	1,448
484,27	1,557
484,48	1,778
484,69	1,856
484,90	1,739
485,11	1,530
485,32	1,659
485,53	1,733
485,73	1,531
485,94	1,585
486,15	1,668
486,36	1,775
486,57	1,699
486,78	2,088
486,99	1,685
487,20	1,994
487,41	1,710
487,61	1,624
487,82	1,971
488,03	1,692
488,24	1,887
488,45	1,744
488,66	1,841
488,87	1,851
489,08	1,531
489,28	2,018
489,49	1,695
489,70	2,076
489,91	1,837
490,12	1,973
490,33	1,789
490,54	1,915
490,74	1,865
490,95	1,754
491,16	1,933
491,37	1,853
491,58	2,033
491,79	1,968
492,00	1,799
492,20	2,213
492,41	1,805
492,62	2,129
492,83	1,907
493,04	2,273
493,25	2,080
493,45	2,040
493,66	2,063
493,87	1,965
494,08	2,098
494,29	2,023
494,50	2,206
494,70	2,164
494,91	1,831
495,12	2,158
495,33	2,085
495,54	2,120
495,75	2,113
495,95	2,148
496,16	2,112
496,37	2,360
496,58	2,131
496,79	2,158
496,99	2,079
497,20	2,036
497,41	2,328
497,62	2,122
497,83	2,132
498,04	1,950
498,24	2,383
498,45	2,313
498,66	2,188
498,87	2,234
499,08	2,667
499,28	2,361
499,49	2,364
499,70	2,357
499,91	2,508
500,12	2,295
500,32	2,094
500,53	2,239
500,74	2,537
500,95	2,279
501,15	2,462
501,36	2,663
501,57	2,152
501,78	2,255
501,99	2,350
502,19	2,210
502,40	2,203
502,61	2,531
502,82	2,299
503,02	2,363
503,23	2,567
503,44	2,438
503,65	2,574
503,86	2,545
504,06	2,233
504,27	2,522
504,48	2,500
504,69	2,589
504,89	2,257
505,10	2,388
505,31	2,495
505,52	2,503
505,72	2,422
505,93	2,628
506,14	2,724
506,35	2,558
506,55	2,621
506,76	2,373
506,97	2,700
507,18	2,503
507,38	2,556
507,59	2,616
507,80	2,654
508,01	2,619
508,21	2,698
508,42	2,671
508,63	2,751
508,84	2,292
509,04	2,999
509,25	2,902
509,46	2,843
509,67	2,733
509,87	2,716
510,08	2,600
510,29	2,632
510,49	2,427
510,70	2,847
510,91	2,981
511,12	2,768
511,32	2,733
511,53	2,650
511,74	2,688
511,94	2,895
512,15	2,945
512,36	2,779
512,57	2,890
512,77	2,846
512,98	2,783
513,19	2,603
513,39	3,164
513,60	2,705
513,81	2,911
514,01	2,839
514,22	2,883
514,43	2,982
514,64	2,979
514,84	3,026
515,05	3,041
515,26	2,817
515,46	2,970
515,67	3,028
515,88	2,856
516,08	2,761
516,29	2,935
516,50	2,949
516,70	2,883
516,91	3,112
517,12	3,103
517,32	3,182
517,53	3,132
517,74	3,382
517,95	3,305
518,15	3,140
518,36	3,010
518,57	2,931
518,77	3,093
518,98	3,267
519,19	3,360
519,39	3,267
519,60	3,177
519,80	3,230
520,01	3,555
520,22	3,246
520,42	3,268
520,63	3,041
520,84	3,190
521,04	3,387
521,25	3,322
521,46	3,308
521,66	3,362
521,87	3,074
522,08	3,323
522,28	3,184
522,49	3,517
522,70	3,530
522,90	3,395
523,11	3,607
523,31	3,585
523,52	3,710
523,73	3,426
523,93	3,742
524,14	3,419
524,35	3,624
524,55	3,994
524,76	3,586
524,97	3,586
525,17	3,804
525,38	3,743
525,58	3,763
525,79	3,938
526,00	4,109
526,20	3,973
526,41	3,822
526,61	3,698
526,82	4,237
527,03	4,024
527,23	3,991
527,44	4,022
527,64	4,244
527,85	4,344
528,06	3,905
528,26	4,221
528,47	4,079
528,68	3,914
528,88	4,161
529,09	4,025
529,29	4,044
529,50	4,088
529,70	3,993
529,91	4,096
530,12	4,315
530,32	4,149
530,53	4,242
530,73	4,253
530,94	3,924
531,15	4,334
531,35	4,486
531,56	4,328
531,76	4,202
531,97	4,076
532,17	4,403
532,38	4,571
532,59	4,426
532,79	4,470
533,00	4,409
533,20	4,650
533,41	4,551
533,61	4,310
533,82	4,587
534,03	4,239
534,23	4,758
534,44	4,540
534,64	4,506
534,85	4,616
535,05	4,723
535,26	4,667
535,46	4,611
535,67	4,859
535,88	4,753
536,08	4,951
536,29	4,701
536,49	4,866
536,70	4,534
536,90	5,223
537,11	4,843
537,31	4,914
537,52	5,271
537,72	5,168
537,93	4,833
538,13	4,809
538,34	4,860
538,55	5,170
538,75	4,565
538,96	4,910
539,16	4,684
539,37	5,080
539,57	4,477
539,78	4,648
539,98	4,483
540,19	4,629
540,39	4,810
540,60	5,712
540,80	5,170
541,01	5,205
541,21	5,143
541,42	5,163
541,62	5,229
541,83	5,410
542,03	5,374
542,24	5,185
542,44	5,389
542,65	5,272
542,85	5,112
543,06	5,318
543,26	5,558
543,47	5,547
543,67	5,506
543,88	5,533
544,08	5,755
544,29	5,266
544,49	5,492
544,70	5,417
544,90	5,372
545,11	5,043
545,31	5,956
545,52	5,522
545,72	5,493
545,93	5,447
546,13	5,487
546,34	5,705
546,54	6,013
546,75	5,809
546,95	5,435
547,15	5,730
547,36	5,564
547,56	5,728
547,77	5,605
547,97	5,514
548,18	5,468
548,38	5,755
548,59	5,203
548,79	5,532
549,00	6,021
549,20	5,518
549,41	5,570
549,61	6,155
549,81	5,576
550,02	5,917
550,22	5,824
550,43	5,705
550,63	5,947
550,84	6,024
551,04	5,639
551,25	5,677
551,45	5,929
551,65	6,123
551,86	5,553
552,06	6,099
552,27	5,977
552,47	6,033
552,68	5,896
552,88	5,937
553,08	5,963
553,29	5,795
553,49	5,768
553,70	5,602
553,90	5,879
554,11	5,864
554,31	6,218
554,51	6,367
554,72	6,260
554,92	6,029
555,13	5,972
555,33	5,917
555,53	6,106
555,74	5,904
555,94	6,038
556,15	5,884
556,35	6,237
556,56	6,435
556,76	6,030
556,96	6,120
557,17	5,955
557,37	6,094
557,58	6,249
557,78	6,172
557,98	5,998
558,19	6,005
558,39	6,250
558,59	5,939
558,80	6,114
559,00	6,278
559,21	6,674
559,41	6,357
559,61	6,239
559,82	6,276
560,02	6,025
560,23	6,233
560,43	6,088
560,63	5,676
560,84	6,183
561,04	6,199
561,24	6,055
561,45	6,452
561,65	6,203
561,85	6,463
562,06	5,855
562,26	6,379
562,47	5,798
562,67	6,365
562,87	5,972
563,08	6,654
563,28	6,404
563,48	6,488
563,69	6,063
563,89	6,114
564,09	6,562
564,30	5,966
564,50	6,126
564,70	6,530
564,91	6,328
565,11	6,162
565,31	6,414
565,52	6,721
565,72	6,669
565,92	6,000
566,13	6,055
566,33	6,320
566,53	6,554
566,74	5,831
566,94	6,036
567,14	6,473
567,35	6,367
567,55	6,564
567,75	6,430
567,96	6,531
568,16	6,656
568,36	6,353
568,57	6,431
568,77	6,027
568,97	6,270
569,18	6,492
569,38	6,747
569,58	6,408
569,79	6,602
569,99	6,790
570,19	6,297
570,39	6,534
570,60	6,855
570,80	6,379
571,00	6,153
571,21	6,219
571,41	6,341
571,61	6,326
571,82	6,339
572,02	6,878
572,22	6,367
572,42	6,421
572,63	6,306
572,83	5,881
573,03	6,220
573,24	6,062
573,44	6,190
573,64	6,290
573,84	6,475
574,05	6,123
574,25	6,366
574,45	6,295
574,66	6,347
574,86	6,442
575,06	6,266
575,26	6,084
575,47	6,168
575,67	6,760
575,87	6,463
576,07	6,439
576,28	6,607
576,48	6,640
576,68	6,501
576,88	6,131
577,09	6,824
577,29	6,088
577,49	6,091
577,69	6,428
577,90	6,461
578,10	6,257
578,30	6,166
578,50	6,228
578,71	5,959
578,91	5,875
579,11	6,435
579,31	6,183
579,52	5,966
579,72	6,313
579,92	6,146
580,12	6,401
580,33	5,822
580,53	6,094
580,73	6,139
580,93	6,461
581,13	6,330
581,34	6,390
581,54	6,062
581,74	6,172
581,94	5,933
582,15	6,084
582,35	6,568
582,55	6,301
582,75	6,287
582,95	5,821
583,16	5,913
583,36	5,922
583,56	5,969
583,76	5,767
583,96	6,192
584,17	6,303
584,37	5,967
584,57	6,254
584,77	6,219
584,97	6,265
585,18	5,924
585,38	6,014
585,58	5,864
585,78	5,959
585,98	5,746
586,19	6,121
586,39	6,192
586,59	6,196
586,79	5,806
586,99	5,723
587,20	6,370
587,40	5,985
587,60	5,658
587,80	5,754
588,00	5,792
588,20	5,663
588,41	6,218
588,61	5,691
588,81	5,756
589,01	5,630
589,21	5,683
589,41	5,645
589,62	5,777
589,82	5,880
590,02	5,916
590,22	5,688
590,42	5,920
590,62	5,922
590,83	5,630
591,03	5,768
591,23	5,502
591,43	5,729
591,63	5,848
591,83	5,419
592,03	5,706
592,24	5,547
592,44	5,501
592,64	6,087
592,84	5,236
593,04	5,694
593,24	5,512
593,44	5,572
593,65	5,374
593,85	5,455
594,05	5,318
594,25	5,420
594,45	5,295
594,65	5,396
594,85	5,630
595,06	5,412
595,26	5,384
595,46	5,394
595,66	5,428
595,86	5,304
596,06	5,444
596,26	5,475
596,46	5,367
596,66	5,285
596,87	5,312
597,07	5,276
597,27	5,354
597,47	5,286
597,67	5,701
597,87	5,471
598,07	5,823
598,27	5,520
598,47	5,669
598,67	5,619
598,88	5,563
599,08	5,944
599,28	5,966
599,48	5,781
599,68	5,972
599,88	5,784
600,08	5,957
600,28	6,013
600,48	6,004
600,68	5,966
600,88	6,182
601,09	5,924
601,29	5,774
601,49	6,204
601,69	6,184
601,89	5,996
602,09	6,282
602,29	6,382
602,49	6,481
602,69	6,611
602,89	6,158
603,09	6,480
603,29	6,721
603,49	6,158
603,69	6,141
603,90	6,488
604,10	5,979
604,30	6,293
604,50	6,413
604,70	5,971
604,90	6,252
605,10	6,736
605,30	6,641
605,50	6,563
605,70	6,916
605,90	6,472
606,10	6,921
606,30	6,547
606,50	6,556
606,70	6,499
606,90	6,551
607,10	6,768
607,30	6,765
607,50	6,491
607,70	6,688
607,90	6,938
608,10	6,373
608,30	6,590
608,50	6,460
608,70	6,377
608,90	6,903
609,11	6,470
609,31	6,613
609,51	6,943
609,71	6,904
609,91	6,671
610,11	6,596
610,31	6,627
610,51	6,437
610,71	6,544
610,91	7,141
611,11	6,808
611,31	6,824
611,51	6,879
611,71	7,072
611,91	6,729
612,11	7,232
612,31	6,750
612,51	6,861
612,71	7,158
612,91	7,230
613,11	6,902
613,31	6,768
613,51	7,016
613,71	6,980
613,91	6,666
614,11	7,269
614,31	7,206
614,50	7,297
614,70	6,891
614,90	6,732
615,10	7,041
615,30	6,868
615,50	7,257
615,70	6,781
615,90	7,278
616,10	6,895
616,30	7,163
616,50	7,032
616,70	7,008
616,90	6,795
617,10	7,096
617,30	7,039
617,50	6,951
617,70	7,163
617,90	7,063
618,10	6,867
618,30	6,964
618,50	6,833
618,70	7,169
618,90	7,325
619,10	6,998
619,30	7,223
619,49	7,181
619,69	7,038
619,89	7,150
620,09	7,073
620,29	7,152
620,49	7,028
620,69	7,294
620,89	7,107
621,09	7,538
621,29	6,902
621,49	7,382
621,69	7,245
621,89	7,332
622,09	7,211
622,29	7,127
622,48	7,224
622,68	7,526
622,88	7,459
623,08	7,232
623,28	7,657
623,48	7,525
623,68	7,915
623,88	7,591
624,08	7,569
624,28	7,510
624,48	7,608
624,67	7,439
624,87	7,500
625,07	7,641
625,27	7,694
625,47	7,665
625,67	7,918
625,87	8,023
626,07	7,948
626,27	8,224
626,47	8,059
626,66	8,190
626,86	8,751
627,06	8,792
627,26	8,601
627,46	8,607
627,66	9,176
627,86	9,190
628,06	9,335
628,25	9,367
628,45	9,462
628,65	9,907
628,85	9,717
629,05	10,256
629,25	10,370
629,45	10,466
629,65	10,850
629,84	11,344
630,04	11,184
630,24	11,581
630,44	11,686
630,64	11,950
630,84	12,675
631,04	12,624
631,23	12,467
631,43	13,306
631,63	13,043
631,83	13,131
632,03	13,712
632,23	13,445
632,42	13,863
632,62	14,480
632,82	14,681
633,02	15,369
633,22	16,037
633,42	16,358
633,62	17,267
633,81	17,443
634,01	18,169
634,21	19,471
634,41	20,443
634,61	20,755
634,80	22,239
635,00	23,767
635,20	24,435
635,40	25,780
635,60	27,754
635,80	28,692
635,99	30,893
636,19	32,534
636,39	33,853
636,59	34,657
636,79	36,948
636,98	38,903
637,18	40,530
637,38	41,976
637,58	42,454
637,78	44,237
637,97	45,293
638,17	46,595
638,37	48,722
638,57	49,668
638,77	51,264
638,96	53,305
639,16	54,554
639,36	56,068
639,56	58,824
639,76	60,805
639,95	62,196
640,15	63,796
640,35	64,944
640,55	65,790
640,75	67,070
640,94	68,075
641,14	68,670
641,34	70,710
641,54	71,217
641,73	71,262
641,93	71,964
642,13	72,590
642,33	73,881
642,53	74,291
642,72	74,889
642,92	74,864
643,12	74,514
643,32	75,221
643,51	74,125
643,71	75,042
643,91	74,180
644,11	73,448
644,30	73,961
644,50	73,090
644,70	72,847
644,90	71,755
645,09	71,168
645,29	71,745
645,49	70,340
645,69	70,340
645,88	70,136
646,08	68,718
646,28	67,782
646,48	67,183
646,67	66,004
646,87	64,715
647,07	63,078
647,26	62,613
647,46	61,003
647,66	60,165
647,86	57,908
648,05	56,222
648,25	53,732
648,45	52,988
648,65	49,558
648,84	47,616
649,04	46,874
649,24	45,754
649,43	43,656
649,63	42,082
649,83	40,134
650,03	38,643
650,22	36,411
650,42	33,953
650,62	32,360
650,81	30,475
651,01	28,074
651,21	25,945
651,40	23,824
651,60	21,935
651,80	20,340
652,00	18,740
652,19	17,576
652,39	16,451
652,59	15,250
652,78	14,307
652,98	13,319
653,18	11,923
653,37	11,294
653,57	10,691
653,77	9,315
653,96	9,495
654,16	8,836
654,36	8,415
654,55	8,094
654,75	7,530
654,95	7,395
655,14	7,467
655,34	7,187
655,54	7,626
655,73	7,338
655,93	7,379
656,13	7,271
656,32	7,305
656,52	7,094
656,72	6,633
656,91	6,936
657,11	6,489
657,31	7,022
657,50	7,012
657,70	6,709
657,90	7,010
658,09	6,876
658,29	6,977
658,49	6,894
658,68	6,418
658,88	6,972
659,07	6,677
659,27	6,966
659,47	7,000
659,66	6,556
659,86	6,953
660,06	6,992
660,25	6,970
660,45	6,964
660,64	7,111
660,84	6,852
661,04	6,828
661,23	6,845
661,43	6,651
661,63	6,618
661,82	6,683
662,02	6,797
662,21	6,577
662,41	7,054
662,61	6,985
662,80	6,784
663,00	6,737
663,19	7,099
663,39	6,947
663,59	6,736
663,78	6,830
663,98	7,072
664,17	6,398
664,37	6,875
664,57	6,590
664,76	6,765
664,96	6,620
665,15	7,215
665,35	6,789
665,55	7,002
665,74	6,985
665,94	6,188
666,13	6,721
666,33	6,780
666,53	6,703
666,72	6,846
666,92	6,617
667,11	7,037
667,31	7,150
667,50	6,741
667,70	6,633
667,90	6,380
668,09	6,725
668,29	6,556
668,48	6,762
668,68	6,916
668,87	6,827
669,07	6,358
669,26	6,863
669,46	6,676
669,66	6,565
669,85	6,793
670,05	6,600
670,24	6,498
670,44	6,527
670,63	6,747
670,83	6,588
671,02	6,491
671,22	6,366
671,42	6,408
671,61	6,681
671,81	6,866
672,00	6,712
672,20	6,688
672,39	6,588
672,59	6,510
672,78	6,726
672,98	6,464
673,17	6,708
673,37	6,838
673,56	6,582
673,76	6,610
673,95	6,138
674,15	6,451
674,34	6,641
674,54	6,467
674,73	6,362
674,93	6,826
675,13	6,159
675,32	6,523
675,52	6,435
675,71	6,401
675,91	6,480
676,10	6,507
676,30	6,627
676,49	6,756
676,69	6,620
676,88	6,695
677,08	6,495
677,27	6,563
677,47	6,826
677,66	6,948
677,86	6,572
678,05	6,857
678,24	6,562
678,44	6,594
678,63	6,807
678,83	6,584
679,02	6,861
679,22	6,840
679,41	6,701
679,61	6,608
679,80	6,714
680,00	6,681
680,19	6,330
680,39	6,605
680,58	6,654
680,78	6,648
680,97	6,796
681,17	6,739
681,36	6,690
681,56	6,645
681,75	6,317
681,94	6,728
682,14	6,447
682,33	6,509
682,53	6,515
682,72	6,891
682,92	6,595
683,11	6,772
683,31	6,884
683,50	6,774
683,69	6,926
683,89	6,559
684,08	6,740
684,28	6,711
684,47	6,704
684,67	6,399
684,86	6,441
685,06	6,513
685,25	6,430
685,44	6,506
685,64	6,627
685,83	6,481
686,03	6,524
686,22	6,506
686,42	6,511
686,61	6,345
686,80	6,551
687,00	6,397
687,19	6,472
687,39	6,420
687,58	6,442
687,77	6,800
687,97	6,605
688,16	6,879
688,36	6,729
688,55	6,926
688,74	6,573
688,94	6,684
689,13	6,397
689,33	6,561
689,52	6,493
689,71	6,628
689,91	6,593
690,10	6,376
690,30	6,685
690,49	6,351
690,68	6,667
690,88	6,506
691,07	6,661
691,27	6,457
691,46	6,621
691,65	6,515
691,85	6,953
692,04	6,296
692,23	6,950
692,43	6,426
692,62	6,708
692,82	6,536
693,01	6,771
693,20	6,324
693,40	6,419
693,59	6,255
693,78	6,649
693,98	6,346
694,17	6,662
694,36	6,285
694,56	6,445
694,75	6,713
694,94	6,614
695,14	6,516
695,33	6,578
695,53	6,494
695,72	6,643
695,91	6,725
696,11	6,802
696,30	6,330
696,49	6,319
696,69	6,433
696,88	6,545
697,07	6,247
697,27	6,647
697,46	6,829
697,65	6,527
697,85	6,435
698,04	6,855
698,23	6,760
698,43	6,558
698,62	6,413
698,81	6,712
699,01	6,598
699,20	6,241
699,39	6,271
699,58	6,136
699,78	6,231
699,97	6,609
700,16	6,403
700,36	6,638
700,55	6,398
700,74	6,531
700,94	6,886
701,13	6,491
701,32	6,531
701,52	6,475
701,71	6,841
701,90	6,587
702,09	6,400
702,29	6,661
702,48	6,744
702,67	6,838
702,87	6,574
703,06	6,627
703,25	6,454
703,44	6,951
703,64	6,566
703,83	6,600
704,02	6,684
704,22	6,886
704,41	6,920
704,60	6,623
704,79	6,538
704,99	6,692
705,18	6,869
705,37	6,575
705,56	6,787
705,76	6,498
705,95	6,708
706,14	6,717
706,33	6,605
706,53	6,677
706,72	6,494
706,91	6,747
707,11	6,425
707,30	6,685
707,49	6,885
707,68	6,813
707,88	6,676
708,07	6,116
708,26	6,394
708,45	6,742
708,64	6,589
708,84	6,547
709,03	6,458
709,22	6,709
709,41	6,728
709,61	6,694
709,80	6,969
709,99	6,842
710,18	6,505
710,38	6,961
710,57	6,793
710,76	6,748
710,95	6,939
711,14	6,910
711,34	6,486
711,53	6,684
711,72	6,256
711,91	6,710
712,11	6,561
712,30	6,497
712,49	6,403
712,68	6,500
712,87	6,196
713,07	6,275
713,26	6,236
713,45	6,443
713,64	6,761
713,83	6,679
714,03	6,671
714,22	6,731
714,41	7,052
714,60	6,511
714,79	6,655
714,99	6,623
715,18	6,458
715,37	6,531
715,56	6,551
715,75	6,828
715,94	6,689
716,14	6,626
716,33	6,490
716,52	6,282
716,71	6,506
716,90	6,390
717,10	6,690
717,29	6,558
717,48	6,250
717,67	6,629
717,86	6,885
718,05	6,629
718,24	6,426
718,44	6,705
718,63	6,214
718,82	6,985
719,01	6,409
719,20	6,715
719,39	6,213
719,59	6,538
719,78	6,786
719,97	6,836
720,16	6,770
720,35	6,663
720,54	6,701
720,73	6,296
720,93	6,338
721,12	6,385
721,31	6,695
721,50	6,697
721,69	6,647
721,88	6,437
722,07	6,538
722,27	6,312
722,46	6,700
722,65	6,829
722,84	6,750
723,03	6,457
723,22	6,556
723,41	6,660
723,60	6,521
723,79	6,475
723,99	6,617
724,18	6,590
724,37	6,532
724,56	6,890
724,75	6,685
724,94	6,882
725,13	6,984
725,32	6,536
725,51	6,486
725,71	6,828
725,90	6,859
726,09	6,519
726,28	6,908
726,47	6,838
726,66	6,467
726,85	6,843
727,04	6,709
727,23	6,646
727,42	6,688
727,61	6,002
727,81	6,515
728,00	6,810
728,19	6,708
728,38	6,215
728,57	6,663
728,76	6,599
728,95	6,975
729,14	6,659
729,33	6,769
729,52	6,755
729,71	6,520
729,90	6,701
730,09	6,869
730,28	6,336
730,48	7,080
730,67	6,811
730,86	6,609
731,05	6,730
731,24	6,660
731,43	6,642
731,62	6,895
731,81	6,378
732,00	6,983
732,19	6,649
732,38	6,580
732,57	6,472
732,76	6,469
732,95	6,759
733,14	6,466
733,33	6,652
733,52	6,876
733,71	6,988
733,90	6,816
734,09	6,607
734,28	6,724
734,47	6,611
734,66	6,684
734,85	6,927
735,04	6,933
735,23	6,670
735,42	6,577
735,61	6,643
735,81	6,901
736,00	6,837
736,19	6,652
736,38	6,718
736,57	6,552
736,76	6,586
736,95	6,524
737,14	6,621
737,33	6,913
737,52	6,939
737,71	6,603
737,90	6,689
738,09	7,081
738,28	7,182
738,47	6,519
738,66	6,795
738,85	6,478
739,04	6,601
739,22	7,082
739,41	6,824
739,60	6,711
739,79	6,559
739,98	6,337
740,17	6,756
740,36	6,442
740,55	6,563
740,74	7,204
740,93	7,021
741,12	6,973
741,31	6,568
741,50	6,930
741,69	6,937
741,88	7,429
742,07	7,069
742,26	7,167
742,45	6,960
742,64	7,123
742,83	7,097
743,02	7,236
743,21	7,067
743,40	6,811
743,59	7,146
743,78	7,160
743,97	7,219
744,16	6,917
744,34	6,744
744,53	6,739
744,72	7,179
744,91	6,933
745,10	6,869
745,29	6,897
745,48	6,890
745,67	7,034
745,86	7,031
746,05	6,843
746,24	7,196
746,43	7,205
746,62	7,327
746,81	7,307
747,00	7,197
747,18	7,168
747,37	7,360
747,56	7,081
747,75	7,300
747,94	7,296
748,13	7,571
748,32	7,226
748,51	7,369
748,70	7,343
748,89	7,287
749,08	7,070
749,26	7,025
749,45	6,962
749,64	7,216
749,83	7,142
750,02	7,151
750,21	7,397
750,40	7,356
750,59	7,339
750,78	7,133
750,96	7,418
751,15	7,612
751,34	7,241
751,53	7,444
751,72	7,699
751,91	7,075
752,10	7,537
752,29	7,678
752,47	7,657
752,66	7,721
752,85	7,608
753,04	8,409
753,23	8,061
753,42	8,014
753,61	8,614
753,80	8,290
753,98	8,349
754,17	8,730
754,36	8,428
754,55	8,438
754,74	8,985
754,93	8,685
755,12	9,220
755,30	9,718
755,49	9,527
755,68	9,660
755,87	9,992
756,06	10,193
756,25	10,232
756,43	10,693
756,62	10,888
756,81	11,163
757,00	12,075
757,19	11,641
757,38	11,401
757,56	11,945
757,75	12,254
757,94	12,550
758,13	12,402
758,32	13,271
758,51	13,172
758,69	14,012
758,88	14,731
759,07	15,011
759,26	15,499
759,45	15,432
759,63	16,728
759,82	16,971
760,01	17,108
760,20	17,646
760,39	18,125
760,57	18,940
760,76	19,222
760,95	20,253
761,14	20,584
761,33	20,988
761,51	22,042
761,70	22,930
761,89	23,476
762,08	24,297
762,27	26,234
762,45	26,950
762,64	28,330
762,83	30,594
763,02	31,615
763,21	33,312
763,39	35,705
763,58	36,605
763,77	38,121
763,96	39,947
764,14	42,302
764,33	43,815
764,52	46,828
764,71	48,830
764,89	50,824
765,08	52,484
765,27	54,892
765,46	56,210
765,65	58,853
765,83	60,516
766,02	62,040
766,21	64,435
766,40	66,301
766,58	67,158
766,77	68,195
766,96	68,359
767,15	70,745
767,33	70,288
767,52	70,628
767,71	72,288
767,90	72,719
768,08	73,825
768,27	75,131
768,46	75,250
768,64	74,511
768,83	76,190
769,02	74,974
769,21	77,378
769,39	77,138
769,58	77,201
769,77	76,347
769,96	76,022
770,14	76,512
770,33	76,750
770,52	75,708
770,70	76,417
770,89	74,967
771,08	75,625
771,27	75,719
771,45	74,742
771,64	75,012
771,83	75,106
772,01	75,135
772,20	73,488
772,39	73,789
772,57	73,544
772,76	73,284
772,95	71,412
773,14	71,915
773,32	72,035
773,51	72,110
773,70	70,548
773,88	70,066
774,07	69,557
774,26	67,677
774,44	68,315
774,63	67,655
774,82	67,858
775,00	65,372
775,19	64,581
775,38	64,269
775,56	63,310
775,75	62,072
775,94	60,903
776,12	59,357
776,31	59,138
776,50	57,100
776,68	55,655
776,87	54,072
777,06	52,543
777,24	51,983
777,43	50,786
777,62	48,358
777,80	47,869
777,99	46,620
778,18	44,194
778,36	42,865
778,55	41,471
778,74	40,716
778,92	38,176
779,11	37,283
779,29	35,727
779,48	35,292
779,67	33,453
779,85	32,120
780,04	30,791
780,23	29,683
780,41	27,794
780,60	26,667
780,79	25,203
780,97	24,666
781,16	23,439
781,34	22,457
781,53	21,187
781,72	19,418
781,90	19,249
782,09	17,452
782,28	17,012
782,46	15,860
782,65	14,822
782,83	13,404
783,02	13,379
783,21	12,387
783,39	11,965
783,58	10,883
783,76	10,725
783,95	10,298
784,14	9,573
784,32	9,150
784,51	9,059
784,69	8,425
784,88	7,989
785,06	7,604
785,25	7,809
785,44	7,481
785,62	7,574
785,81	7,439
785,99	7,108
786,18	7,044
786,37	7,299
786,55	6,917
786,74	6,911
786,92	6,773
787,11	6,400
787,29	6,280
787,48	6,664
787,67	6,620
787,85	6,426
788,04	6,387
788,22	6,380
788,41	6,721
788,59	6,436
788,78	6,020
788,96	6,582
789,15	6,564
789,34	6,837
789,52	6,474
789,71	6,428
789,89	6,604
790,08	6,690
790,26	6,762
790,45	6,597
790,63	7,006
790,82	6,543
791,00	6,504
791,19	7,212
791,38	6,554
791,56	6,934
791,75	6,637
791,93	6,959
792,12	7,011
792,30	6,733
792,49	6,919
792,67	6,490
792,86	6,306
793,04	6,598
793,23	7,068
793,41	6,066
793,60	7,018
793,78	7,024
793,97	6,685
794,15	6,547
794,34	6,577
794,52	7,009
794,71	6,792
794,89	6,856
795,08	7,093
795,26	6,522
795,45	7,555
795,63	6,402
795,82	6,286
796,00	6,260
796,19	6,943
796,37	6,611
796,56	6,376
796,74	6,506
796,93	6,312
797,11	6,089
797,30	6,127
797,48	6,648
797,67	5,912
797,85	6,599
798,04	6,343
798,22	6,889
798,41	6,449
798,59	6,289
798,77	6,298
798,96	6,486
799,14	6,708
799,33	6,490
799,51	6,449
799,70	6,283
799,88	6,481
800,07	6,398
800,25	6,524
800,44	5,852
800,62	6,205
800,80	6,167
800,99	6,256
801,17	6,076
801,36	6,317
801,54	5,908
801,73	6,247
801,91	6,739
802,10	6,766
802,28	6,665
802,46	6,638
802,65	6,471
802,83	6,788
803,02	6,617
803,20	6,357
803,39	6,304
803,57	6,356
803,75	6,730
803,94	6,824
804,12	6,678
804,31	6,978
804,49	6,691
804,67	6,128
804,86	6,203
805,04	6,518
805,23	6,553
805,41	6,483
805,59	6,569
805,78	6,517
805,96	6,414
806,15	6,594
806,33	6,452
806,51	6,105
806,70	6,177
806,88	6,265
807,07	6,132
807,25	6,328
807,43	6,155
807,62	6,436
807,80	6,386
807,99	6,355
808,17	6,256
808,35	6,608
808,54	6,082
808,72	6,137
808,90	7,069
809,09	6,764
809,27	6,803
809,46	6,325
809,64	6,211
809,82	6,152
810,01	6,501
810,19	6,319
810,37	6,201
810,56	6,333
810,74	5,933
810,92	6,630
811,11	6,098
811,29	6,566
811,48	5,966
811,66	6,938
811,84	7,048
812,03	6,428
812,21	6,524
812,39	6,665
812,58	6,422
812,76	6,488
812,94	6,429
813,13	5,957
813,31	6,899
813,49	6,601
813,68	6,409
813,86	6,957
814,04	6,101
814,23	6,309
814,41	6,075
814,59	6,163
814,78	6,261
814,96	6,197
815,14	6,174
815,33	6,427
815,51	6,491
815,69	6,091
815,87	6,468
816,06	6,399
816,24	7,006
816,42	6,098
816,61	6,114
816,79	6,998
816,97	7,120
817,16	6,361
817,34	6,509
817,52	6,314
817,70	6,562
817,89	6,249
818,07	6,134
818,25	6,597
818,44	6,116
818,62	6,235
818,80	6,574
818,98	5,709
819,17	6,108
819,35	6,158
819,53	6,333
819,72	6,267
819,90	6,407
820,08	6,513
820,26	6,617
820,45	6,638
820,63	6,978
820,81	6,672
820,99	6,848
821,18	6,542
821,36	6,038
821,54	6,431
821,73	6,538
821,91	6,471
822,09	6,267
822,27	6,876
822,46	6,500
822,64	6,860
822,82	6,320
823,00	6,451
823,19	6,340
823,37	6,161
823,55	6,555
823,73	6,787
823,91	6,268
824,10	6,590
824,28	6,395
824,46	6,259
824,64	6,396
824,83	6,269
825,01	6,792
825,19	6,351
825,37	6,631
825,56	6,187
825,74	6,770
825,92	6,550
826,10	7,360
826,28	6,737
826,47	6,428
826,65	6,789
826,83	7,073
827,01	6,519
827,19	7,148
827,38	6,931
827,56	7,344
827,74	6,817
827,92	6,558
828,10	6,434
828,29	6,730
828,47	5,874
828,65	6,713
828,83	6,577
829,01	6,253
829,20	5,883
829,38	6,632
829,56	6,375
829,74	6,643
829,92	5,865
830,10	6,680
830,29	6,444
830,47	6,212
830,65	6,276
830,83	6,483
831,01	6,627
831,20	6,218
831,38	5,866
831,56	6,880
831,74	6,922
831,92	6,398
832,10	6,785
832,29	7,329
832,47	6,542
832,65	6,370
832,83	6,638
833,01	6,767
833,19	6,550
833,37	6,828
833,56	6,917
833,74	7,059
833,92	6,745
834,10	6,814
834,28	6,151
834,46	6,687
834,64	6,555
834,83	6,198
835,01	6,175
835,19	6,602
835,37	6,009
835,55	6,583
835,73	6,949
835,91	6,573
836,09	6,181
836,28	6,680
836,46	6,526
836,64	6,244
836,82	6,344
837,00	6,612
837,18	7,054
837,36	6,844
837,54	6,472
837,72	6,639
837,91	6,472
838,09	6,764
838,27	6,710
838,45	6,809
838,63	6,934
838,81	6,728
838,99	6,290
839,17	7,200
839,35	6,439
839,53	6,785
839,72	7,358
839,90	6,941
840,08	7,024
840,26	6,352
840,44	6,998
840,62	7,516
840,80	7,445
840,98	6,949
841,16	7,079
841,34	7,297
841,52	7,224
841,70	6,446
841,89	6,575
842,07	6,730
842,25	6,534
842,43	6,618
842,61	6,869
842,79	6,516
842,97	6,191
843,15	6,799
843,33	7,061
843,51	6,997
843,69	6,536
843,87	6,904
844,05	7,413
844,23	6,540
844,41	7,169
844,59	6,654
844,77	7,256
844,95	6,984
845,13	6,712
845,31	7,025
845,50	6,894
845,68	6,918
845,86	6,543
846,04	6,375
846,22	6,790
846,40	7,052
846,58	6,942
846,76	7,178
846,94	6,836
847,12	7,304
847,30	6,854
847,48	7,090
847,66	6,887
847,84	7,504
848,02	7,069
848,20	7,034
848,38	6,652
848,56	6,773
848,74	7,285
848,92	6,925
849,10	6,863
849,28	7,279
849,46	6,492
849,64	7,151
849,82	6,907
850,00	7,610
850,18	7,469
850,36	7,387
850,54	7,599
850,72	7,776
850,90	7,628
851,08	8,043
851,26	8,423
851,44	8,363
851,62	8,317
851,80	7,692
851,98	8,434
852,16	8,036
852,34	8,427
852,52	7,954
852,70	8,127
852,87	9,364
853,05	8,782
853,23	9,024
853,41	9,614
853,59	9,535
853,77	9,400
853,95	9,804
854,13	9,571
854,31	10,236
854,49	10,443
854,67	10,425
854,85	10,673
855,03	11,474
855,21	11,684
855,39	12,119
855,57	12,019
855,75	11,989
855,93	12,572
856,11	11,925
856,28	13,308
856,46	13,126
856,64	13,002
856,82	13,590
857,00	13,333
857,18	14,471
857,36	14,138
857,54	15,067
857,72	14,985
857,90	15,652
858,08	15,748
858,26	16,282
858,44	17,024
858,61	17,421
858,79	17,740
858,97	17,755
859,15	18,260
859,33	18,818
859,51	19,476
859,69	20,118
859,87	20,626
860,05	20,915
860,23	21,128
860,40	21,990
860,58	22,429
860,76	23,383
860,94	24,586
861,12	25,919
861,30	25,607
861,48	27,027
861,66	28,112
861,84	28,885
862,01	30,818
862,19	31,776
862,37	32,462
862,55	34,264
862,73	36,025
862,91	37,702
863,09	38,723
863,27	40,105
863,44	42,305
863,62	43,812
863,80	46,372
863,98	47,387
864,16	50,091
864,34	51,854
864,52	53,415
864,69	55,311
864,87	56,913
865,05	58,543
865,23	59,130
865,41	59,876
865,59	61,002
865,76	62,573
865,94	64,140
866,12	63,846
866,30	64,186
866,48	64,964
866,66	64,469
866,83	66,108
867,01	65,415
867,19	66,164
867,37	65,908
867,55	65,399
867,73	64,850
867,90	65,085
868,08	65,145
868,26	65,154
868,44	65,432
868,62	64,574
868,79	64,430
868,97	65,543
869,15	65,035
869,33	64,966
869,51	65,379
869,69	64,434
869,86	66,584
870,04	65,008
870,22	65,541
870,40	64,700
870,57	65,914
870,75	65,249
870,93	64,802
871,11	64,888
871,29	65,259
871,46	64,974
871,64	63,268
871,82	62,933
872,00	62,974
872,18	62,034
872,35	61,131
872,53	61,640
872,71	59,235
872,89	58,414
873,06	57,898
873,24	55,699
873,42	54,836
873,60	53,769
873,77	51,420
873,95	50,405
874,13	48,824
874,31	47,941
874,49	46,420
874,66	44,910
874,84	43,728
875,02	41,280
875,20	40,360
875,37	39,594
875,55	36,431
875,73	35,491
875,91	33,986
876,08	33,189
876,26	31,911
876,44	31,566
876,61	30,623
876,79	28,578
876,97	26,820
877,15	25,869
877,32	24,858
877,50	23,931
877,68	22,948
877,86	21,871
878,03	20,566
878,21	20,075
878,39	19,100
878,56	19,031
878,74	18,788
878,92	17,553
879,10	17,667
879,27	17,904
879,45	17,173
879,63	16,875
879,80	16,674
879,98	16,570
880,16	16,501
880,34	15,527
880,51	14,881
880,69	15,434
880,87	14,562
881,04	13,983
881,22	13,236
881,40	12,357
881,57	12,321
881,75	10,866
881,93	11,446
882,10	9,546
882,28	9,770
882,46	8,774
882,63	8,099
882,81	7,154
882,99	6,654
883,16	5,971
883,34	6,648
883,52	5,786
883,69	5,644
883,87	5,059
884,05	5,313
884,22	4,993
884,40	4,910
884,58	6,110
884,75	5,572
884,93	5,489
885,11	5,433
885,28	5,497
885,46	5,273
885,64	5,353
885,81	5,356
885,99	5,453
886,17	5,700
886,34	5,192
886,52	5,845
886,70	5,061
886,87	5,380
887,05	5,392
887,22	5,586
887,40	5,622
887,58	5,325
887,75	4,672
887,93	5,359
888,11	5,562
888,28	5,023
888,46	5,405
888,63	5,005
888,81	5,436
888,99	5,217
889,16	5,052
889,34	4,820
889,51	5,396
889,69	5,062
889,87	5,526
890,04	4,509
890,22	5,741
890,39	4,968
890,57	5,592
890,75	5,365
890,92	5,554
891,10	4,640
891,27	5,121
891,45	5,060
891,63	5,285
891,80	5,232
891,98	4,673
892,15	4,632
892,33	4,658
892,51	5,180
892,68	4,511
892,86	5,429
893,03	5,146
893,21	4,905
893,38	4,956
893,56	5,436
893,74	4,908
893,91	4,737
894,09	5,489
894,26	4,830
894,44	4,594
894,61	4,329
894,79	4,909
894,96	4,932
895,14	4,884
895,32	5,310
895,49	4,532
895,67	4,800
895,84	4,553
896,02	4,120
896,19	4,947
896,37	4,868
896,54	4,948
896,72	4,966
896,89	5,076
897,07	5,056
897,25	4,401
897,42	4,770
897,60	5,327
897,77	4,971
897,95	4,284
898,12	4,791
898,30	4,715
898,47	3,966
898,65	4,809
898,82	4,107
899,00	4,178
899,17	4,367
899,35	4,424
899,52	5,470
899,70	4,302
899,87	4,471
900,05	4,480
900,22	4,757
900,40	5,152
900,57	4,689
900,75	4,224
900,92	4,400
901,10	4,498
901,27	4,027
901,45	4,294
901,62	4,357
901,80	4,239
901,97	4,751
902,15	4,570
902,32	4,226
902,50	4,025
902,67	4,746
902,85	4,504
903,02	4,223
903,20	4,348
903,37	4,687
903,54	3,989
903,72	4,303
903,89	4,617
904,07	4,200
904,24	4,114
904,42	4,531
904,59	4,040
904,77	4,754
904,94	4,858
905,12	4,184
905,29	4,721
905,47	4,146
905,64	4,628
905,81	4,548
905,99	4,777
906,16	4,689
906,34	4,367
906,51	4,094
906,69	4,312
906,86	3,645
907,03	4,458
907,21	4,288
907,38	4,142
907,56	3,866
907,73	4,611
907,91	4,739
908,08	4,930
908,25	4,428
908,43	4,204
908,60	4,309
908,78	5,001
908,95	3,965
909,13	3,990
909,30	3,809
909,47	3,929
909,65	3,807
909,82	4,380
910,00	4,648
910,17	3,860
910,34	3,976
910,52	3,696
910,69	4,145
910,87	4,031
911,04	4,096
911,21	4,357
911,39	3,791
911,56	4,088
911,73	4,050
911,91	4,177
912,08	3,902
912,26	3,865
912,43	4,183
912,60	4,011
912,78	3,902
912,95	3,916
913,13	4,174
913,30	4,161
913,47	3,922
913,65	3,847
913,82	4,451
913,99	3,254
914,17	4,105
914,34	3,892
914,51	3,990
914,69	4,187
914,86	4,612
915,03	3,971
915,21	3,921
915,38	3,775
915,56	4,242
915,73	3,192
915,90	3,806
916,08	4,097
916,25	3,825
916,42	4,395
916,60	3,833
916,77	3,299
916,94	4,053
917,12	3,540
917,29	3,382
917,46	3,776
917,64	3,915
917,81	3,873
917,98	3,981
918,16	2,987
918,33	3,191
918,50	3,404
918,67	2,802
918,85	3,343
919,02	3,731
919,19	3,106
919,37	3,444
919,54	3,983
919,71	3,327
919,89	3,268
920,06	3,621
920,23	2,970
920,41	3,327
920,58	3,600
920,75	3,423
920,92	3,994
921,10	3,508
921,27	3,436
921,44	3,835
921,62	3,489
921,79	3,114
921,96	4,109
922,13	3,633
922,31	3,817
922,48	3,896
922,65	3,567
922,82	3,592
923,00	3,257
923,17	3,225
923,34	3,297
923,52	3,516
923,69	3,100
923,86	3,593
924,03	3,190
924,21	3,311
924,38	3,435
924,55	3,076
924,72	2,810
924,90	3,577
925,07	3,138
925,24	2,823
925,41	2,925
925,59	3,094
925,76	3,657
925,93	2,833
926,10	2,493
926,28	2,991
926,45	2,713
926,62	2,801
926,79	3,508
926,96	2,871
927,14	2,868
927,31	3,111
927,48	2,637
927,65	3,471
927,83	2,822
928,00	3,227
928,17	3,314
928,34	3,092
928,51	3,172
928,69	2,860
928,86	2,693
929,03	3,287
929,20	3,120
929,37	2,951
929,55	3,456
929,72	3,013
929,89	2,726
930,06	2,435
930,23	3,441
930,41	2,917
930,58	2,505
930,75	2,759
930,92	3,013
931,09	2,587
931,27	3,163
931,44	2,880
931,61	2,982
931,78	2,907
931,95	2,936
932,12	3,244
932,30	3,343
932,47	2,866
932,64	3,179
932,81	2,668
932,98	3,224
933,16	2,763
933,33	2,954
933,50	2,751
933,67	2,469
933,84	2,007
934,01	2,652
934,18	2,590
934,36	2,663
934,53	3,150
934,70	2,834
934,87	3,373
935,04	3,101
935,21	2,811
935,38	2,819
935,56	2,393
935,73	3,119
935,90	3,257
936,07	3,320
936,24	3,025
936,41	3,374
936,58	2,631
936,76	2,968
936,93	2,720
937,10	2,909
937,27	2,749
937,44	2,461
937,61	3,339
937,78	1,989
937,95	3,312
938,13	2,816
938,30	2,134
938,47	2,413
938,64	3,375
938,81	2,502
938,98	2,665
939,15	2,819
939,32	2,715
939,49	2,501
939,66	2,512
939,84	2,985
940,01	2,838
940,18	2,627
940,35	2,061
940,52	2,194
940,69	2,383
940,86	2,806
941,03	2,375
941,20	3,072
941,37	2,531
941,54	2,585
941,71	2,839
941,89	3,021
942,06	2,562
942,23	2,870
942,40	2,242
942,57	2,808
942,74	2,944
942,91	2,795
943,08	2,151
943,25	1,998
943,42	2,355
943,59	2,781
943,76	3,106
943,93	2,624
944,10	2,694
944,27	2,476
944,44	2,313
944,61	2,623
944,79	2,703
944,96	2,771
945,13	2,558
945,30	3,181
945,47	2,956
945,64	2,807
945,81	2,462
945,98	3,109
946,15	2,536
946,32	2,397
946,49	2,301
946,66	2,820
946,83	1,992
947,00	2,770
947,17	3,339
947,34	2,856
947,51	2,741
947,68	2,900
947,85	2,461
948,02	2,581
948,19	2,366
948,36	2,610
948,53	1,996
948,70	3,115
948,87	2,298
949,04	2,017
949,21	3,143
949,38	2,909
949,55	3,568
949,72	2,307
949,89	2,427
950,06	2,447
950,23	2,484
950,40	3,627
950,57	1,912
950,74	2,919
950,91	2,282
951,08	2,608
951,25	3,878
951,42	2,851
951,59	3,340
951,76	2,832
951,93	2,659
952,10	3,589
952,27	2,982
952,44	2,870
952,61	2,198
952,77	3,479
952,94	3,645
953,11	3,466
953,28	1,934
953,45	3,824
953,62	3,193
953,79	2,838
953,96	3,133
954,13	3,923
954,30	3,227
954,47	2,972
954,64	2,983
954,81	3,326
954,98	3,584
955,15	3,258
955,32	2,173
955,49	3,144
955,65	3,317
955,82	2,671
955,99	3,171
956,16	3,707
956,33	3,660
956,50	2,424
956,67	3,241
956,84	2,633
957,01	1,899
957,18	2,114
957,35	3,092
957,52	3,294
957,68	3,061
957,85	3,364
958,02	3,241
958,19	3,074
958,36	3,700
958,53	3,618
958,70	4,365
958,87	4,281
959,04	4,929
959,21	4,175
959,37	4,273
959,54	3,920
959,71	3,802
959,88	3,850
960,05	4,130
960,22	3,354
960,39	3,558
960,56	3,642
960,72	4,112
960,89	5,456
961,06	3,690
961,23	4,512
961,40	5,386
961,57	3,257
961,74	2,203
961,90	4,862
962,07	4,674
962,24	5,152
962,41	2,580
962,58	4,824
962,75	4,115
962,92	1,917
963,08	4,252
963,25	4,389
963,42	3,398
963,59	3,796
963,76	4,054
963,93	3,861
964,10	4,225
964,26	4,224
964,43	3,178
964,60	2,171
964,77	3,739
964,94	5,227
965,10	3,993
965,27	3,453
965,44	4,141
965,61	5,166
965,78	5,116
965,95	5,474
966,11	5,365
966,28	4,066
966,45	4,299
966,62	4,480
966,79	5,398
966,95	3,916
967,12	4,714
967,29	3,768
967,46	6,098
967,63	4,532
967,79	7,097
967,96	4,197
968,13	2,314
968,30	4,480
968,47	3,491
968,63	4,082
968,80	5,745
968,97	5,146
969,14	4,711
969,31	4,840
969,47	4,304
969,64	4,764
969,81	2,672
969,98	3,803
970,14	4,075
970,31	6,076
970,48	4,556
970,65	4,760
970,81	3,898
970,98	4,113
971,15	5,293
971,32	3,826
971,48	3,771
971,65	5,386
971,82	5,521
971,99	3,875
972,15	4,560
972,32	6,286
972,49	5,216
972,66	5,257
972,82	5,361
972,99	4,926
973,16	4,661
973,33	4,996
973,49	5,958
973,66	3,400
973,83	4,141
974,00	4,818
974,16	5,612
974,33	4,406
974,50	4,870
974,67	7,062
974,83	3,654
975,00	4,182
975,17	6,099
975,33	6,286
975,50	6,482
975,67	4,607
975,84	3,714
976,00	4,856
976,17	3,808
976,34	4,904
976,50	4,622
976,67	6,037
976,84	4,447
977,00	5,274
977,17	6,320
977,34	3,900
977,50	3,150
977,67	5,585
977,84	4,846
978,01	4,432
978,17	4,446
978,34	5,994
978,51	4,123
978,67	5,225
978,84	4,165
979,01	4,340
979,17	7,178
979,34	6,480
979,51	6,895
979,67	3,729
979,84	4,604
980,01	4,819
980,17	3,327
980,34	4,430
980,51	6,838
980,67	6,635
980,84	4,732
981,01	3,448
981,17	5,668
981,34	7,413
981,50	3,654
981,67	5,802
981,84	4,505
982,00	4,894
982,17	6,402
982,34	7,628
982,50	5,182
982,67	3,341
982,84	3,535
983,00	3,938
983,17	5,496
983,33	3,711
983,50	2,551
983,67	6,908
983,83	4,057
984,00	4,641
984,17	5,961
984,33	4,478
984,50	3,634
984,66	6,480
984,83	4,957
985,00	4,016
985,16	5,945
985,33	4,373
985,49	5,553
985,66	6,466
985,83	4,720
985,99	4,881
986,16	5,304
986,32	7,187
986,49	4,918
986,66	4,235
986,82	5,198
986,99	4,641
987,15	6,785
987,32	3,470
987,49	3,081
987,65	6,623
987,82	3,777
987,98	3,267
988,15	4,073
988,31	5,040
988,48	5,475
988,65	2,787
988,81	3,993
988,98	2,888
989,14	6,112
989,31	4,121
989,47	4,169
989,64	4,650
989,80	2,987
989,97	6,164
990,14	4,466
990,30	5,781
990,47	7,074
990,63	6,225
990,80	5,926
990,96	7,373
991,13	5,142
991,29	3,427
991,46	4,781
991,62	3,991
991,79	3,695
991,95	7,570
992,12	7,339
992,29	4,952
992,45	3,851
992,62	5,175
992,78	3,880
992,95	4,239
993,11	5,478
993,28	5,659
993,44	2,779
993,61	6,106
993,77	2,584
993,94	5,620
994,10	3,984
994,27	4,484
994,43	5,336
994,60	5,911
994,76	5,679
994,93	3,285
995,09	7,065
995,26	5,785
995,42	1,304
995,59	3,468
995,75	5,698
995,92	6,401
996,08	7,076
996,25	7,941
996,41	5,348
996,58	7,797
996,74	5,796
996,91	4,723
997,07	5,433
997,23	5,567
997,40	3,903
997,56	2,648
997,73	5,453
997,89	5,993
998,06	5,526
998,22	3,584
998,39	4,506
998,55	8,112
998,72	4,835
998,88	4,865
999,05	6,418
999,21	2,596
999,37	4,405
999,54	6,529
999,70	3,093
999,87	4,258
1000,03	5,548
1000,20	5,486
1000,36	1,827
1000,52	6,839
1000,69	6,082
1000,85	3,670
1001,02	8,047
1001,18	4,578
1001,35	3,246
1001,51	5,904
1001,67	2,595
1001,84	6,028
1002,00	2,303
1002,17	6,748
1002,33	5,743
1002,50	4,117
1002,66	5,629
1002,82	4,655
1002,99	3,625
1003,15	4,640
1003,32	5,046
1003,48	2,851
1003,64	4,556
1003,81	4,822
1003,97	8,438
1004,14	3,828
1004,30	2,541
1004,46	1,340
1004,63	5,128
1004,79	6,446
1004,95	4,802
1005,12	9,547
1005,28	7,362
1005,45	5,834
1005,61	4,194
1005,77	10,834
1005,94	8,443
1006,10	5,353
1006,26	5,085
1006,43	9,651
1006,59	0,861
1006,76	3,005
1006,92	7,506
1007,08	3,659
1007,25	5,373
1007,41	0,798
1007,57	5,124
1007,74	7,672
1007,90	4,491
1008,06	8,520
1008,23	6,545
1008,39	6,508
1008,55	4,083
1008,72	7,907
1008,88	4,496
1009,04	5,312
1009,21	2,978
1009,37	4,207
1009,53	4,973
1009,70	1,324
1009,86	5,353
1010,02	4,355
1010,19	4,912
1010,35	5,964
1010,51	2,330
1010,68	7,799
1010,84	3,936
1011,00	6,466
1011,17	6,534
1011,33	2,256
1011,49	5,836
1011,66	4,981
1011,82	1,670
1011,98	3,333
1012,14	3,912
1012,31	6,268
1012,47	5,850
1012,63	6,307
1012,80	5,179
1012,96	4,022
1013,12	0,293
1013,29	5,714
1013,45	4,790
1013,61	12,734
1013,77	3,516
1013,94	6,237
1014,10	4,090
1014,26	2,903
1014,43	4,577
1014,59	2,165
1014,75	5,065
1014,91	6,289
1015,08	6,143
1015,24	9,858
1015,40	6,408
1015,56	2,280
1015,73	4,242
1015,89	4,440
1016,05	3,269
1016,21	7,717
1016,38	6,797
1016,54	6,139
1016,70	8,342
1016,86	3,419
1017,03	2,065
1017,19	6,268
1017,35	2,121
1017,51	6,303
1017,68	3,644
1017,84	0,107
1018,00	5,501
1018,16	3,061
1018,33	7,328
1018,49	4,767
1018,65	7,768
1018,81	6,250
1018,97	6,364
1019,14	2,242
1019,30	4,281
1019,46	4,784
1019,62	6,186
1019,79	4,167
1019,95	7,358
1020,11	7,227
1020,27	3,636
1020,43	0,945
1020,60	3,819
1020,76	12,597
1020,92	6,977
1021,08	4,274
1021,24	5,725
1021,41	1,831
1021,57	3,821
1021,73	8,237
1021,89	2,008
1022,05	10,482
1022,21	2,900
1022,38	7,394
1022,54	7,160
1022,70	5,983
1022,86	3,004
1023,02	11,384
1023,19	1,194
1023,35	-3,542
1023,51	12,010
1023,67	5,906
1023,83	10,035
1023,99	10,154
1024,16	5,997
1024,32	4,472
1024,48	7,773
1024,64	5,114
1024,80	3,862
1024,96	3,162
1025,12	8,861
1025,29	4,385
1025,45	7,417
1025,61	8,212
1025,77	-1,594
1025,93	4,839
1026,09	6,840
1026,26	3,070
1026,42	4,918
1026,58	1,567
1026,74	4,520
1026,90	7,114
1027,06	3,061
1027,22	7,703
1027,38	-2,707
1027,55	4,284
1027,71	5,739
1027,87	6,416
1028,03	7,637
1028,19	2,199
1028,35	-1,562
1028,51	6,122
1028,67	6,777
1028,83	3,221
1029,00	6,809
1029,16	1,824
1029,32	9,403
1029,48	1,775
1029,64	7,958
1029,80	11,111
1029,96	0,000
1030,12	5,172
1030,28	0,000
1030,44	3,566
1030,61	5,380
1030,77	4,870
1030,93	8,899
1031,09	5,821
1031,25	1,849
1031,41	5,763
1031,57	5,977
1031,73	1,951
1031,89	5,132
1032,05	12,440
1032,21	4,167
1032,37	1,654
1032,53	3,994
1032,69	5,155
1032,86	3,466
1033,02	-0,506
1033,18	-1,199
1033,34	4,028
1033,50	10,684
1033,66	4,710
1033,82	9,402
1033,98	-1,081
1034,14	-2,452
1034,30	8,897
1034,46	5,188
1034,62	6,857
1034,78	8,591
1034,94	7,558
1035,10	4,982
1035,26	3,757
1035,42	8,097
1035,58	1,692
1035,74	3,000
1035,90	1,165
1036,06	0,412
1036,22	6,429
1036,38	11,175
1036,54	0,199
1036,70	0,802
1036,86	6,130
1037,02	2,095
1037,18	8,302
1037,34	7,843
1037,50	-4,959
1037,66	17,949
1037,82	2,972
1037,98	0,380
1038,14	4,691
1038,30	12,967
1038,46	5,545
1038,62	-10,084
1038,78	4,490
1038,94	-0,211
1039,10	13,230
1039,26	8,817
1039,42	20,441
1039,58	3,326
1039,74	3,917
1039,90	5,444
1040,06	2,128
>>>>>End Processed Spectral Data<<<<<
