SpectraSuite Data File
++++++++++++++++++++++++++++++++++++
Date: Thu Feb 02 18:40:20 EET 2017
User: optolab
Dark Spectrum Present: Yes
Reference Spectrum Present: Yes
Number of Sampled Component Spectra: 1
Spectrometers: USB4C02475
Integration Time (usec): 151411 (USB4C02475)
Spectra Averaged: 1 (USB4C02475)
Boxcar Smoothing: 0 (USB4C02475)
Correct for Electrical Dark: No (USB4C02475)
Strobe/Lamp Enabled: No (USB4C02475)
Correct for Detector Non-linearity: No (USB4C02475)
Correct for Stray Light: No (USB4C02475)
Number of Pixels in Processed Spectrum: 3648
>>>>>Begin Processed Spectral Data<<<<<
344,91	296,296
345,13	296,296
345,35	296,296
345,57	-120,000
345,79	-238,462
346,00	76,000
346,22	16,216
346,44	-84,615
346,66	266,667
346,87	40,000
347,09	-1600,000
347,31	4000,000
347,53	84,615
347,74	412,500
347,96	555,556
348,18	129,268
348,40	46,667
348,61	74,510
348,83	75,000
349,05	67,273
349,27	86,765
349,48	43,137
349,70	116,364
349,92	21,951
350,14	350,000
350,35	-11,538
350,57	52,941
350,79	70,213
351,01	87,097
351,22	442,857
351,44	55,556
351,66	51,220
351,87	77,273
352,09	-13,462
352,31	91,304
352,53	33,871
352,74	131,250
352,96	44,898
353,18	222,727
353,40	207,143
353,61	40,000
353,83	-48,000
354,05	48,276
354,26	34,091
354,48	-50,000
354,70	42,500
354,92	28,571
355,13	6,122
355,35	-200,000
355,57	10,390
355,78	92,500
356,00	-6,977
356,22	29,851
356,44	0,000
356,65	107,692
356,87	41,975
357,09	7,246
357,30	100,000
357,52	-145,714
357,74	18,462
357,95	-105,556
358,17	-50,000
358,39	525,000
358,60	-12,632
358,82	45,833
359,04	-61,111
359,26	140,000
359,47	37,931
359,69	850,000
359,91	-12,500
360,12	-36,508
360,34	-15,789
360,56	3,158
360,77	37,037
360,99	145,000
361,21	85,897
361,42	-80,000
361,64	13,636
361,86	23,077
362,07	38,614
362,29	-464,286
362,51	85,185
362,72	17,500
362,94	45,000
363,16	56,522
363,37	6,250
363,59	48,352
363,81	-66,102
364,02	45,455
364,24	4,615
364,46	4,000
364,67	27,778
364,89	10,811
365,11	-433,333
365,32	56,140
365,54	4,348
365,76	5,000
365,97	58,571
366,19	-17,544
366,41	24,615
366,62	42,857
366,84	16,667
367,05	18,056
367,27	50,000
367,49	37,879
367,70	30,435
367,92	78,481
368,14	58,065
368,35	18,519
368,57	14,444
368,79	21,622
369,00	30,714
369,22	56,250
369,43	-6,122
369,65	38,095
369,87	30,864
370,08	4,348
370,30	32,941
370,51	47,328
370,73	-1,587
370,95	45,361
371,16	46,970
371,38	16,438
371,60	17,442
371,81	48,421
372,03	0,000
372,24	10,526
372,46	-5,000
372,68	11,392
372,89	43,860
373,11	40,741
373,32	31,746
373,54	-31,250
373,76	21,008
373,97	8,943
374,19	60,000
374,40	59,130
374,62	34,091
374,84	-9,709
375,05	22,105
375,27	2,381
375,48	9,091
375,70	2,027
375,92	-25,000
376,13	22,857
376,35	17,073
376,56	30,128
376,78	23,077
376,99	-53,247
377,21	32,540
377,43	56,250
377,64	22,034
377,86	54,839
378,07	28,421
378,29	10,909
378,51	23,438
378,72	22,222
378,94	13,986
379,15	12,676
379,37	11,679
379,58	17,949
379,80	28,177
380,01	4,000
380,23	2,985
380,45	11,000
380,66	21,528
380,88	23,529
381,09	-19,318
381,31	18,235
381,52	25,000
381,74	11,950
381,95	-44,737
382,17	11,236
382,39	16,265
382,60	-7,914
382,82	12,057
383,03	-5,000
383,25	23,404
383,46	-12,174
383,68	-4,430
383,89	25,824
384,11	-13,690
384,32	16,429
384,54	-7,619
384,76	45,665
384,97	2,841
385,19	-15,200
385,40	24,405
385,62	24,468
385,83	0,000
386,05	32,168
386,26	10,582
386,48	12,338
386,69	-3,200
386,91	14,054
387,12	8,511
387,34	7,735
387,55	-6,863
387,77	1,604
387,98	28,704
388,20	26,786
388,41	29,317
388,63	19,048
388,84	-9,396
389,06	15,847
389,27	40,092
389,49	8,738
389,70	11,170
389,92	29,064
390,13	-22,297
390,35	11,161
390,56	21,721
390,78	26,778
390,99	11,917
391,21	28,922
391,42	-0,810
391,64	22,642
391,85	0,000
392,07	-0,549
392,28	26,190
392,50	36,154
392,71	4,020
392,93	-2,075
393,14	-15,847
393,36	4,955
393,57	10,300
393,79	10,502
394,00	10,000
394,22	-6,030
394,43	8,370
394,65	4,564
394,86	17,490
395,08	-8,092
395,29	-15,556
395,50	14,912
395,72	-0,426
395,93	4,132
396,15	30,545
396,36	10,891
396,58	16,592
396,79	12,329
397,01	-5,485
397,22	4,869
397,44	-19,409
397,65	13,781
397,87	24,710
398,08	16,505
398,29	12,121
398,51	34,808
398,72	7,721
398,94	2,414
399,15	14,844
399,37	7,877
399,58	21,176
399,80	24,425
400,01	3,647
400,22	7,692
400,44	3,766
400,65	6,000
400,87	8,497
401,08	12,458
401,30	3,754
401,51	14,326
401,72	-1,838
401,94	18,881
402,15	19,706
402,37	7,143
402,58	-11,037
402,80	8,992
403,01	12,895
403,22	14,205
403,44	13,946
403,65	-11,888
403,87	-11,692
404,08	23,684
404,30	9,831
404,51	6,479
404,72	2,141
404,94	9,549
405,15	10,544
405,37	2,493
405,58	5,147
405,79	17,553
406,01	9,192
406,22	6,345
406,44	0,000
406,65	5,327
406,86	9,767
407,08	6,128
407,29	7,821
407,51	5,526
407,72	14,324
407,93	13,193
408,15	23,866
408,36	18,780
408,58	4,608
408,79	13,247
409,00	10,064
409,22	10,000
409,43	5,500
409,64	-3,769
409,86	0,696
410,07	13,319
410,29	11,556
410,50	3,061
410,71	0,831
410,93	7,045
411,14	8,243
411,35	0,000
411,57	2,511
411,78	15,743
412,00	11,015
412,21	8,029
412,42	1,860
412,64	5,996
412,85	1,124
413,06	11,031
413,28	0,418
413,49	-3,609
413,70	10,153
413,92	7,818
414,13	6,925
414,34	6,263
414,56	1,346
414,77	12,379
414,98	11,776
415,20	6,226
415,41	14,105
415,63	-1,741
415,84	17,690
416,05	14,653
416,27	11,861
416,48	6,998
416,69	6,457
416,91	-3,564
417,12	9,905
417,33	3,371
417,55	5,903
417,76	13,357
417,97	6,066
418,19	1,311
418,40	3,299
418,61	5,682
418,83	2,247
419,04	9,139
419,25	14,921
419,46	8,905
419,68	14,839
419,89	6,714
420,10	10,681
420,32	2,782
420,53	5,863
420,74	1,342
420,96	7,440
421,17	7,132
421,38	9,718
421,60	10,658
421,81	3,939
422,02	5,237
422,23	3,807
422,45	3,268
422,66	1,618
422,87	9,753
423,09	5,643
423,30	-1,558
423,51	1,863
423,73	4,885
423,94	8,953
424,15	5,758
424,36	8,234
424,58	5,345
424,79	9,524
425,00	4,378
425,22	11,139
425,43	3,753
425,64	0,580
425,85	10,132
426,07	2,044
426,28	7,860
426,49	1,828
426,71	5,867
426,92	7,186
427,13	1,521
427,34	5,245
427,56	2,771
427,77	6,681
427,98	3,215
428,19	7,728
428,41	7,919
428,62	2,540
428,83	3,164
429,04	6,019
429,26	6,770
429,47	6,479
429,68	5,829
429,89	2,309
430,11	10,670
430,32	2,326
430,53	4,146
430,74	0,716
430,96	5,099
431,17	3,491
431,38	8,905
431,59	2,379
431,81	7,473
432,02	5,344
432,23	3,418
432,44	1,065
432,66	3,725
432,87	4,094
433,08	4,897
433,29	6,367
433,51	7,917
433,72	3,090
433,93	6,462
434,14	4,566
434,35	5,315
434,57	4,401
434,78	0,073
434,99	3,251
435,20	5,174
435,42	4,014
435,63	7,707
435,84	6,143
436,05	2,751
436,26	6,246
436,48	5,796
436,69	4,978
436,90	3,886
437,11	4,518
437,32	4,484
437,54	2,440
437,75	4,350
437,96	5,671
438,17	4,153
438,38	4,724
438,60	2,143
438,81	4,388
439,02	5,143
439,23	6,133
439,44	0,862
439,66	3,978
439,87	2,195
440,08	3,094
440,29	3,095
440,50	3,401
440,72	3,333
440,93	1,592
441,14	3,009
441,35	3,500
441,56	1,560
441,77	3,134
441,99	4,068
442,20	1,568
442,41	5,079
442,62	3,470
442,83	4,026
443,04	2,371
443,26	1,340
443,47	3,348
443,68	1,608
443,89	3,668
444,10	2,552
444,31	2,757
444,53	2,737
444,74	2,454
444,95	2,758
445,16	1,940
445,37	2,732
445,58	4,175
445,80	2,974
446,01	4,299
446,22	1,873
446,43	1,498
446,64	3,445
446,85	2,042
447,06	1,927
447,28	2,145
447,49	1,827
447,70	0,986
447,91	2,603
448,12	2,000
448,33	3,148
448,54	2,772
448,76	1,625
448,97	2,959
449,18	2,658
449,39	1,193
449,60	1,193
449,81	1,961
450,02	2,367
450,23	1,538
450,45	1,065
450,66	1,550
450,87	2,018
451,08	1,778
451,29	1,003
451,50	1,096
451,71	1,619
451,92	1,774
452,13	1,446
452,35	1,244
452,56	1,461
452,77	1,613
452,98	1,373
453,19	1,425
453,40	1,785
453,61	1,360
453,82	1,572
454,03	1,255
454,25	0,996
454,46	0,935
454,67	0,979
454,88	1,596
455,09	0,849
455,30	1,524
455,51	0,677
455,72	0,817
455,93	1,388
456,14	1,376
456,35	0,817
456,56	1,214
456,78	1,459
456,99	1,010
457,20	1,236
457,41	1,434
457,62	1,363
457,83	0,847
458,04	0,714
458,25	1,077
458,46	0,641
458,67	0,956
458,88	0,623
459,09	0,751
459,30	0,815
459,51	0,781
459,73	0,513
459,94	0,583
460,15	0,750
460,36	0,693
460,57	0,786
460,78	0,819
460,99	1,116
461,20	0,703
461,41	0,470
461,62	0,609
461,83	1,019
462,04	0,668
462,25	0,860
462,46	0,803
462,67	0,754
462,88	0,929
463,09	0,703
463,30	0,874
463,51	0,848
463,72	0,687
463,93	0,821
464,15	0,588
464,36	0,828
464,57	0,728
464,78	0,923
464,99	0,734
465,20	0,550
465,41	0,695
465,62	0,881
465,83	0,801
466,04	0,418
466,25	0,815
466,46	0,780
466,67	0,751
466,88	0,699
467,09	0,547
467,30	0,610
467,51	0,406
467,72	0,634
467,93	0,812
468,14	0,848
468,35	0,458
468,56	0,604
468,77	0,616
468,98	0,799
469,19	0,658
469,40	0,754
469,61	0,684
469,82	0,797
470,03	0,540
470,24	0,833
470,45	0,821
470,66	0,754
470,87	0,833
471,08	0,887
471,29	0,813
471,50	0,799
471,71	0,758
471,92	0,518
472,13	0,769
472,34	0,641
472,55	0,914
472,76	0,790
472,97	0,879
473,18	0,935
473,39	0,837
473,60	0,872
473,81	0,926
474,01	0,897
474,22	0,797
474,43	0,897
474,64	0,970
474,85	1,001
475,06	0,925
475,27	1,031
475,48	1,004
475,69	1,109
475,90	0,924
476,11	1,166
476,32	1,187
476,53	1,163
476,74	1,209
476,95	1,005
477,16	1,058
477,37	1,412
477,58	1,340
477,79	1,303
478,00	1,008
478,21	1,252
478,41	1,239
478,62	1,078
478,83	1,357
479,04	1,295
479,25	1,286
479,46	1,049
479,67	1,459
479,88	1,171
480,09	1,115
480,30	1,338
480,51	1,262
480,72	1,555
480,93	1,429
481,14	1,444
481,34	1,438
481,55	1,478
481,76	1,148
481,97	1,508
482,18	1,532
482,39	1,515
482,60	1,180
482,81	1,512
483,02	1,398
483,23	1,808
483,44	1,556
483,65	1,574
483,85	1,532
484,06	1,675
484,27	1,596
484,48	1,525
484,69	1,451
484,90	1,770
485,11	1,176
485,32	1,378
485,53	1,658
485,73	1,579
485,94	1,550
486,15	1,446
486,36	1,452
486,57	1,580
486,78	1,716
486,99	1,446
487,20	1,727
487,41	1,811
487,61	1,620
487,82	1,589
488,03	1,723
488,24	1,347
488,45	1,619
488,66	1,824
488,87	1,709
489,08	1,462
489,28	1,631
489,49	1,615
489,70	1,953
489,91	1,520
490,12	1,759
490,33	1,584
490,54	1,669
490,74	1,789
490,95	1,868
491,16	1,772
491,37	1,692
491,58	1,881
491,79	1,736
492,00	1,572
492,20	1,866
492,41	1,780
492,62	1,829
492,83	1,697
493,04	1,933
493,25	1,774
493,45	1,745
493,66	2,146
493,87	1,675
494,08	1,397
494,29	1,570
494,50	1,901
494,70	1,872
494,91	1,701
495,12	1,829
495,33	1,811
495,54	2,112
495,75	1,926
495,95	2,057
496,16	1,959
496,37	2,055
496,58	1,884
496,79	1,799
496,99	1,853
497,20	1,922
497,41	1,934
497,62	1,697
497,83	1,895
498,04	1,967
498,24	1,903
498,45	1,905
498,66	2,064
498,87	2,181
499,08	2,250
499,28	1,982
499,49	2,001
499,70	1,870
499,91	2,070
500,12	2,005
500,32	1,896
500,53	1,969
500,74	2,223
500,95	2,088
501,15	2,119
501,36	2,050
501,57	1,926
501,78	2,012
501,99	1,971
502,19	1,978
502,40	2,074
502,61	2,211
502,82	1,997
503,02	2,074
503,23	2,056
503,44	2,166
503,65	2,272
503,86	2,215
504,06	2,005
504,27	2,203
504,48	2,174
504,69	2,063
504,89	2,045
505,10	2,363
505,31	2,252
505,52	2,060
505,72	2,351
505,93	2,573
506,14	2,441
506,35	2,461
506,55	2,105
506,76	2,213
506,97	2,217
507,18	2,321
507,38	2,270
507,59	2,211
507,80	2,573
508,01	2,546
508,21	2,465
508,42	2,599
508,63	2,599
508,84	2,170
509,04	2,373
509,25	2,517
509,46	2,519
509,67	2,619
509,87	2,496
510,08	2,447
510,29	2,465
510,49	2,398
510,70	2,564
510,91	2,526
511,12	2,721
511,32	2,544
511,53	2,261
511,74	2,359
511,94	2,606
512,15	2,675
512,36	2,512
512,57	2,561
512,77	2,419
512,98	2,415
513,19	2,344
513,39	2,510
513,60	2,315
513,81	2,514
514,01	2,176
514,22	2,450
514,43	2,453
514,64	2,506
514,84	2,723
515,05	2,587
515,26	2,463
515,46	2,761
515,67	2,662
515,88	2,659
516,08	2,588
516,29	2,364
516,50	2,538
516,70	2,678
516,91	2,982
517,12	2,776
517,32	2,479
517,53	2,953
517,74	3,118
517,95	2,891
518,15	2,836
518,36	2,979
518,57	2,869
518,77	2,896
518,98	2,868
519,19	3,014
519,39	3,147
519,60	2,912
519,80	2,950
520,01	3,038
520,22	2,953
520,42	2,778
520,63	2,812
520,84	2,867
521,04	3,142
521,25	2,890
521,46	2,827
521,66	2,842
521,87	2,904
522,08	3,145
522,28	3,096
522,49	3,372
522,70	2,896
522,90	2,754
523,11	3,037
523,31	3,159
523,52	2,878
523,73	3,148
523,93	3,054
524,14	2,826
524,35	3,336
524,55	3,653
524,76	3,099
524,97	3,106
525,17	3,158
525,38	3,315
525,58	3,373
525,79	3,347
526,00	3,844
526,20	3,605
526,41	3,336
526,61	3,410
526,82	3,677
527,03	3,361
527,23	3,479
527,44	3,565
527,64	3,854
527,85	3,792
528,06	3,370
528,26	3,390
528,47	3,433
528,68	3,411
528,88	3,069
529,09	3,507
529,29	3,686
529,50	3,647
529,70	3,337
529,91	3,560
530,12	3,504
530,32	3,731
530,53	3,682
530,73	3,500
530,94	3,603
531,15	3,570
531,35	3,714
531,56	3,733
531,76	3,922
531,97	3,869
532,17	4,230
532,38	4,024
532,59	3,771
532,79	4,091
533,00	3,793
533,20	4,021
533,41	3,831
533,61	3,635
533,82	4,061
534,03	3,938
534,23	4,048
534,44	3,891
534,64	4,279
534,85	4,361
535,05	3,969
535,26	3,824
535,46	4,288
535,67	4,043
535,88	4,269
536,08	4,159
536,29	4,211
536,49	4,345
536,70	4,084
536,90	4,244
537,11	4,415
537,31	4,153
537,52	4,380
537,72	4,381
537,93	4,341
538,13	4,241
538,34	4,043
538,55	4,429
538,75	4,183
538,96	4,170
539,16	4,472
539,37	4,315
539,57	3,972
539,78	3,831
539,98	4,129
540,19	4,177
540,39	4,113
540,60	4,672
540,80	4,163
541,01	4,485
541,21	4,241
541,42	4,621
541,62	4,638
541,83	4,682
542,03	4,556
542,24	4,832
542,44	4,297
542,65	4,638
542,85	4,495
543,06	4,900
543,26	4,428
543,47	5,177
543,67	4,647
543,88	4,763
544,08	4,854
544,29	4,605
544,49	4,768
544,70	4,811
544,90	4,348
545,11	4,366
545,31	4,757
545,52	4,679
545,72	5,223
545,93	4,929
546,13	5,199
546,34	4,992
546,54	4,874
546,75	4,657
546,95	4,669
547,15	4,816
547,36	4,702
547,56	5,027
547,77	4,796
547,97	4,811
548,18	4,960
548,38	5,136
548,59	4,652
548,79	5,155
549,00	5,225
549,20	4,964
549,41	5,142
549,61	5,007
549,81	4,956
550,02	4,996
550,22	5,086
550,43	5,274
550,63	5,157
550,84	5,627
551,04	4,884
551,25	5,065
551,45	5,272
551,65	5,306
551,86	4,833
552,06	5,366
552,27	5,044
552,47	5,071
552,68	5,291
552,88	5,138
553,08	5,160
553,29	4,820
553,49	4,908
553,70	4,856
553,90	5,263
554,11	4,982
554,31	5,498
554,51	5,542
554,72	5,197
554,92	5,186
555,13	5,497
555,33	5,542
555,53	5,270
555,74	5,723
555,94	5,260
556,15	5,467
556,35	5,193
556,56	5,387
556,76	5,411
556,96	5,515
557,17	5,264
557,37	5,134
557,58	5,354
557,78	5,444
557,98	5,148
558,19	4,955
558,39	5,293
558,59	5,076
558,80	5,341
559,00	5,403
559,21	5,293
559,41	5,054
559,61	5,376
559,82	5,510
560,02	5,300
560,23	5,744
560,43	5,720
560,63	5,110
560,84	5,467
561,04	5,295
561,24	5,108
561,45	5,600
561,65	5,282
561,85	5,550
562,06	5,465
562,26	5,338
562,47	5,699
562,67	5,181
562,87	5,456
563,08	5,567
563,28	5,456
563,48	5,295
563,69	5,261
563,89	5,225
564,09	5,390
564,30	5,217
564,50	4,883
564,70	5,588
564,91	5,383
565,11	5,738
565,31	5,564
565,52	5,535
565,72	5,655
565,92	5,169
566,13	5,356
566,33	5,460
566,53	5,503
566,74	5,472
566,94	5,259
567,14	5,596
567,35	5,281
567,55	5,391
567,75	5,304
567,96	5,610
568,16	5,588
568,36	5,368
568,57	5,658
568,77	5,375
568,97	5,346
569,18	5,475
569,38	5,690
569,58	5,009
569,79	5,664
569,99	5,915
570,19	5,405
570,39	5,581
570,60	5,911
570,80	5,390
571,00	5,274
571,21	5,195
571,41	5,632
571,61	5,286
571,82	5,979
572,02	5,852
572,22	5,479
572,42	5,855
572,63	5,622
572,83	5,645
573,03	5,502
573,24	5,278
573,44	5,325
573,64	5,582
573,84	5,471
574,05	5,358
574,25	5,758
574,45	5,735
574,66	5,800
574,86	5,313
575,06	5,365
575,26	5,510
575,47	5,861
575,67	5,783
575,87	5,796
576,07	5,460
576,28	5,702
576,48	5,490
576,68	5,294
576,88	5,474
577,09	5,444
577,29	5,265
577,49	5,567
577,69	5,624
577,90	5,550
578,10	5,445
578,30	5,311
578,50	5,513
578,71	5,643
578,91	5,599
579,11	5,426
579,31	5,462
579,52	5,543
579,72	5,599
579,92	5,266
580,12	5,531
580,33	5,054
580,53	5,528
580,73	5,234
580,93	5,601
581,13	5,489
581,34	5,409
581,54	5,217
581,74	5,670
581,94	5,309
582,15	5,491
582,35	5,365
582,55	5,666
582,75	5,272
582,95	5,225
583,16	5,320
583,36	5,432
583,56	5,282
583,76	5,310
583,96	5,148
584,17	5,446
584,37	5,470
584,57	5,515
584,77	5,357
584,97	5,342
585,18	5,536
585,38	5,225
585,58	5,078
585,78	5,105
585,98	5,227
586,19	5,302
586,39	5,629
586,59	5,292
586,79	5,609
586,99	5,446
587,20	5,485
587,40	5,568
587,60	5,167
587,80	5,028
588,00	5,266
588,20	5,233
588,41	5,078
588,61	5,103
588,81	4,940
589,01	5,406
589,21	5,217
589,41	4,958
589,62	5,218
589,82	5,176
590,02	5,018
590,22	4,957
590,42	5,168
590,62	5,005
590,83	5,003
591,03	4,951
591,23	5,186
591,43	5,195
591,63	4,733
591,83	4,769
592,03	4,824
592,24	5,106
592,44	4,962
592,64	5,164
592,84	4,743
593,04	5,042
593,24	4,986
593,44	4,815
593,65	4,832
593,85	4,809
594,05	5,051
594,25	4,810
594,45	4,688
594,65	4,765
594,85	4,781
595,06	4,849
595,26	4,498
595,46	4,964
595,66	5,008
595,86	4,858
596,06	4,713
596,26	4,706
596,46	4,734
596,66	4,734
596,87	4,921
597,07	4,862
597,27	4,635
597,47	4,863
597,67	4,809
597,87	4,727
598,07	4,952
598,27	4,768
598,47	4,808
598,67	4,993
598,88	4,624
599,08	5,116
599,28	5,315
599,48	5,397
599,68	4,990
599,88	5,341
600,08	5,261
600,28	5,444
600,48	5,051
600,68	5,302
600,88	5,549
601,09	5,346
601,29	5,071
601,49	5,529
601,69	5,556
601,89	5,575
602,09	5,560
602,29	5,529
602,49	5,403
602,69	5,899
602,89	5,452
603,09	5,579
603,29	5,774
603,49	5,385
603,69	5,657
603,90	5,658
604,10	5,522
604,30	5,620
604,50	5,694
604,70	5,246
604,90	5,647
605,10	5,833
605,30	5,913
605,50	5,838
605,70	5,770
605,90	5,849
606,10	5,988
606,30	5,797
606,50	5,778
606,70	6,038
606,90	5,922
607,10	5,894
607,30	5,945
607,50	6,052
607,70	5,935
607,90	5,977
608,10	5,487
608,30	5,709
608,50	5,765
608,70	5,920
608,90	6,042
609,11	5,914
609,31	5,861
609,51	5,953
609,71	6,161
609,91	6,168
610,11	5,815
610,31	6,145
610,51	6,154
610,71	5,858
610,91	5,952
611,11	6,037
611,31	6,054
611,51	6,118
611,71	6,170
611,91	5,659
612,11	5,901
612,31	5,960
612,51	6,293
612,71	6,281
612,91	6,145
613,11	5,973
613,31	6,257
613,51	6,316
613,71	6,133
613,91	6,387
614,11	6,193
614,31	6,273
614,50	6,437
614,70	6,401
614,90	6,152
615,10	6,190
615,30	6,080
615,50	6,188
615,70	6,227
615,90	6,052
616,10	6,283
616,30	6,430
616,50	6,275
616,70	6,477
616,90	6,379
617,10	6,783
617,30	6,515
617,50	6,707
617,70	6,686
617,90	6,736
618,10	6,758
618,30	7,002
618,50	6,744
618,70	7,179
618,90	7,039
619,10	7,413
619,30	7,424
619,49	7,718
619,69	7,649
619,89	7,864
620,09	7,882
620,29	7,955
620,49	8,100
620,69	8,258
620,89	8,451
621,09	8,586
621,29	8,633
621,49	8,627
621,69	9,194
621,89	9,222
622,09	9,301
622,29	8,864
622,48	9,475
622,68	9,866
622,88	9,993
623,08	10,213
623,28	10,342
623,48	10,834
623,68	11,177
623,88	10,901
624,08	11,495
624,28	11,662
624,48	11,620
624,67	11,869
624,87	12,022
625,07	12,287
625,27	13,012
625,47	13,051
625,67	13,690
625,87	13,656
626,07	14,059
626,27	14,615
626,47	15,141
626,66	15,274
626,86	16,109
627,06	16,620
627,26	16,813
627,46	18,178
627,66	18,453
627,86	19,431
628,06	19,748
628,25	20,142
628,45	21,508
628,65	21,851
628,85	23,865
629,05	24,668
629,25	25,355
629,45	26,480
629,65	28,353
629,84	29,056
630,04	30,598
630,24	31,501
630,44	33,472
630,64	34,815
630,84	35,430
631,04	36,276
631,23	37,542
631,43	38,542
631,63	39,546
631,83	39,804
632,03	41,224
632,23	40,994
632,42	42,284
632,62	42,668
632,82	43,555
633,02	42,955
633,22	43,470
633,42	44,158
633,62	44,633
633,81	44,875
634,01	45,964
634,21	45,358
634,41	47,423
634,61	47,569
634,80	49,158
635,00	49,235
635,20	51,220
635,40	52,166
635,60	53,765
635,80	56,150
635,99	56,411
636,19	57,276
636,39	60,496
636,59	60,207
636,79	62,051
636,98	62,263
637,18	63,474
637,38	64,402
637,58	65,708
637,78	65,565
637,97	66,408
638,17	67,217
638,37	66,995
638,57	67,897
638,77	67,208
638,96	67,979
639,16	67,723
639,36	66,110
639,56	66,648
639,76	65,923
639,95	65,229
640,15	64,215
640,35	62,984
640,55	61,856
640,75	60,334
640,94	58,816
641,14	58,567
641,34	58,021
641,54	56,791
641,73	54,962
641,93	54,694
642,13	52,517
642,33	52,177
642,53	50,278
642,72	48,643
642,92	48,198
643,12	45,665
643,32	44,763
643,51	43,859
643,71	42,632
643,91	41,383
644,11	40,022
644,30	39,629
644,50	38,664
644,70	37,459
644,90	36,500
645,09	35,387
645,29	34,359
645,49	33,437
645,69	32,511
645,88	30,732
646,08	28,837
646,28	27,696
646,48	26,225
646,67	24,602
646,87	23,026
647,07	21,460
647,26	19,878
647,46	18,460
647,66	17,516
647,86	16,230
648,05	15,630
648,25	13,874
648,45	13,008
648,65	12,225
648,84	11,348
649,04	10,384
649,24	9,550
649,43	8,913
649,63	8,747
649,83	7,869
650,03	7,909
650,22	7,316
650,42	7,164
650,62	6,906
650,81	7,024
651,01	6,715
651,21	6,572
651,40	6,518
651,60	6,319
651,80	6,066
652,00	6,442
652,19	6,494
652,39	6,329
652,59	6,313
652,78	6,270
652,98	6,338
653,18	6,210
653,37	6,001
653,57	5,938
653,77	5,874
653,96	5,858
654,16	6,226
654,36	6,133
654,55	5,813
654,75	6,044
654,95	5,711
655,14	5,944
655,34	6,138
655,54	6,224
655,73	6,139
655,93	6,123
656,13	5,884
656,32	5,890
656,52	5,799
656,72	5,919
656,91	5,813
657,11	5,493
657,31	6,100
657,50	5,660
657,70	5,761
657,90	5,670
658,09	5,754
658,29	5,606
658,49	5,899
658,68	5,728
658,88	5,566
659,07	5,545
659,27	5,577
659,47	6,015
659,66	5,752
659,86	5,823
660,06	5,890
660,25	5,893
660,45	6,015
660,64	5,957
660,84	5,960
661,04	6,010
661,23	5,824
661,43	5,874
661,63	5,554
661,82	5,728
662,02	5,916
662,21	5,652
662,41	6,078
662,61	6,078
662,80	6,014
663,00	5,730
663,19	5,852
663,39	5,647
663,59	5,874
663,78	5,942
663,98	5,838
664,17	5,632
664,37	5,749
664,57	5,795
664,76	6,129
664,96	5,766
665,15	5,786
665,35	5,768
665,55	5,565
665,74	6,075
665,94	5,520
666,13	5,840
666,33	5,760
666,53	5,782
666,72	6,200
666,92	5,876
667,11	6,104
667,31	6,026
667,50	5,754
667,70	5,656
667,90	5,876
668,09	5,814
668,29	5,397
668,48	5,751
668,68	5,830
668,87	5,668
669,07	5,705
669,26	5,409
669,46	5,569
669,66	5,477
669,85	5,466
670,05	5,644
670,24	5,463
670,44	5,586
670,63	5,689
670,83	5,892
671,02	5,598
671,22	5,681
671,42	5,668
671,61	5,734
671,81	5,618
672,00	5,794
672,20	5,841
672,39	5,631
672,59	5,925
672,78	5,754
672,98	5,726
673,17	5,489
673,37	5,795
673,56	5,631
673,76	5,699
673,95	5,422
674,15	5,680
674,34	5,658
674,54	5,543
674,73	5,751
674,93	5,298
675,13	5,364
675,32	5,532
675,52	5,503
675,71	5,835
675,91	5,791
676,10	5,393
676,30	5,469
676,49	5,895
676,69	5,541
676,88	5,779
677,08	5,642
677,27	5,633
677,47	5,817
677,66	5,611
677,86	5,727
678,05	5,821
678,24	5,300
678,44	5,433
678,63	5,751
678,83	5,645
679,02	5,541
679,22	5,858
679,41	5,766
679,61	5,709
679,80	5,614
680,00	5,583
680,19	5,732
680,39	5,534
680,58	5,880
680,78	5,596
680,97	5,746
681,17	5,706
681,36	5,617
681,56	5,885
681,75	5,610
681,94	5,838
682,14	5,748
682,33	5,150
682,53	5,710
682,72	5,567
682,92	5,604
683,11	5,629
683,31	5,756
683,50	5,681
683,69	5,750
683,89	5,730
684,08	5,552
684,28	5,616
684,47	5,565
684,67	5,507
684,86	5,514
685,06	5,542
685,25	5,590
685,44	5,551
685,64	5,648
685,83	5,761
686,03	5,700
686,22	5,428
686,42	5,888
686,61	5,566
686,80	5,455
687,00	5,613
687,19	5,331
687,39	5,447
687,58	5,529
687,77	5,443
687,97	5,954
688,16	5,788
688,36	5,667
688,55	5,566
688,74	5,834
688,94	5,512
689,13	5,712
689,33	5,468
689,52	5,731
689,71	5,772
689,91	5,508
690,10	5,789
690,30	5,592
690,49	5,879
690,68	5,870
690,88	5,715
691,07	5,450
691,27	5,733
691,46	5,572
691,65	5,302
691,85	5,547
692,04	5,315
692,23	5,548
692,43	5,562
692,62	5,791
692,82	5,885
693,01	5,516
693,20	5,608
693,40	5,644
693,59	5,600
693,78	5,448
693,98	5,740
694,17	5,390
694,36	5,644
694,56	5,578
694,75	5,408
694,94	5,655
695,14	5,591
695,33	5,713
695,53	5,628
695,72	5,547
695,91	5,831
696,11	6,015
696,30	5,591
696,49	5,578
696,69	5,597
696,88	5,574
697,07	5,831
697,27	5,919
697,46	5,614
697,65	5,788
697,85	5,375
698,04	5,951
698,23	5,781
698,43	6,047
698,62	5,594
698,81	5,565
699,01	5,613
699,20	5,656
699,39	5,531
699,58	5,494
699,78	5,589
699,97	5,644
700,16	5,545
700,36	5,276
700,55	5,649
700,74	5,402
700,94	5,724
701,13	5,536
701,32	5,432
701,52	5,492
701,71	5,756
701,90	5,584
702,09	5,750
702,29	5,736
702,48	5,903
702,67	5,734
702,87	5,657
703,06	5,727
703,25	5,643
703,44	5,685
703,64	5,553
703,83	5,696
704,02	5,613
704,22	5,766
704,41	5,855
704,60	5,576
704,79	5,824
704,99	5,587
705,18	5,761
705,37	5,698
705,56	5,363
705,76	5,461
705,95	5,711
706,14	5,739
706,33	5,626
706,53	5,846
706,72	5,798
706,91	5,662
707,11	5,602
707,30	5,403
707,49	5,632
707,68	5,680
707,88	5,461
708,07	5,508
708,26	5,467
708,45	5,608
708,64	5,868
708,84	5,562
709,03	5,559
709,22	5,726
709,41	5,327
709,61	5,706
709,80	5,705
709,99	6,032
710,18	5,758
710,38	6,001
710,57	5,924
710,76	5,744
710,95	5,360
711,14	5,674
711,34	5,903
711,53	5,593
711,72	5,571
711,91	5,675
712,11	5,647
712,30	5,595
712,49	5,572
712,68	5,618
712,87	5,571
713,07	5,786
713,26	5,533
713,45	5,537
713,64	5,792
713,83	5,830
714,03	5,589
714,22	5,615
714,41	5,897
714,60	5,619
714,79	5,790
714,99	5,476
715,18	5,778
715,37	5,649
715,56	5,988
715,75	5,940
715,94	5,957
716,14	5,903
716,33	5,471
716,52	5,646
716,71	5,450
716,90	5,564
717,10	5,462
717,29	5,531
717,48	5,656
717,67	5,678
717,86	5,716
718,05	5,663
718,24	5,752
718,44	5,758
718,63	5,459
718,82	5,974
719,01	5,357
719,20	5,402
719,39	5,578
719,59	5,611
719,78	5,474
719,97	5,570
720,16	5,695
720,35	5,505
720,54	5,659
720,73	5,696
720,93	5,534
721,12	5,468
721,31	5,776
721,50	5,513
721,69	5,938
721,88	5,343
722,07	5,966
722,27	5,645
722,46	5,560
722,65	5,956
722,84	5,507
723,03	5,531
723,22	5,737
723,41	5,450
723,60	5,712
723,79	5,414
723,99	5,898
724,18	5,818
724,37	5,809
724,56	5,925
724,75	5,763
724,94	5,974
725,13	5,980
725,32	5,752
725,51	6,154
725,71	6,020
725,90	5,804
726,09	5,749
726,28	5,629
726,47	5,967
726,66	5,969
726,85	6,060
727,04	5,897
727,23	5,906
727,42	5,586
727,61	5,650
727,81	5,423
728,00	6,061
728,19	5,676
728,38	5,594
728,57	6,212
728,76	5,670
728,95	5,912
729,14	6,068
729,33	6,286
729,52	5,714
729,71	5,899
729,90	5,836
730,09	5,714
730,28	5,599
730,48	6,084
730,67	5,860
730,86	5,752
731,05	5,859
731,24	5,720
731,43	5,864
731,62	5,780
731,81	5,958
732,00	6,401
732,19	5,816
732,38	5,716
732,57	5,653
732,76	5,703
732,95	5,976
733,14	6,030
733,33	5,796
733,52	6,203
733,71	5,902
733,90	6,295
734,09	5,858
734,28	5,666
734,47	5,867
734,66	5,741
734,85	5,817
735,04	5,845
735,23	5,830
735,42	6,057
735,61	5,729
735,81	5,986
736,00	5,774
736,19	5,884
736,38	5,644
736,57	5,650
736,76	5,695
736,95	5,824
737,14	6,011
737,33	5,630
737,52	5,725
737,71	5,965
737,90	5,792
738,09	6,068
738,28	5,916
738,47	5,947
738,66	6,066
738,85	5,619
739,04	5,915
739,22	6,080
739,41	6,242
739,60	5,945
739,79	6,233
739,98	6,016
740,17	5,946
740,36	5,845
740,55	5,832
740,74	6,187
740,93	5,827
741,12	6,381
741,31	5,769
741,50	6,240
741,69	6,341
741,88	6,164
742,07	5,786
742,26	6,436
742,45	6,028
742,64	6,442
742,83	6,562
743,02	6,283
743,21	6,285
743,40	6,318
743,59	6,453
743,78	5,962
743,97	6,530
744,16	6,505
744,34	6,048
744,53	6,602
744,72	6,587
744,91	6,248
745,10	6,564
745,29	7,097
745,48	6,700
745,67	6,860
745,86	6,722
746,05	7,233
746,24	7,260
746,43	7,641
746,62	7,301
746,81	7,773
747,00	7,578
747,18	7,974
747,37	8,054
747,56	8,147
747,75	8,103
747,94	8,358
748,13	8,816
748,32	8,740
748,51	8,840
748,70	8,945
748,89	9,027
749,08	9,209
749,26	9,620
749,45	9,543
749,64	9,811
749,83	9,798
750,02	10,090
750,21	10,908
750,40	11,120
750,59	11,036
750,78	11,697
750,96	12,180
751,15	12,400
751,34	12,921
751,53	13,407
751,72	13,437
751,91	13,184
752,10	14,129
752,29	14,349
752,47	14,510
752,66	14,844
752,85	15,703
753,04	16,670
753,23	16,956
753,42	17,552
753,61	17,999
753,80	18,271
753,98	18,732
754,17	19,203
754,36	19,834
754,55	19,836
754,74	21,297
754,93	21,953
755,12	23,240
755,30	23,399
755,49	24,070
755,68	25,423
755,87	26,471
756,06	26,605
756,25	28,078
756,43	30,017
756,62	30,539
756,81	32,671
757,00	33,889
757,19	34,846
757,38	36,151
757,56	37,458
757,75	39,509
757,94	40,672
758,13	42,779
758,32	44,927
758,51	46,593
758,69	48,173
758,88	51,100
759,07	52,165
759,26	53,904
759,45	55,052
759,63	57,302
759,82	58,310
760,01	59,585
760,20	59,875
760,39	60,887
760,57	61,513
760,76	63,225
760,95	65,664
761,14	65,588
761,33	66,263
761,51	66,691
761,70	66,555
761,89	68,041
762,08	67,908
762,27	68,046
762,45	68,608
762,64	68,626
762,83	68,733
763,02	69,858
763,21	69,192
763,39	69,163
763,58	68,964
763,77	69,357
763,96	68,805
764,14	68,836
764,33	68,122
764,52	69,466
764,71	68,133
764,89	69,441
765,08	68,520
765,27	67,987
765,46	67,867
765,65	68,298
765,83	66,106
766,02	66,046
766,21	65,456
766,40	65,083
766,58	64,574
766,77	64,262
766,96	63,218
767,15	63,688
767,33	62,439
767,52	61,839
767,71	61,585
767,90	60,400
768,08	59,958
768,27	59,706
768,46	57,489
768,64	56,251
768,83	55,941
769,02	54,970
769,21	54,930
769,39	53,000
769,58	51,390
769,77	49,751
769,96	48,646
770,14	47,099
770,33	45,791
770,52	44,911
770,70	44,277
770,89	42,396
771,08	42,405
771,27	41,429
771,45	40,237
771,64	39,057
771,83	38,972
772,01	37,535
772,20	36,497
772,39	36,375
772,57	35,193
772,76	34,278
772,95	33,557
773,14	31,732
773,32	31,589
773,51	30,679
773,70	29,595
773,88	29,362
774,07	28,760
774,26	27,419
774,44	26,446
774,63	25,695
774,82	24,913
775,00	23,537
775,19	22,323
775,38	21,636
775,56	20,311
775,75	19,753
775,94	19,185
776,12	17,411
776,31	17,103
776,50	16,061
776,68	14,874
776,87	14,275
777,06	13,514
777,24	12,513
777,43	11,670
777,62	11,925
777,80	10,579
777,99	10,832
778,18	9,849
778,36	9,254
778,55	9,076
778,74	8,802
778,92	8,068
779,11	7,872
779,29	7,901
779,48	8,029
779,67	7,640
779,85	7,248
780,04	7,127
780,23	6,911
780,41	6,789
780,60	6,624
780,79	6,748
780,97	6,929
781,16	6,727
781,34	6,481
781,53	6,357
781,72	6,675
781,90	6,351
782,09	6,228
782,28	6,137
782,46	6,163
782,65	5,877
782,83	6,003
783,02	5,756
783,21	5,935
783,39	6,018
783,58	6,034
783,76	5,690
783,95	5,562
784,14	5,906
784,32	5,505
784,51	5,815
784,69	5,545
784,88	5,339
785,06	5,244
785,25	5,330
785,44	5,573
785,62	5,757
785,81	5,549
785,99	5,584
786,18	5,267
786,37	6,092
786,55	5,679
786,74	5,729
786,92	5,682
787,11	5,360
787,29	5,348
787,48	5,558
787,67	5,108
787,85	5,791
788,04	5,630
788,22	5,254
788,41	5,568
788,59	5,241
788,78	5,472
788,96	5,382
789,15	5,654
789,34	5,613
789,52	5,362
789,71	5,701
789,89	6,122
790,08	5,553
790,26	5,804
790,45	5,505
790,63	5,589
790,82	5,807
791,00	5,575
791,19	5,901
791,38	5,853
791,56	5,719
791,75	5,650
791,93	5,622
792,12	5,303
792,30	5,621
792,49	5,446
792,67	5,572
792,86	5,775
793,04	5,508
793,23	5,938
793,41	5,470
793,60	5,694
793,78	5,207
793,97	5,939
794,15	5,444
794,34	5,024
794,52	5,512
794,71	5,887
794,89	5,656
795,08	6,065
795,26	5,583
795,45	6,284
795,63	5,664
795,82	5,421
796,00	4,985
796,19	5,978
796,37	5,374
796,56	5,073
796,74	5,380
796,93	5,432
797,11	4,999
797,30	4,862
797,48	5,560
797,67	5,471
797,85	5,646
798,04	5,652
798,22	5,670
798,41	5,234
798,59	5,451
798,77	5,606
798,96	5,673
799,14	5,542
799,33	5,850
799,51	5,023
799,70	5,433
799,88	5,458
800,07	5,148
800,25	5,791
800,44	5,015
800,62	5,080
800,80	5,200
800,99	5,424
801,17	5,520
801,36	5,442
801,54	5,173
801,73	5,011
801,91	5,700
802,10	5,612
802,28	5,659
802,46	5,793
802,65	5,724
802,83	5,448
803,02	5,682
803,20	5,538
803,39	6,075
803,57	5,498
803,75	5,551
803,94	5,660
804,12	5,949
804,31	5,766
804,49	5,776
804,67	4,965
804,86	5,804
805,04	5,555
805,23	5,210
805,41	5,945
805,59	5,745
805,78	5,542
805,96	5,310
806,15	5,442
806,33	5,811
806,51	4,820
806,70	5,538
806,88	5,433
807,07	5,398
807,25	5,444
807,43	5,399
807,62	5,285
807,80	5,311
807,99	5,091
808,17	5,282
808,35	5,691
808,54	5,693
808,72	5,562
808,90	5,361
809,09	5,568
809,27	5,464
809,46	5,627
809,64	5,198
809,82	5,675
810,01	5,444
810,19	5,014
810,37	5,101
810,56	5,407
810,74	5,379
810,92	6,015
811,11	5,282
811,29	5,891
811,48	5,350
811,66	6,137
811,84	5,974
812,03	5,588
812,21	5,709
812,39	6,014
812,58	5,673
812,76	5,563
812,94	5,375
813,13	5,299
813,31	6,044
813,49	5,857
813,68	5,393
813,86	5,485
814,04	5,247
814,23	5,370
814,41	5,465
814,59	5,176
814,78	5,411
814,96	5,307
815,14	5,469
815,33	4,982
815,51	5,525
815,69	5,312
815,87	5,887
816,06	5,926
816,24	5,719
816,42	5,300
816,61	5,700
816,79	5,905
816,97	5,910
817,16	5,934
817,34	6,002
817,52	5,205
817,70	5,765
817,89	5,603
818,07	5,384
818,25	5,287
818,44	5,457
818,62	5,961
818,80	5,695
818,98	5,430
819,17	5,547
819,35	5,760
819,53	5,414
819,72	5,442
819,90	5,758
820,08	5,310
820,26	5,499
820,45	5,674
820,63	5,991
820,81	6,083
820,99	5,508
821,18	5,072
821,36	5,684
821,54	5,896
821,73	5,675
821,91	5,646
822,09	5,522
822,27	5,794
822,46	5,552
822,64	5,299
822,82	5,472
823,00	5,340
823,19	5,573
823,37	6,070
823,55	5,725
823,73	5,986
823,91	5,822
824,10	5,570
824,28	5,576
824,46	5,762
824,64	5,581
824,83	5,837
825,01	5,923
825,19	5,145
825,37	6,417
825,56	5,673
825,74	5,415
825,92	5,485
826,10	6,084
826,28	5,939
826,47	5,451
826,65	6,211
826,83	5,576
827,01	6,224
827,19	5,956
827,38	5,906
827,56	6,330
827,74	5,540
827,92	5,632
828,10	5,820
828,29	5,545
828,47	5,005
828,65	5,695
828,83	6,050
829,01	5,998
829,20	5,547
829,38	6,255
829,56	5,354
829,74	5,475
829,92	5,865
830,10	5,804
830,29	5,924
830,47	5,698
830,65	5,719
830,83	5,894
831,01	5,679
831,20	5,917
831,38	5,684
831,56	6,219
831,74	6,249
831,92	6,009
832,10	5,977
832,29	6,692
832,47	5,277
832,65	5,595
832,83	5,856
833,01	6,316
833,19	5,962
833,37	5,719
833,56	6,079
833,74	5,612
833,92	5,194
834,10	5,632
834,28	5,578
834,46	6,466
834,64	6,073
834,83	5,698
835,01	5,927
835,19	6,026
835,37	6,115
835,55	5,243
835,73	5,943
835,91	5,604
836,09	6,154
836,28	6,043
836,46	5,685
836,64	5,897
836,82	5,255
837,00	5,977
837,18	6,205
837,36	5,744
837,54	5,938
837,72	5,994
837,91	5,894
838,09	6,070
838,27	5,680
838,45	6,232
838,63	6,115
838,81	6,264
838,99	6,107
839,17	6,625
839,35	6,020
839,53	6,449
839,72	6,725
839,90	6,471
840,08	6,708
840,26	6,400
840,44	6,481
840,62	7,135
840,80	6,658
840,98	6,842
841,16	7,204
841,34	7,153
841,52	7,370
841,70	7,031
841,89	6,746
842,07	7,056
842,25	7,068
842,43	7,703
842,61	7,932
842,79	7,569
842,97	7,243
843,15	8,166
843,33	7,747
843,51	7,953
843,69	7,640
843,87	8,415
844,05	8,237
844,23	7,926
844,41	8,638
844,59	8,929
844,77	9,048
844,95	9,532
845,13	9,787
845,31	9,089
845,50	9,401
845,68	10,004
845,86	9,695
846,04	10,533
846,22	10,653
846,40	10,442
846,58	10,568
846,76	11,155
846,94	11,438
847,12	11,247
847,30	11,709
847,48	11,858
847,66	12,324
847,84	12,271
848,02	12,583
848,20	13,203
848,38	12,723
848,56	12,849
848,74	14,062
848,92	13,659
849,10	13,275
849,28	14,007
849,46	14,887
849,64	13,975
849,82	14,946
850,00	16,452
850,18	15,349
850,36	16,872
850,54	16,703
850,72	17,686
850,90	18,058
851,08	17,919
851,26	18,800
851,44	18,847
851,62	18,787
851,80	18,513
851,98	20,062
852,16	20,473
852,34	21,567
852,52	20,987
852,70	21,376
852,87	22,544
853,05	23,655
853,23	24,643
853,41	24,474
853,59	25,180
853,77	27,013
853,95	27,318
854,13	28,449
854,31	30,005
854,49	30,791
854,67	31,684
854,85	32,706
855,03	35,402
855,21	36,037
855,39	37,373
855,57	38,654
855,75	41,495
855,93	41,950
856,11	43,121
856,28	44,986
856,46	46,731
856,64	48,189
856,82	49,211
857,00	50,420
857,18	51,339
857,36	53,997
857,54	53,916
857,72	54,302
857,90	55,345
858,08	57,054
858,26	58,804
858,44	58,820
858,61	59,651
858,79	59,573
858,97	59,461
859,15	60,092
859,33	61,357
859,51	61,363
859,69	60,232
859,87	59,686
860,05	60,528
860,23	61,508
860,40	61,897
860,58	61,265
860,76	60,537
860,94	61,156
861,12	60,987
861,30	59,333
861,48	59,561
861,66	58,791
861,84	59,334
862,01	59,010
862,19	58,100
862,37	58,275
862,55	57,508
862,73	57,296
862,91	56,157
863,09	56,193
863,27	55,890
863,44	55,774
863,62	55,712
863,80	55,051
863,98	53,303
864,16	53,785
864,34	52,742
864,52	52,497
864,69	52,077
864,87	50,507
865,05	49,215
865,23	49,496
865,41	48,569
865,59	48,744
865,76	46,289
865,94	45,459
866,12	43,577
866,30	43,266
866,48	41,308
866,66	40,858
866,83	40,285
867,01	39,572
867,19	37,987
867,37	38,033
867,55	36,512
867,73	35,976
867,90	34,148
868,08	34,287
868,26	33,988
868,44	32,866
868,62	32,151
868,79	32,102
868,97	30,155
869,15	30,229
869,33	30,542
869,51	28,775
869,69	27,122
869,86	26,819
870,04	24,571
870,22	25,459
870,40	23,749
870,57	23,618
870,75	20,712
870,93	20,127
871,11	19,780
871,29	19,238
871,46	17,379
871,64	17,525
871,82	17,251
872,00	16,720
872,18	16,309
872,35	15,573
872,53	16,166
872,71	15,699
872,89	15,129
873,06	14,542
873,24	13,925
873,42	14,208
873,60	14,129
873,77	14,253
873,95	13,964
874,13	13,739
874,31	13,825
874,49	13,186
874,66	13,366
874,84	13,804
875,02	12,765
875,20	12,225
875,37	12,280
875,55	11,620
875,73	11,496
875,91	10,341
876,08	10,749
876,26	11,106
876,44	10,437
876,61	9,934
876,79	9,649
876,97	9,541
877,15	8,757
877,32	8,275
877,50	7,919
877,68	7,737
877,86	7,225
878,03	7,382
878,21	7,078
878,39	6,670
878,56	5,438
878,74	5,917
878,92	5,715
879,10	5,301
879,27	5,357
879,45	5,227
879,63	5,290
879,80	5,025
879,98	5,139
880,16	5,306
880,34	5,209
880,51	5,149
880,69	5,215
880,87	4,816
881,04	5,426
881,22	4,479
881,40	5,019
881,57	4,476
881,75	5,042
881,93	5,166
882,10	4,858
882,28	4,750
882,46	4,706
882,63	5,044
882,81	4,474
882,99	5,066
883,16	4,127
883,34	4,936
883,52	4,470
883,69	4,191
883,87	4,544
884,05	4,384
884,22	4,741
884,40	4,724
884,58	4,358
884,75	5,007
884,93	4,976
885,11	4,405
885,28	4,588
885,46	4,678
885,64	4,647
885,81	4,850
885,99	4,111
886,17	4,909
886,34	4,556
886,52	4,376
886,70	4,110
886,87	4,684
887,05	4,530
887,22	5,176
887,40	4,400
887,58	4,771
887,75	4,527
887,93	4,393
888,11	4,017
888,28	4,449
888,46	4,029
888,63	4,656
888,81	3,887
888,99	3,983
889,16	4,145
889,34	4,703
889,51	4,598
889,69	3,849
889,87	4,338
890,04	4,098
890,22	4,578
890,39	4,294
890,57	4,644
890,75	5,192
890,92	3,979
891,10	4,220
891,27	4,304
891,45	3,669
891,63	4,428
891,80	3,940
891,98	4,524
892,15	3,727
892,33	3,993
892,51	4,152
892,68	4,365
892,86	4,628
893,03	4,513
893,21	4,318
893,38	3,965
893,56	3,962
893,74	4,045
893,91	4,737
894,09	4,124
894,26	3,903
894,44	4,310
894,61	3,735
894,79	4,165
894,96	4,052
895,14	3,949
895,32	4,616
895,49	3,674
895,67	4,028
895,84	3,984
896,02	3,786
896,19	4,004
896,37	4,474
896,54	4,585
896,72	4,566
896,89	3,927
897,07	4,151
897,25	3,901
897,42	3,391
897,60	4,656
897,77	4,856
897,95	3,947
898,12	3,757
898,30	4,415
898,47	3,570
898,65	3,661
898,82	3,927
899,00	3,826
899,17	3,852
899,35	3,655
899,52	4,304
899,70	3,850
899,87	4,142
900,05	4,168
900,22	4,239
900,40	4,601
900,57	4,175
900,75	3,954
900,92	3,618
901,10	3,382
901,27	4,070
901,45	3,693
901,62	3,919
901,80	3,695
901,97	4,006
902,15	4,117
902,32	4,131
902,50	3,664
902,67	3,506
902,85	4,001
903,02	3,208
903,20	4,008
903,37	3,820
903,54	4,011
903,72	3,795
903,89	3,713
904,07	3,765
904,24	3,461
904,42	3,388
904,59	3,873
904,77	3,918
904,94	3,931
905,12	3,938
905,29	3,779
905,47	3,380
905,64	4,059
905,81	3,823
905,99	3,687
906,16	3,819
906,34	3,681
906,51	3,763
906,69	3,952
906,86	3,810
907,03	4,042
907,21	3,368
907,38	3,844
907,56	3,202
907,73	4,123
907,91	3,893
908,08	3,294
908,25	3,709
908,43	3,667
908,60	3,373
908,78	4,087
908,95	3,404
909,13	2,819
909,30	2,776
909,47	2,912
909,65	3,860
909,82	3,951
910,00	3,556
910,17	3,006
910,34	3,306
910,52	3,556
910,69	3,983
910,87	3,160
911,04	3,705
911,21	3,455
911,39	3,152
911,56	3,275
911,73	3,169
911,91	3,410
912,08	3,654
912,26	3,495
912,43	3,781
912,60	3,566
912,78	3,454
912,95	3,492
913,13	3,171
913,30	3,066
913,47	3,474
913,65	3,155
913,82	3,799
913,99	2,911
914,17	3,769
914,34	3,015
914,51	3,082
914,69	2,885
914,86	3,632
915,03	3,393
915,21	3,453
915,38	3,742
915,56	3,424
915,73	3,158
915,90	3,232
916,08	3,503
916,25	3,198
916,42	3,768
916,60	3,438
916,77	2,254
916,94	3,083
917,12	3,129
917,29	2,752
917,46	3,501
917,64	3,382
917,81	3,673
917,98	3,721
918,16	2,598
918,33	3,445
918,50	3,125
918,67	3,429
918,85	2,516
919,02	2,717
919,19	3,227
919,37	2,933
919,54	3,004
919,71	3,284
919,89	3,005
920,06	3,129
920,23	2,870
920,41	3,338
920,58	3,224
920,75	3,289
920,92	2,865
921,10	2,829
921,27	2,461
921,44	3,183
921,62	2,939
921,79	2,858
921,96	3,705
922,13	3,083
922,31	3,096
922,48	3,482
922,65	2,994
922,82	3,022
923,00	2,767
923,17	2,462
923,34	2,825
923,52	2,872
923,69	3,089
923,86	2,499
924,03	2,997
924,21	3,008
924,38	3,054
924,55	3,076
924,72	2,107
924,90	3,117
925,07	3,171
925,24	2,736
925,41	2,979
925,59	2,657
925,76	2,694
925,93	2,301
926,10	2,009
926,28	2,937
926,45	2,831
926,62	2,823
926,79	2,620
926,96	2,589
927,14	2,824
927,31	2,789
927,48	2,956
927,65	2,974
927,83	2,887
928,00	2,647
928,17	2,783
928,34	2,458
928,51	2,678
928,69	2,371
928,86	2,837
929,03	2,710
929,20	2,618
929,37	2,874
929,55	2,732
929,72	2,664
929,89	2,571
930,06	2,245
930,23	2,819
930,41	2,581
930,58	3,001
930,75	3,020
930,92	2,696
931,09	2,541
931,27	2,555
931,44	2,880
931,61	2,453
931,78	2,907
931,95	2,722
932,12	2,662
932,30	2,834
932,47	3,034
932,64	2,781
932,81	2,212
932,98	2,288
933,16	2,641
933,33	2,749
933,50	2,276
933,67	2,674
933,84	2,189
934,01	2,675
934,18	1,982
934,36	2,103
934,53	2,932
934,70	2,576
934,87	2,795
935,04	2,621
935,21	2,411
935,38	2,738
935,56	2,869
935,73	2,423
935,90	2,423
936,07	2,244
936,24	2,248
936,41	2,716
936,58	2,503
936,76	2,532
936,93	2,464
937,10	2,114
937,27	2,376
937,44	2,887
937,61	3,149
937,78	1,858
937,95	2,982
938,13	2,464
938,30	2,146
938,47	1,795
938,64	2,404
938,81	2,240
938,98	2,473
939,15	2,496
939,32	1,931
939,49	2,466
939,66	2,500
939,84	2,889
940,01	2,276
940,18	1,796
940,35	2,024
940,52	1,804
940,69	2,298
940,86	2,490
941,03	2,108
941,20	2,358
941,37	2,482
941,54	1,942
941,71	2,570
941,89	2,486
942,06	2,284
942,23	2,495
942,40	2,104
942,57	2,459
942,74	2,054
942,91	2,131
943,08	2,287
943,25	2,320
943,42	1,763
943,59	2,717
943,76	2,924
943,93	2,112
944,10	2,576
944,27	2,153
944,44	2,533
944,61	2,869
944,79	2,690
944,96	2,482
945,13	1,839
945,30	2,164
945,47	1,948
945,64	2,433
945,81	2,153
945,98	3,202
946,15	2,495
946,32	2,356
946,49	1,922
946,66	2,223
946,83	2,061
947,00	2,294
947,17	2,668
947,34	2,731
947,51	2,388
947,68	2,648
947,85	2,348
948,02	2,638
948,19	1,910
948,36	2,683
948,53	1,821
948,70	2,204
948,87	1,987
949,04	1,795
949,21	1,934
949,38	2,309
949,55	2,740
949,72	1,657
949,89	2,305
950,06	1,571
950,23	2,191
950,40	2,674
950,57	2,534
950,74	1,389
950,91	2,346
951,08	2,173
951,25	2,738
951,42	2,964
951,59	3,055
951,76	2,269
951,93	2,529
952,10	2,894
952,27	2,752
952,44	2,503
952,61	2,418
952,77	2,505
952,94	3,475
953,11	3,569
953,28	2,662
953,45	2,654
953,62	2,217
953,79	2,537
953,96	2,506
954,13	4,032
954,30	3,173
954,47	1,901
954,64	2,181
954,81	3,005
954,98	2,917
955,15	2,404
955,32	1,211
955,49	3,323
955,65	2,996
955,82	2,469
955,99	2,403
956,16	3,163
956,33	2,936
956,50	2,994
956,67	3,052
956,84	3,275
957,01	1,942
957,18	2,477
957,35	2,874
957,52	2,609
957,68	2,675
957,85	1,659
958,02	3,694
958,19	2,822
958,36	2,946
958,53	3,524
958,70	2,667
958,87	3,131
959,04	3,542
959,21	2,225
959,37	3,856
959,54	3,579
959,71	2,417
959,88	3,701
960,05	3,655
960,22	3,102
960,39	3,633
960,56	3,848
960,72	3,831
960,89	4,224
961,06	3,451
961,23	3,391
961,40	4,454
961,57	2,940
961,74	2,611
961,90	4,384
962,07	4,247
962,24	3,684
962,41	3,198
962,58	2,536
962,75	2,975
962,92	1,528
963,08	2,882
963,25	3,886
963,42	4,325
963,59	2,190
963,76	3,611
963,93	4,663
964,10	4,577
964,26	5,443
964,43	2,598
964,60	2,427
964,77	3,498
964,94	4,534
965,10	4,271
965,27	2,717
965,44	4,502
965,61	4,548
965,78	3,608
965,95	2,657
966,11	5,432
966,28	1,913
966,45	4,890
966,62	4,244
966,79	4,521
966,95	3,541
967,12	4,848
967,29	3,175
967,46	5,559
967,63	3,237
967,79	4,419
967,96	3,002
968,13	2,212
968,30	2,875
968,47	3,592
968,63	4,014
968,80	2,973
968,97	4,150
969,14	3,508
969,31	4,940
969,47	3,863
969,64	3,623
969,81	2,209
969,98	4,292
970,14	4,452
970,31	3,982
970,48	3,815
970,65	3,390
970,81	3,016
970,98	4,722
971,15	4,467
971,32	3,979
971,48	5,219
971,65	3,972
971,82	4,633
971,99	4,853
972,15	4,320
972,32	4,255
972,49	3,725
972,66	4,931
972,82	3,547
972,99	2,543
973,16	3,643
973,33	4,512
973,49	4,278
973,66	2,720
973,83	3,608
974,00	4,369
974,16	6,547
974,33	3,509
974,50	3,401
974,67	5,212
974,83	3,857
975,00	3,354
975,17	4,421
975,33	5,020
975,50	4,980
975,67	2,921
975,84	5,452
976,00	4,735
976,17	4,914
976,34	2,738
976,50	1,849
976,67	4,435
976,84	3,431
977,00	5,483
977,17	2,536
977,34	3,815
977,50	3,831
977,67	4,882
977,84	3,688
978,01	3,959
978,17	2,736
978,34	4,672
978,51	1,953
978,67	5,015
978,84	4,753
979,01	2,667
979,17	4,576
979,34	5,055
979,51	4,732
979,67	4,742
979,84	5,588
980,01	4,956
980,17	4,087
980,34	5,122
980,51	4,226
980,67	4,706
980,84	4,350
981,01	2,549
981,17	4,515
981,34	3,584
981,50	3,465
981,67	4,339
981,84	2,644
982,00	2,521
982,17	3,637
982,34	6,993
982,50	3,983
982,67	4,582
982,84	3,390
983,00	3,063
983,17	5,077
983,33	5,566
983,50	4,572
983,67	6,957
983,83	2,444
984,00	3,643
984,17	2,534
984,33	4,527
984,50	3,537
984,66	3,633
984,83	3,706
985,00	2,159
985,16	6,751
985,33	4,789
985,49	6,521
985,66	5,764
985,83	3,027
985,99	2,440
986,16	6,282
986,32	3,337
986,49	3,966
986,66	4,076
986,82	4,764
986,99	2,321
987,15	4,146
987,32	6,674
987,49	5,274
987,65	5,255
987,82	2,846
987,98	1,938
988,15	4,183
988,31	3,539
988,48	5,207
988,65	5,627
988,81	7,432
988,98	4,523
989,14	4,515
989,31	3,778
989,47	5,972
989,64	5,626
989,80	2,987
989,97	8,200
990,14	6,787
990,30	4,946
990,47	5,995
990,63	5,585
990,80	7,407
990,96	6,085
991,13	2,955
991,29	4,854
991,46	6,887
991,62	4,504
991,79	1,960
991,95	6,338
992,12	5,046
992,29	6,318
992,45	4,828
992,62	1,380
992,78	2,469
992,95	3,136
993,11	5,128
993,28	4,026
993,44	3,193
993,61	6,343
993,77	0,361
993,94	4,826
994,10	2,483
994,27	4,257
994,43	4,436
994,60	4,814
994,76	3,704
994,93	3,163
995,09	5,857
995,26	6,553
995,42	0,994
995,59	3,405
995,75	6,274
995,92	4,689
996,08	9,643
996,25	4,261
996,41	4,768
996,58	7,732
996,74	5,330
996,91	4,386
997,07	3,989
997,23	5,164
997,40	3,970
997,56	1,358
997,73	2,590
997,89	4,838
998,06	5,659
998,22	3,092
998,39	4,241
998,55	7,975
998,72	3,504
998,88	4,527
999,05	3,733
999,21	2,459
999,37	3,524
999,54	7,168
999,70	4,345
999,87	7,026
1000,03	5,340
1000,20	4,097
1000,36	5,702
1000,52	3,024
1000,69	7,187
1000,85	4,940
1001,02	6,364
1001,18	5,794
1001,35	4,023
1001,51	4,111
1001,67	2,372
1001,84	4,430
1002,00	-0,966
1002,17	6,141
1002,33	5,819
1002,50	6,437
1002,66	3,440
1002,82	2,017
1002,99	0,473
1003,15	5,920
1003,32	3,670
1003,48	2,551
1003,64	6,441
1003,81	8,221
1003,97	7,813
1004,14	5,547
1004,30	1,721
1004,46	3,783
1004,63	5,361
1004,79	9,106
1004,95	3,791
1005,12	5,432
1005,28	8,819
1005,45	6,245
1005,61	9,293
1005,77	4,729
1005,94	4,590
1006,10	6,967
1006,26	6,864
1006,43	7,507
1006,59	2,840
1006,76	-0,188
1006,92	7,673
1007,08	0,844
1007,25	5,026
1007,41	4,344
1007,57	5,124
1007,74	8,631
1007,90	6,049
1008,06	6,547
1008,23	4,974
1008,39	3,606
1008,55	5,821
1008,72	5,031
1008,88	3,417
1009,04	6,577
1009,21	4,332
1009,37	4,733
1009,53	0,799
1009,70	2,207
1009,86	5,183
1010,02	3,350
1010,19	1,579
1010,35	3,284
1010,51	4,391
1010,68	6,778
1010,84	2,773
1011,00	5,690
1011,17	5,445
1011,33	5,686
1011,49	7,869
1011,66	3,008
1011,82	-2,412
1011,98	2,342
1012,14	5,725
1012,31	7,484
1012,47	6,307
1012,63	2,925
1012,80	3,202
1012,96	4,303
1013,12	-0,782
1013,29	7,291
1013,45	0,978
1013,61	10,168
1013,77	4,590
1013,94	6,036
1014,10	4,192
1014,26	-1,183
1014,43	7,761
1014,59	4,227
1014,75	-0,993
1014,91	4,639
1015,08	8,359
1015,24	10,264
1015,40	0,945
1015,56	7,150
1015,73	7,677
1015,89	3,911
1016,05	2,554
1016,21	1,057
1016,38	4,634
1016,54	6,972
1016,70	5,005
1016,86	6,197
1017,03	2,935
1017,19	0,490
1017,35	3,393
1017,51	5,567
1017,68	5,359
1017,84	4,176
1018,00	3,410
1018,16	5,556
1018,33	6,789
1018,49	-0,795
1018,65	6,018
1018,81	8,728
1018,97	3,864
1019,14	4,260
1019,30	3,805
1019,46	9,453
1019,62	-0,902
1019,79	-1,852
1019,95	5,066
1020,11	2,844
1020,27	4,848
1020,43	6,375
1020,60	1,968
1020,76	7,792
1020,92	-1,680
1021,08	1,465
1021,24	6,699
1021,41	0,000
1021,57	-0,922
1021,73	5,405
1021,89	0,878
1022,05	10,361
1022,21	3,279
1022,38	8,485
1022,54	5,185
1022,70	7,326
1022,86	3,755
1023,02	5,433
1023,19	9,947
1023,35	-1,499
1023,51	8,456
1023,67	6,562
1023,83	7,556
1023,99	10,925
1024,16	4,184
1024,32	-1,084
1024,48	6,456
1024,64	2,557
1024,80	4,138
1024,96	-0,527
1025,12	7,468
1025,29	3,112
1025,45	9,669
1025,61	7,020
1025,77	0,580
1025,93	7,392
1026,09	5,746
1026,26	-1,023
1026,42	2,235
1026,58	2,137
1026,74	7,062
1026,90	4,832
1027,06	0,292
1027,22	4,565
1027,38	4,131
1027,55	8,969
1027,71	5,452
1027,87	10,321
1028,03	0,720
1028,19	-1,320
1028,35	-5,156
1028,51	2,332
1028,67	5,271
1028,83	0,460
1029,00	7,376
1029,16	-1,493
1029,32	7,910
1029,48	-0,296
1029,64	-0,150
1029,80	5,051
1029,96	-5,987
1030,12	7,053
1030,28	1,345
1030,44	6,277
1030,61	4,905
1030,77	4,221
1030,93	5,882
1031,09	3,881
1031,25	-2,521
1031,41	1,090
1031,57	3,231
1031,73	2,114
1031,89	2,483
1032,05	5,104
1032,21	-0,167
1032,37	1,103
1032,53	10,863
1032,69	9,867
1032,86	-0,693
1033,02	5,396
1033,18	7,363
1033,34	3,327
1033,50	7,012
1033,66	2,355
1033,82	10,085
1033,98	-0,721
1034,14	-4,729
1034,30	5,222
1034,46	1,789
1034,62	1,905
1034,78	0,344
1034,94	4,264
1035,10	4,428
1035,26	5,367
1035,42	7,895
1035,58	6,015
1035,74	2,000
1035,90	-1,359
1036,06	-5,773
1036,22	7,321
1036,38	5,010
1036,54	-2,584
1036,70	0,401
1036,86	7,088
1037,02	4,952
1037,18	9,434
1037,34	3,704
1037,50	9,091
1037,66	7,298
1037,82	2,548
1037,98	0,569
1038,14	10,235
1038,30	9,627
1038,46	4,015
1038,62	4,412
1038,78	0,408
1038,94	3,383
1039,10	3,502
1039,26	1,624
1039,42	18,036
1039,58	-2,661
1039,74	-1,152
1039,90	4,234
1040,06	11,436
>>>>>End Processed Spectral Data<<<<<
