SpectraSuite Data File
++++++++++++++++++++++++++++++++++++
Date: Thu Feb 02 18:41:03 EET 2017
User: optolab
Dark Spectrum Present: Yes
Reference Spectrum Present: Yes
Number of Sampled Component Spectra: 1
Spectrometers: USB4C02475
Integration Time (usec): 151411 (USB4C02475)
Spectra Averaged: 1 (USB4C02475)
Boxcar Smoothing: 0 (USB4C02475)
Correct for Electrical Dark: No (USB4C02475)
Strobe/Lamp Enabled: No (USB4C02475)
Correct for Detector Non-linearity: No (USB4C02475)
Correct for Stray Light: No (USB4C02475)
Number of Pixels in Processed Spectrum: 3648
>>>>>Begin Processed Spectral Data<<<<<
344,91	100,000
345,13	100,000
345,35	100,000
345,57	-530,000
345,79	-61,538
346,00	80,000
346,22	59,459
346,44	69,231
346,66	2133,333
346,87	-220,000
347,09	-100,000
347,31	1100,000
347,53	84,615
347,74	-287,500
347,96	311,111
348,18	56,098
348,40	-133,333
348,61	47,059
348,83	-75,000
349,05	9,091
349,27	39,706
349,48	50,980
349,70	23,636
349,92	-7,317
350,14	650,000
350,35	7,692
350,57	0,000
350,79	125,532
351,01	225,806
351,22	285,714
351,44	0,000
351,66	73,171
351,87	27,273
352,09	-28,846
352,31	-47,826
352,53	66,129
352,74	-96,875
352,96	24,490
353,18	90,909
353,40	235,714
353,61	60,000
353,83	-112,000
354,05	51,724
354,26	68,182
354,48	9,091
354,70	52,500
354,92	25,397
355,13	18,367
355,35	850,000
355,57	80,519
355,78	80,000
356,00	0,000
356,22	19,403
356,44	0,000
356,65	48,718
356,87	71,605
357,09	-10,145
357,30	89,189
357,52	5,714
357,74	95,385
357,95	83,333
358,17	63,889
358,39	75,000
358,60	37,895
358,82	-44,444
359,04	-38,889
359,26	33,333
359,47	29,310
359,69	275,000
359,91	-32,813
360,12	-71,429
360,34	189,474
360,56	35,789
360,77	-5,556
360,99	5,000
361,21	66,667
361,42	-132,500
361,64	53,030
361,86	41,758
362,07	19,802
362,29	-21,429
362,51	48,148
362,72	85,000
362,94	30,000
363,16	71,014
363,37	15,625
363,59	46,154
363,81	-32,203
364,02	-15,152
364,24	10,769
364,46	8,000
364,67	47,222
364,89	5,405
365,11	-500,000
365,32	112,281
365,54	-4,348
365,76	13,750
365,97	51,429
366,19	-35,088
366,41	66,154
366,62	70,000
366,84	-3,333
367,05	-13,889
367,27	-113,636
367,49	18,182
367,70	39,130
367,92	31,646
368,14	20,430
368,35	-2,469
368,57	-41,111
368,79	44,595
369,00	28,571
369,22	18,750
369,43	-14,286
369,65	16,667
369,87	50,617
370,08	50,725
370,30	9,412
370,51	45,038
370,73	49,206
370,95	3,093
371,16	-31,818
371,38	-6,849
371,60	9,302
371,81	61,053
372,03	-25,455
372,24	50,000
372,46	11,667
372,68	7,595
372,89	21,930
373,11	14,815
373,32	7,937
373,54	15,625
373,76	41,176
373,97	-1,626
374,19	32,222
374,40	38,261
374,62	70,455
374,84	-0,971
375,05	17,895
375,27	16,667
375,48	10,390
375,70	26,351
375,92	-26,087
376,13	10,476
376,35	28,049
376,56	17,949
376,78	40,769
376,99	18,182
377,21	6,349
377,43	38,542
377,64	11,864
377,86	39,785
378,07	41,053
378,29	25,455
378,51	17,188
378,72	-0,926
378,94	30,070
379,15	29,577
379,37	48,905
379,58	13,675
379,80	20,994
380,01	-7,000
380,23	14,925
380,45	-2,000
380,66	34,722
380,88	8,824
381,09	-46,591
381,31	16,471
381,52	32,432
381,74	25,157
381,95	-50,000
382,17	17,978
382,39	6,024
382,60	-8,633
382,82	4,255
383,03	-3,333
383,25	2,128
383,46	-18,261
383,68	-4,430
383,89	66,484
384,11	-4,167
384,32	24,286
384,54	-46,667
384,76	27,746
384,97	5,682
385,19	18,400
385,40	-0,595
385,62	18,085
385,83	20,000
386,05	16,084
386,26	19,577
386,48	12,987
386,69	12,800
386,91	-4,324
387,12	12,766
387,34	-8,287
387,55	10,784
387,77	14,439
387,98	29,167
388,20	18,452
388,41	27,309
388,63	13,810
388,84	16,779
389,06	22,404
389,27	18,894
389,49	7,282
389,70	13,298
389,92	25,616
390,13	-23,649
390,35	3,571
390,56	15,574
390,78	17,155
390,99	-1,036
391,21	23,529
391,42	11,741
391,64	16,352
391,85	7,179
392,07	7,143
392,28	23,413
392,50	24,231
392,71	10,553
392,93	-13,278
393,14	3,825
393,36	2,252
393,57	20,172
393,79	-0,913
394,00	-18,235
394,22	-0,503
394,43	11,013
394,65	14,108
394,86	9,506
395,08	-2,312
395,29	11,111
395,50	9,649
395,72	11,489
395,93	-2,893
396,15	19,273
396,36	12,376
396,58	1,794
396,79	14,041
397,01	8,861
397,22	1,498
397,44	2,954
397,65	6,714
397,87	16,988
398,08	19,417
398,29	11,785
398,51	19,174
398,72	4,779
398,94	12,414
399,15	3,906
399,37	9,932
399,58	6,275
399,80	18,678
400,01	18,237
400,22	4,682
400,44	-12,552
400,65	8,000
400,87	13,399
401,08	18,855
401,30	4,096
401,51	17,697
401,72	11,397
401,94	6,643
402,15	9,412
402,37	11,264
402,58	-5,351
402,80	8,174
403,01	5,789
403,22	6,534
403,44	10,884
403,65	-2,098
403,87	-9,231
404,08	8,882
404,30	5,899
404,51	12,676
404,72	5,810
404,94	2,918
405,15	6,122
405,37	13,019
405,58	12,745
405,79	14,362
406,01	2,228
406,22	-1,523
406,44	3,937
406,65	9,443
406,86	6,977
407,08	10,864
407,29	6,704
407,51	0,000
407,72	1,326
407,93	18,206
408,15	15,513
408,36	7,805
408,58	20,968
408,79	9,870
409,00	3,426
409,22	11,250
409,43	3,500
409,64	7,761
409,86	9,745
410,07	5,240
410,29	4,889
410,50	16,327
410,71	1,385
410,93	4,545
411,14	3,254
411,35	5,386
411,57	4,795
411,78	9,978
412,00	8,207
412,21	9,002
412,42	6,512
412,64	-1,927
412,85	3,371
413,06	4,796
413,28	8,977
413,49	0,000
413,70	9,579
413,92	8,364
414,13	7,128
414,34	12,929
414,56	12,885
414,77	15,087
414,98	13,458
415,20	0,778
415,41	9,946
415,63	0,193
415,84	13,538
416,05	13,465
416,27	12,226
416,48	6,262
416,69	0,524
416,91	5,347
417,12	4,000
417,33	-1,685
417,55	0,537
417,76	6,678
417,97	8,492
418,19	5,056
418,40	5,035
418,61	7,576
418,83	7,678
419,04	5,448
419,25	1,746
419,46	9,833
419,68	8,871
419,89	12,014
420,10	5,418
420,32	8,501
420,53	3,746
420,74	7,215
420,96	9,077
421,17	1,268
421,38	11,831
421,60	8,777
421,81	3,485
422,02	0,818
422,23	7,174
422,45	6,699
422,66	1,618
422,87	8,583
423,09	-0,470
423,30	-2,960
423,51	-0,155
423,73	7,040
423,94	5,923
424,15	6,601
424,36	-1,497
424,58	7,173
424,79	4,101
425,00	5,335
425,22	3,418
425,43	-0,402
425,64	5,072
425,85	10,789
426,07	2,316
426,28	7,739
426,49	4,308
426,71	3,259
426,92	5,725
427,13	-0,634
427,34	3,193
427,56	3,926
427,77	11,241
427,98	5,322
428,19	5,504
428,41	7,240
428,62	2,425
428,83	6,893
429,04	8,796
429,26	1,665
429,47	8,747
429,68	0,804
429,89	1,506
430,11	7,365
430,32	-0,634
430,53	4,936
430,74	-0,819
430,96	11,237
431,17	6,981
431,38	5,380
431,59	4,483
431,81	5,872
432,02	7,790
432,23	9,115
432,44	5,413
432,66	4,884
432,87	5,836
433,08	2,449
433,29	8,065
433,51	5,500
433,72	2,298
433,93	4,640
434,14	5,251
434,35	3,341
434,57	4,780
434,78	0,948
434,99	5,275
435,20	5,315
435,42	4,291
435,63	5,246
435,84	4,161
436,05	1,444
436,26	4,101
436,48	3,598
436,69	3,907
436,90	0,864
437,11	6,361
437,32	3,894
437,54	4,524
437,75	4,002
437,96	3,241
438,17	4,377
438,38	5,179
438,60	1,484
438,81	3,304
439,02	5,455
439,23	4,262
439,44	2,688
439,66	3,839
439,87	0,150
440,08	3,938
440,29	3,326
440,50	2,692
440,72	2,603
440,93	1,415
441,14	1,935
441,35	3,208
441,56	2,066
441,77	3,052
441,99	3,239
442,20	1,527
442,41	3,296
442,62	4,925
442,83	4,026
443,04	1,933
443,26	2,970
443,47	2,671
443,68	1,507
443,89	2,568
444,10	1,483
444,31	3,081
444,53	3,264
444,74	2,516
444,95	1,902
445,16	1,576
445,37	2,435
445,58	1,885
445,80	2,373
446,01	2,624
446,22	1,983
446,43	1,123
446,64	2,252
446,85	1,551
447,06	1,927
447,28	2,072
447,49	1,677
447,70	2,144
447,91	2,242
448,12	1,927
448,33	2,451
448,54	2,303
448,76	1,691
448,97	2,455
449,18	1,286
449,39	1,345
449,60	1,032
449,81	1,681
450,02	1,837
450,23	0,968
450,45	1,322
450,66	1,604
450,87	1,242
451,08	1,091
451,29	1,122
451,50	0,742
451,71	1,079
451,92	1,837
452,13	1,843
452,35	1,858
452,56	1,018
452,77	1,282
452,98	1,204
453,19	1,704
453,40	1,332
453,61	1,591
453,82	1,420
454,03	1,043
454,25	0,898
454,46	1,020
454,67	0,609
454,88	1,135
455,09	0,739
455,30	1,090
455,51	0,710
455,72	0,943
455,93	1,304
456,14	1,258
456,35	0,866
456,56	1,078
456,78	1,134
456,99	1,167
457,20	0,776
457,41	0,913
457,62	1,090
457,83	0,729
458,04	0,542
458,25	1,022
458,46	0,473
458,67	0,672
458,88	0,586
459,09	0,822
459,30	0,527
459,51	0,953
459,73	0,581
459,94	0,570
460,15	0,634
460,36	0,430
460,57	0,556
460,78	0,657
460,99	0,620
461,20	0,853
461,41	0,539
461,62	0,464
461,83	0,844
462,04	0,532
462,25	0,542
462,46	0,608
462,67	0,639
462,88	0,667
463,09	0,792
463,30	0,830
463,51	0,646
463,72	0,667
463,93	0,670
464,15	0,452
464,36	0,860
464,57	0,467
464,78	0,676
464,99	0,639
465,20	0,400
465,41	0,621
465,62	0,733
465,83	0,628
466,04	0,322
466,25	0,823
466,46	0,662
466,67	0,579
466,88	0,558
467,09	0,634
467,30	0,634
467,51	0,480
467,72	0,595
467,93	0,750
468,14	0,578
468,35	0,486
468,56	0,452
468,77	0,593
468,98	0,522
469,19	0,619
469,40	0,510
469,61	0,541
469,82	0,644
470,03	0,480
470,24	0,753
470,45	0,732
470,66	0,557
470,87	0,864
471,08	0,669
471,29	0,535
471,50	0,739
471,71	0,710
471,92	0,678
472,13	0,510
472,34	0,706
472,55	0,773
472,76	0,665
472,97	0,826
473,18	0,796
473,39	0,759
473,60	0,738
473,81	0,823
474,01	0,677
474,22	0,627
474,43	0,752
474,64	0,785
474,85	0,897
475,06	0,797
475,27	0,647
475,48	0,848
475,69	0,846
475,90	0,836
476,11	0,911
476,32	1,147
476,53	0,883
476,74	1,142
476,95	0,811
477,16	1,116
477,37	1,009
477,58	1,150
477,79	1,113
478,00	1,061
478,21	1,220
478,41	1,087
478,62	0,892
478,83	1,114
479,04	0,908
479,25	1,029
479,46	0,968
479,67	1,422
479,88	1,053
480,09	1,102
480,30	0,914
480,51	1,075
480,72	1,282
480,93	1,114
481,14	1,049
481,34	1,150
481,55	0,981
481,76	1,026
481,97	1,179
482,18	1,401
482,39	1,308
482,60	1,254
482,81	1,042
483,02	1,084
483,23	1,211
483,44	1,262
483,65	1,322
483,85	1,276
484,06	1,258
484,27	1,139
484,48	1,255
484,69	1,251
484,90	1,412
485,11	1,105
485,32	1,512
485,53	1,278
485,73	1,425
485,94	1,415
486,15	1,192
486,36	1,173
486,57	1,238
486,78	1,424
486,99	1,346
487,20	1,443
487,41	1,446
487,61	1,428
487,82	1,241
488,03	1,415
488,24	1,334
488,45	1,297
488,66	1,286
488,87	1,201
489,08	1,019
489,28	1,588
489,49	1,288
489,70	1,525
489,91	1,257
490,12	1,532
490,33	1,353
490,54	1,322
490,74	1,406
490,95	1,549
491,16	1,539
491,37	1,439
491,58	1,780
491,79	1,567
492,00	1,231
492,20	1,675
492,41	1,461
492,62	1,377
492,83	1,520
493,04	1,491
493,25	1,583
493,45	1,348
493,66	1,603
493,87	1,587
494,08	1,481
494,29	1,553
494,50	1,595
494,70	1,440
494,91	1,452
495,12	1,600
495,33	1,575
495,54	1,657
495,75	1,537
495,95	1,739
496,16	1,759
496,37	1,677
496,58	1,467
496,79	1,572
496,99	1,697
497,20	1,511
497,41	1,647
497,62	1,684
497,83	1,642
498,04	1,568
498,24	1,695
498,45	1,493
498,66	1,833
498,87	1,917
499,08	1,735
499,28	1,483
499,49	1,408
499,70	1,726
499,91	1,885
500,12	1,641
500,32	1,542
500,53	1,636
500,74	1,950
500,95	1,781
501,15	1,796
501,36	1,744
501,57	1,642
501,78	1,567
501,99	1,708
502,19	1,704
502,40	1,721
502,61	1,956
502,82	1,864
503,02	1,699
503,23	1,861
503,44	1,910
503,65	2,007
503,86	1,885
504,06	1,731
504,27	1,717
504,48	1,823
504,69	1,876
504,89	1,736
505,10	1,958
505,31	1,976
505,52	1,800
505,72	1,710
505,93	2,151
506,14	2,137
506,35	1,915
506,55	1,680
506,76	2,022
506,97	1,663
507,18	1,903
507,38	1,814
507,59	1,987
507,80	2,163
508,01	1,927
508,21	1,998
508,42	2,130
508,63	2,048
508,84	1,925
509,04	2,126
509,25	2,217
509,46	2,188
509,67	1,907
509,87	2,098
510,08	1,824
510,29	1,883
510,49	1,729
510,70	2,069
510,91	2,049
511,12	2,270
511,32	2,153
511,53	2,052
511,74	2,004
511,94	2,240
512,15	2,001
512,36	2,083
512,57	2,113
512,77	2,073
512,98	2,077
513,19	2,153
513,39	2,183
513,60	1,922
513,81	2,143
514,01	2,057
514,22	2,039
514,43	2,174
514,64	2,196
514,84	2,425
515,05	2,322
515,26	2,156
515,46	2,223
515,67	2,335
515,88	2,519
516,08	2,162
516,29	2,233
516,50	2,091
516,70	2,434
516,91	2,249
517,12	2,339
517,32	2,191
517,53	2,415
517,74	2,429
517,95	2,243
518,15	2,563
518,36	2,121
518,57	2,337
518,77	2,059
518,98	2,676
519,19	2,424
519,39	2,448
519,60	2,405
519,80	2,165
520,01	2,408
520,22	2,435
520,42	2,360
520,63	2,366
520,84	2,490
521,04	2,683
521,25	2,596
521,46	2,342
521,66	2,057
521,87	2,472
522,08	2,766
522,28	2,651
522,49	2,583
522,70	2,482
522,90	2,488
523,11	2,448
523,31	2,762
523,52	2,603
523,73	2,470
523,93	2,747
524,14	2,474
524,35	2,674
524,55	2,950
524,76	2,646
524,97	2,938
525,17	2,687
525,38	2,828
525,58	2,829
525,79	2,957
526,00	3,050
526,20	3,072
526,41	2,986
526,61	3,043
526,82	3,158
527,03	3,128
527,23	2,887
527,44	2,947
527,64	3,155
527,85	3,027
528,06	2,938
528,26	2,814
528,47	2,944
528,68	2,934
528,88	2,738
529,09	2,933
529,29	3,250
529,50	3,164
529,70	2,877
529,91	2,642
530,12	2,912
530,32	2,951
530,53	3,299
530,73	3,163
530,94	3,209
531,15	3,019
531,35	3,411
531,56	3,163
531,76	3,197
531,97	3,247
532,17	3,259
532,38	3,230
532,59	3,438
532,79	3,494
533,00	3,134
533,20	3,575
533,41	3,454
533,61	3,418
533,82	3,502
534,03	3,210
534,23	3,627
534,44	3,153
534,64	3,672
534,85	3,283
535,05	3,594
535,26	3,585
535,46	3,512
535,67	3,564
535,88	3,563
536,08	3,916
536,29	3,392
536,49	3,568
536,70	3,596
536,90	3,675
537,11	3,465
537,31	3,647
537,52	3,473
537,72	3,810
537,93	3,595
538,13	3,615
538,34	3,842
538,55	3,787
538,75	3,300
538,96	3,511
539,16	3,654
539,37	3,499
539,57	3,399
539,78	3,186
539,98	3,774
540,19	3,532
540,39	3,647
540,60	4,004
540,80	3,431
541,01	4,016
541,21	3,772
541,42	3,526
541,62	3,596
541,83	3,810
542,03	3,822
542,24	3,608
542,44	4,197
542,65	3,856
542,85	3,790
543,06	4,428
543,26	4,096
543,47	4,166
543,67	3,968
543,88	4,069
544,08	4,146
544,29	3,761
544,49	4,326
544,70	3,600
544,90	3,962
545,11	4,115
545,31	3,963
545,52	3,847
545,72	4,214
545,93	4,165
546,13	4,231
546,34	4,196
546,54	4,255
546,75	3,908
546,95	3,920
547,15	4,199
547,36	3,952
547,56	4,355
547,77	4,165
547,97	4,215
548,18	3,920
548,38	4,697
548,59	3,838
548,79	4,671
549,00	4,139
549,20	4,243
549,41	4,297
549,61	4,411
549,81	4,246
550,02	4,123
550,22	4,353
550,43	4,149
550,63	4,647
550,84	4,732
551,04	4,106
551,25	4,233
551,45	4,229
551,65	4,305
551,86	3,839
552,06	4,693
552,27	4,117
552,47	4,463
552,68	4,350
552,88	4,059
553,08	4,576
553,29	4,541
553,49	4,350
553,70	4,337
553,90	4,340
554,11	4,505
554,31	4,760
554,51	4,494
554,72	4,504
554,92	4,707
555,13	4,724
555,33	4,544
555,53	4,410
555,74	4,286
555,94	4,677
556,15	4,661
556,35	4,538
556,56	4,880
556,76	4,362
556,96	4,681
557,17	4,614
557,37	4,543
557,58	4,783
557,78	4,699
557,98	4,121
558,19	4,344
558,39	4,585
558,59	4,402
558,80	4,357
559,00	4,761
559,21	4,885
559,41	4,347
559,61	4,588
559,82	4,661
560,02	4,498
560,23	4,810
560,43	4,570
560,63	4,249
560,84	4,214
561,04	4,788
561,24	4,704
561,45	4,582
561,65	4,438
561,85	4,718
562,06	4,628
562,26	4,511
562,47	4,567
562,67	4,661
562,87	4,464
563,08	4,850
563,28	4,356
563,48	4,622
563,69	4,652
563,89	4,985
564,09	4,626
564,30	4,503
564,50	4,534
564,70	4,732
564,91	4,519
565,11	4,677
565,31	4,725
565,52	4,933
565,72	4,504
565,92	4,848
566,13	4,589
566,33	4,931
566,53	4,811
566,74	4,316
566,94	4,306
567,14	4,918
567,35	4,417
567,55	4,797
567,75	4,715
567,96	4,863
568,16	4,821
568,36	4,881
568,57	4,983
568,77	4,764
568,97	4,924
569,18	4,716
569,38	5,063
569,58	4,923
569,79	4,887
569,99	4,851
570,19	5,007
570,39	4,984
570,60	4,869
570,80	4,609
571,00	4,578
571,21	4,283
571,41	4,941
571,61	4,740
571,82	5,011
572,02	4,862
572,22	4,694
572,42	4,891
572,63	4,916
572,83	4,526
573,03	5,025
573,24	4,375
573,44	4,843
573,64	4,642
573,84	4,661
574,05	4,945
574,25	4,890
574,45	4,629
574,66	4,926
574,86	4,808
575,06	4,824
575,26	4,831
575,47	4,702
575,67	5,000
575,87	5,487
576,07	5,029
576,28	4,996
576,48	5,068
576,68	4,805
576,88	4,899
577,09	4,679
577,29	4,886
577,49	4,591
577,69	4,710
577,90	5,017
578,10	4,643
578,30	4,435
578,50	4,867
578,71	4,839
578,91	4,906
579,11	4,959
579,31	4,907
579,52	4,423
579,72	4,672
579,92	4,603
580,12	4,753
580,33	4,616
580,53	4,770
580,73	4,546
580,93	4,897
581,13	4,813
581,34	4,831
581,54	4,319
581,74	4,832
581,94	4,930
582,15	4,781
582,35	4,739
582,55	4,603
582,75	4,464
582,95	4,441
583,16	4,820
583,36	4,633
583,56	4,622
583,76	4,560
583,96	4,855
584,17	4,590
584,37	4,963
584,57	4,966
584,77	4,655
584,97	4,491
585,18	4,667
585,38	4,682
585,58	4,748
585,78	4,632
585,98	4,707
586,19	4,477
586,39	4,551
586,59	4,782
586,79	4,187
586,99	4,653
587,20	4,777
587,40	4,763
587,60	4,632
587,80	4,433
588,00	4,354
588,20	4,343
588,41	4,463
588,61	4,342
588,81	4,307
589,01	4,494
589,21	4,694
589,41	4,461
589,62	4,780
589,82	4,584
590,02	4,640
590,22	4,317
590,42	4,478
590,62	4,957
590,83	4,294
591,03	4,378
591,23	4,456
591,43	4,544
591,63	4,599
591,83	4,105
592,03	4,383
592,24	4,398
592,44	4,245
592,64	4,523
592,84	4,218
593,04	4,579
593,24	4,567
593,44	4,296
593,65	4,303
593,85	4,084
594,05	4,125
594,25	4,230
594,45	4,268
594,65	4,152
594,85	4,290
595,06	4,564
595,26	4,278
595,46	4,216
595,66	4,262
595,86	4,329
596,06	4,188
596,26	4,375
596,46	4,183
596,66	4,290
596,87	4,301
597,07	4,314
597,27	4,234
597,47	4,406
597,67	4,280
597,87	4,310
598,07	4,046
598,27	4,607
598,47	4,353
598,67	4,363
598,88	4,249
599,08	4,323
599,28	4,452
599,48	4,669
599,68	4,717
599,88	4,727
600,08	4,757
600,28	4,857
600,48	4,451
600,68	4,745
600,88	5,096
601,09	4,499
601,29	4,672
601,49	4,854
601,69	4,859
601,89	4,870
602,09	4,833
602,29	4,814
602,49	4,983
602,69	5,207
602,89	4,872
603,09	5,086
603,29	4,880
603,49	5,167
603,69	4,842
603,90	4,937
604,10	4,906
604,30	4,642
604,50	4,854
604,70	4,657
604,90	5,038
605,10	4,983
605,30	5,228
605,50	5,166
605,70	4,703
605,90	5,217
606,10	5,398
606,30	5,017
606,50	5,407
606,70	5,445
606,90	5,420
607,10	5,604
607,30	5,145
607,50	5,376
607,70	5,588
607,90	5,593
608,10	5,355
608,30	5,258
608,50	5,089
608,70	5,915
608,90	5,585
609,11	5,603
609,31	5,836
609,51	5,818
609,71	5,622
609,91	6,051
610,11	5,639
610,31	5,993
610,51	6,150
610,71	6,293
610,91	6,296
611,11	6,356
611,31	6,338
611,51	6,249
611,71	6,820
611,91	6,565
612,11	6,923
612,31	7,210
612,51	7,493
612,71	7,686
612,91	7,526
613,11	7,713
613,31	7,839
613,51	7,755
613,71	8,073
613,91	8,058
614,11	8,296
614,31	8,656
614,50	8,847
614,70	8,969
614,90	8,904
615,10	9,077
615,30	8,999
615,50	9,787
615,70	9,524
615,90	9,584
616,10	9,860
616,30	10,050
616,50	10,233
616,70	10,436
616,90	10,922
617,10	11,142
617,30	11,364
617,50	11,387
617,70	11,814
617,90	11,931
618,10	11,941
618,30	12,587
618,50	12,785
618,70	13,199
618,90	13,958
619,10	14,231
619,30	14,814
619,49	14,634
619,69	15,413
619,89	16,590
620,09	16,503
620,29	17,745
620,49	18,067
620,69	18,589
620,89	19,592
621,09	20,169
621,29	21,332
621,49	22,385
621,69	22,819
621,89	23,469
622,09	24,388
622,29	25,539
622,48	26,484
622,68	27,689
622,88	28,968
623,08	29,769
623,28	31,130
623,48	31,549
623,68	32,772
623,88	32,559
624,08	34,235
624,28	34,193
624,48	34,381
624,67	34,612
624,87	35,984
625,07	35,752
625,27	37,128
625,47	37,238
625,67	37,069
625,87	36,947
626,07	37,473
626,27	37,445
626,47	38,072
626,66	37,599
626,86	38,041
627,06	38,520
627,26	37,536
627,46	38,632
627,66	39,041
627,86	38,809
628,06	39,577
628,25	39,166
628,45	38,987
628,65	40,292
628,85	40,031
629,05	40,201
629,25	40,535
629,45	41,163
629,65	41,151
629,84	41,626
630,04	43,261
630,24	42,467
630,44	44,198
630,64	45,028
630,84	45,506
631,04	46,007
631,23	47,743
631,43	49,435
631,63	50,805
631,83	51,875
632,03	52,996
632,23	52,934
632,42	53,854
632,62	54,111
632,82	54,376
633,02	54,579
633,22	54,289
633,42	54,506
633,62	54,484
633,81	54,294
634,01	53,741
634,21	54,103
634,41	53,398
634,61	51,952
634,80	51,573
635,00	51,028
635,20	49,538
635,40	48,482
635,60	48,063
635,80	46,744
635,99	45,543
636,19	44,013
636,39	44,028
636,59	42,326
636,79	42,007
636,98	41,427
637,18	40,535
637,38	39,442
637,58	39,141
637,78	38,902
637,97	37,563
638,17	37,764
638,37	37,185
638,57	36,749
638,77	36,444
638,96	35,963
639,16	35,395
639,36	34,731
639,56	33,897
639,76	33,313
639,95	32,844
640,15	31,755
640,35	31,643
640,55	30,157
640,75	28,693
640,94	27,605
641,14	26,483
641,34	25,425
641,54	24,067
641,73	22,468
641,93	21,219
642,13	19,814
642,33	18,425
642,53	17,451
642,72	16,158
642,92	14,667
643,12	13,558
643,32	12,304
643,51	11,223
643,71	10,372
643,91	9,676
644,11	8,950
644,30	8,561
644,50	8,466
644,70	8,036
644,90	7,250
645,09	6,907
645,29	6,818
645,49	6,700
645,69	6,269
645,88	6,324
646,08	6,256
646,28	6,088
646,48	6,385
646,67	5,804
646,87	5,930
647,07	5,758
647,26	5,867
647,46	5,740
647,66	5,683
647,86	5,519
648,05	5,517
648,25	5,397
648,45	5,423
648,65	5,583
648,84	5,625
649,04	5,477
649,24	5,364
649,43	5,342
649,63	5,510
649,83	5,191
650,03	5,410
650,22	5,493
650,42	5,255
650,62	5,092
650,81	5,085
651,01	4,894
651,21	5,135
651,40	5,013
651,60	4,916
651,80	5,054
652,00	5,170
652,19	5,091
652,39	5,233
652,59	4,814
652,78	5,074
652,98	4,994
653,18	5,486
653,37	5,086
653,57	5,120
653,77	4,686
653,96	4,928
654,16	5,221
654,36	5,044
654,55	4,944
654,75	4,939
654,95	4,945
655,14	5,083
655,34	5,232
655,54	4,980
655,73	4,930
655,93	5,191
656,13	4,512
656,32	5,117
656,52	4,898
656,72	4,993
656,91	5,113
657,11	4,757
657,31	5,079
657,50	5,102
657,70	4,701
657,90	4,747
658,09	4,846
658,29	5,069
658,49	4,729
658,68	4,882
658,88	4,896
659,07	4,553
659,27	4,837
659,47	4,803
659,66	4,750
659,86	4,850
660,06	5,046
660,25	5,204
660,45	5,154
660,64	4,957
660,84	4,914
661,04	5,131
661,23	4,996
661,43	4,948
661,63	4,904
661,82	4,880
662,02	4,890
662,21	4,815
662,41	5,005
662,61	4,736
662,80	4,874
663,00	4,655
663,19	4,641
663,39	4,777
663,59	4,855
663,78	4,989
663,98	4,973
664,17	4,732
664,37	5,034
664,57	4,922
664,76	4,679
664,96	4,916
665,15	4,984
665,35	4,817
665,55	4,636
665,74	5,202
665,94	4,633
666,13	5,104
666,33	5,002
666,53	4,852
666,72	5,107
666,92	4,914
667,11	4,945
667,31	5,138
667,50	5,092
667,70	4,475
667,90	4,802
668,09	4,857
668,29	4,691
668,48	4,891
668,68	4,857
668,87	4,943
669,07	4,763
669,26	4,865
669,46	4,811
669,66	4,488
669,85	4,656
670,05	4,697
670,24	4,641
670,44	4,650
670,63	4,992
670,83	5,008
671,02	4,614
671,22	4,954
671,42	4,787
671,61	4,927
671,81	4,868
672,00	4,969
672,20	4,870
672,39	4,926
672,59	4,859
672,78	4,814
672,98	4,764
673,17	4,908
673,37	4,682
673,56	4,894
673,76	4,747
673,95	4,742
674,15	4,739
674,34	4,665
674,54	4,926
674,73	4,742
674,93	4,956
675,13	4,810
675,32	4,627
675,52	4,611
675,71	4,810
675,91	4,867
676,10	4,731
676,30	5,001
676,49	4,886
676,69	4,732
676,88	4,988
677,08	4,687
677,27	4,559
677,47	4,667
677,66	4,940
677,86	4,983
678,05	4,826
678,24	4,713
678,44	4,769
678,63	5,007
678,83	4,993
679,02	4,858
679,22	4,844
679,41	4,878
679,61	4,964
679,80	4,819
680,00	4,737
680,19	4,814
680,39	4,846
680,58	4,847
680,78	4,823
680,97	4,908
681,17	4,700
681,36	4,642
681,56	4,863
681,75	4,719
681,94	5,053
682,14	4,914
682,33	4,711
682,53	4,796
682,72	4,909
682,92	4,819
683,11	4,884
683,31	4,969
683,50	4,893
683,69	4,970
683,89	4,623
684,08	4,918
684,28	4,813
684,47	4,716
684,67	4,829
684,86	4,687
685,06	4,570
685,25	5,078
685,44	4,792
685,64	4,988
685,83	4,982
686,03	4,885
686,22	4,979
686,42	5,154
686,61	4,865
686,80	4,716
687,00	4,663
687,19	4,818
687,39	4,856
687,58	4,773
687,77	4,881
687,97	4,794
688,16	5,008
688,36	4,910
688,55	5,194
688,74	5,109
688,94	4,666
689,13	4,924
689,33	4,738
689,52	4,979
689,71	5,005
689,91	4,916
690,10	4,791
690,30	4,810
690,49	5,090
690,68	4,916
690,88	4,497
691,07	4,833
691,27	4,750
691,46	4,753
691,65	4,737
691,85	4,747
692,04	4,578
692,23	4,708
692,43	4,829
692,62	4,827
692,82	4,709
693,01	4,782
693,20	4,962
693,40	4,659
693,59	4,686
693,78	4,946
693,98	4,803
694,17	4,555
694,36	4,547
694,56	4,812
694,75	4,779
694,94	5,038
695,14	4,677
695,33	4,940
695,53	4,859
695,72	4,873
695,91	4,890
696,11	5,104
696,30	4,755
696,49	5,028
696,69	4,711
696,88	4,745
697,07	4,805
697,27	4,603
697,46	5,075
697,65	4,987
697,85	4,917
698,04	5,018
698,23	5,014
698,43	5,063
698,62	4,892
698,81	5,060
699,01	4,943
699,20	4,807
699,39	4,909
699,58	4,710
699,78	4,822
699,97	5,094
700,16	4,650
700,36	4,925
700,55	4,732
700,74	4,907
700,94	4,823
701,13	5,013
701,32	4,829
701,52	4,824
701,71	5,026
701,90	4,737
702,09	4,973
702,29	5,299
702,48	4,823
702,67	4,653
702,87	4,844
703,06	5,232
703,25	4,757
703,44	5,075
703,64	4,834
703,83	5,067
704,02	4,831
704,22	5,159
704,41	4,842
704,60	5,130
704,79	4,992
704,99	4,764
705,18	5,269
705,37	5,147
705,56	4,763
705,76	4,791
705,95	5,078
706,14	4,903
706,33	5,063
706,53	4,891
706,72	4,892
706,91	4,871
707,11	4,751
707,30	4,813
707,49	4,938
707,68	4,997
707,88	4,614
708,07	4,937
708,26	4,853
708,45	4,937
708,64	4,645
708,84	4,820
709,03	4,882
709,22	4,675
709,41	4,864
709,61	4,954
709,80	5,179
709,99	4,791
710,18	5,121
710,38	5,059
710,57	5,243
710,76	4,925
710,95	5,452
711,14	5,073
711,34	5,006
711,53	4,820
711,72	4,741
711,91	5,408
712,11	5,070
712,30	5,145
712,49	4,783
712,68	5,227
712,87	4,825
713,07	4,823
713,26	4,869
713,45	4,950
713,64	4,858
713,83	4,824
714,03	4,985
714,22	4,789
714,41	5,254
714,60	4,923
714,79	5,093
714,99	4,801
715,18	5,132
715,37	4,864
715,56	4,945
715,75	5,120
715,94	5,016
716,14	4,894
716,33	4,959
716,52	4,841
716,71	4,912
716,90	4,807
717,10	4,961
717,29	5,113
717,48	4,893
717,67	4,983
717,86	5,090
718,05	4,772
718,24	4,876
718,44	4,761
718,63	5,076
718,82	5,256
719,01	4,863
719,20	4,665
719,39	4,638
719,59	5,007
719,78	4,818
719,97	5,288
720,16	5,201
720,35	4,842
720,54	4,922
720,73	5,243
720,93	4,645
721,12	4,963
721,31	5,194
721,50	5,206
721,69	5,160
721,88	4,813
722,07	5,168
722,27	5,122
722,46	4,777
722,65	4,962
722,84	4,996
723,03	5,282
723,22	5,319
723,41	4,985
723,60	5,028
723,79	5,077
723,99	4,977
724,18	5,115
724,37	5,357
724,56	5,070
724,75	5,358
724,94	5,442
725,13	5,083
725,32	5,245
725,51	5,375
725,71	5,313
725,90	5,431
726,09	4,999
726,28	5,307
726,47	5,187
726,66	5,193
726,85	5,476
727,04	5,185
727,23	5,434
727,42	5,204
727,61	4,721
727,81	4,934
728,00	4,850
728,19	4,859
728,38	4,819
728,57	5,298
728,76	5,240
728,95	5,559
729,14	5,001
729,33	5,546
729,52	5,360
729,71	5,151
729,90	5,001
730,09	5,261
730,28	5,169
730,48	5,016
730,67	5,483
730,86	5,269
731,05	5,183
731,24	4,959
731,43	5,239
731,62	5,166
731,81	5,286
732,00	5,294
732,19	5,164
732,38	5,087
732,57	5,304
732,76	5,190
732,95	5,283
733,14	5,329
733,33	5,321
733,52	5,343
733,71	5,156
733,90	5,499
734,09	5,360
734,28	5,646
734,47	5,011
734,66	5,206
734,85	5,290
735,04	5,486
735,23	5,369
735,42	5,470
735,61	5,531
735,81	5,712
736,00	5,605
736,19	5,788
736,38	5,553
736,57	5,524
736,76	5,845
736,95	5,656
737,14	6,011
737,33	5,772
737,52	5,800
737,71	6,006
737,90	5,890
738,09	6,083
738,28	6,526
738,47	6,297
738,66	6,290
738,85	6,571
739,04	6,435
739,22	6,884
739,41	6,720
739,60	6,772
739,79	7,077
739,98	7,440
740,17	7,293
740,36	7,522
740,55	7,461
740,74	7,836
740,93	7,792
741,12	8,223
741,31	8,374
741,50	8,619
741,69	8,995
741,88	9,198
742,07	9,383
742,26	9,646
742,45	9,640
742,64	10,024
742,83	10,344
743,02	10,838
743,21	10,884
743,40	11,085
743,59	11,565
743,78	11,557
743,97	12,255
744,16	11,813
744,34	12,454
744,53	12,868
744,72	13,381
744,91	13,349
745,10	13,265
745,29	14,063
745,48	14,308
745,67	14,749
745,86	15,745
746,05	15,468
746,24	15,857
746,43	16,954
746,62	17,431
746,81	17,909
747,00	18,978
747,18	19,102
747,37	19,528
747,56	20,417
747,75	20,640
747,94	21,887
748,13	22,375
748,32	23,376
748,51	23,877
748,70	24,582
748,89	25,777
749,08	26,777
749,26	27,742
749,45	28,862
749,64	29,432
749,83	30,875
750,02	32,277
750,21	34,118
750,40	35,037
750,59	37,003
750,78	38,581
750,96	40,602
751,15	41,362
751,34	42,437
751,53	44,145
751,72	46,038
751,91	47,090
752,10	48,989
752,29	50,467
752,47	50,457
752,66	52,552
752,85	53,567
753,04	55,099
753,23	55,724
753,42	57,381
753,61	58,257
753,80	58,707
753,98	59,043
754,17	59,459
754,36	60,466
754,55	59,392
754,74	61,032
754,93	61,951
755,12	61,732
755,30	61,130
755,49	61,604
755,68	61,276
755,87	61,867
756,06	61,725
756,25	61,948
756,43	62,699
756,62	62,230
756,81	62,089
757,00	62,880
757,19	60,566
757,38	62,163
757,56	61,093
757,75	61,303
757,94	60,980
758,13	60,271
758,32	59,800
758,51	58,434
758,69	58,161
758,88	58,400
759,07	57,722
759,26	56,904
759,45	55,747
759,63	55,049
759,82	54,059
760,01	53,309
760,20	51,922
760,39	51,200
760,57	49,655
760,76	48,882
760,95	47,713
761,14	46,549
761,33	45,716
761,51	45,203
761,70	44,506
761,89	43,533
762,08	42,947
762,27	41,622
762,45	41,578
762,64	41,007
762,83	40,398
763,02	40,247
763,21	38,603
763,39	38,130
763,58	38,274
763,77	37,825
763,96	36,365
764,14	35,853
764,33	36,383
764,52	36,160
764,71	34,957
764,89	34,576
765,08	33,855
765,27	33,568
765,46	32,671
765,65	32,594
765,83	32,153
766,02	31,850
766,21	31,098
766,40	30,285
766,58	29,940
766,77	29,356
766,96	28,104
767,15	28,368
767,33	26,737
767,52	26,773
767,71	26,074
767,90	24,822
768,08	24,747
768,27	24,518
768,46	22,733
768,64	22,147
768,83	21,330
769,02	19,970
769,21	19,138
769,39	18,358
769,58	16,641
769,77	16,164
769,96	15,315
770,14	13,972
770,33	13,677
770,52	12,564
770,70	11,936
770,89	11,062
771,08	10,656
771,27	10,731
771,45	9,845
771,64	9,468
771,83	9,416
772,01	8,525
772,20	8,517
772,39	8,015
772,57	8,062
772,76	7,545
772,95	7,188
773,14	6,964
773,32	7,212
773,51	7,029
773,70	6,645
773,88	6,845
774,07	6,851
774,26	6,376
774,44	6,182
774,63	6,275
774,82	6,252
775,00	6,377
775,19	5,998
775,38	5,811
775,56	5,591
775,75	5,680
775,94	5,376
776,12	5,414
776,31	5,604
776,50	5,223
776,68	5,268
776,87	4,998
777,06	5,402
777,24	5,389
777,43	5,246
777,62	4,875
777,80	4,897
777,99	4,993
778,18	4,456
778,36	5,034
778,55	4,660
778,74	5,005
778,92	4,940
779,11	4,645
779,29	4,829
779,48	5,235
779,67	4,896
779,85	4,697
780,04	4,946
780,23	4,784
780,41	4,755
780,60	4,618
780,79	4,878
780,97	4,863
781,16	5,116
781,34	4,848
781,53	5,034
781,72	4,606
781,90	5,000
782,09	4,466
782,28	5,170
782,46	4,501
782,65	4,640
782,83	4,644
783,02	4,878
783,21	4,585
783,39	4,719
783,58	4,535
783,76	4,496
783,95	4,602
784,14	4,838
784,32	5,047
784,51	4,555
784,69	4,335
784,88	4,738
785,06	4,719
785,25	4,587
785,44	4,313
785,62	4,456
785,81	4,826
785,99	4,771
786,18	4,635
786,37	4,734
786,55	4,666
786,74	4,240
786,92	4,511
787,11	4,627
787,29	4,281
787,48	4,492
787,67	4,392
787,85	4,288
788,04	4,361
788,22	4,335
788,41	4,618
788,59	4,538
788,78	4,272
788,96	4,461
789,15	4,596
789,34	4,707
789,52	4,806
789,71	5,028
789,89	4,858
790,08	4,679
790,26	4,827
790,45	4,641
790,63	4,994
790,82	4,936
791,00	4,686
791,19	4,853
791,38	4,680
791,56	4,333
791,75	4,696
791,93	4,892
792,12	4,881
792,30	4,584
792,49	4,644
792,67	4,723
792,86	4,910
793,04	4,988
793,23	4,898
793,41	4,683
793,60	4,736
793,78	4,943
793,97	5,055
794,15	5,007
794,34	4,887
794,52	4,590
794,71	4,795
794,89	4,887
795,08	5,475
795,26	4,518
795,45	5,013
795,63	4,939
795,82	4,702
796,00	4,444
796,19	4,860
796,37	4,302
796,56	4,361
796,74	4,921
796,93	4,539
797,11	4,696
797,30	4,359
797,48	4,876
797,67	4,736
797,85	4,779
798,04	4,386
798,22	4,619
798,41	4,816
798,59	4,605
798,77	4,493
798,96	5,015
799,14	4,808
799,33	4,830
799,51	4,442
799,70	4,678
799,88	4,188
800,07	4,387
800,25	4,756
800,44	4,251
800,62	3,722
800,80	4,547
800,99	4,821
801,17	5,090
801,36	4,668
801,54	4,492
801,73	4,242
801,91	4,598
802,10	4,930
802,28	4,943
802,46	4,610
802,65	4,720
802,83	4,511
803,02	5,035
803,20	4,909
803,39	4,866
803,57	4,661
803,75	5,013
803,94	4,838
804,12	4,554
804,31	4,436
804,49	4,736
804,67	4,596
804,86	4,754
805,04	4,836
805,23	4,791
805,41	5,103
805,59	4,555
805,78	4,771
805,96	4,768
806,15	5,187
806,33	5,135
806,51	4,549
806,70	4,771
806,88	4,827
807,07	4,330
807,25	4,568
807,43	4,508
807,62	4,345
807,80	4,485
807,99	4,580
808,17	4,252
808,35	4,659
808,54	4,631
808,72	5,242
808,90	5,015
809,09	4,610
809,27	5,202
809,46	4,768
809,64	4,750
809,82	4,842
810,01	5,234
810,19	4,518
810,37	4,579
810,56	4,588
810,74	4,505
810,92	4,529
811,11	4,437
811,29	5,033
811,48	4,727
811,66	5,224
811,84	5,319
812,03	4,541
812,21	4,784
812,39	5,490
812,58	4,687
812,76	5,086
812,94	4,889
813,13	4,440
813,31	4,491
813,49	4,768
813,68	4,818
813,86	4,735
814,04	4,231
814,23	4,553
814,41	4,529
814,59	4,686
814,78	4,678
814,96	4,488
815,14	4,929
815,33	4,484
815,51	4,751
815,69	4,488
815,87	4,901
816,06	4,881
816,24	5,179
816,42	4,719
816,61	4,504
816,79	5,077
816,97	4,987
817,16	4,298
817,34	4,835
817,52	4,812
817,70	4,711
817,89	4,495
818,07	4,627
818,25	4,582
818,44	4,221
818,62	5,199
818,80	4,906
818,98	4,231
819,17	4,799
819,35	4,447
819,53	4,685
819,72	4,585
819,90	5,140
820,08	4,700
820,26	4,816
820,45	5,342
820,63	4,973
820,81	4,904
820,99	4,890
821,18	4,682
821,36	4,747
821,54	5,170
821,73	4,694
821,91	4,279
822,09	4,394
822,27	5,396
822,46	4,733
822,64	5,048
822,82	4,983
823,00	4,698
823,19	4,684
823,37	4,699
823,55	4,796
823,73	5,053
823,91	4,623
824,10	4,896
824,28	4,594
824,46	4,959
824,64	4,499
824,83	5,123
825,01	5,235
825,19	4,575
825,37	5,086
825,56	5,134
825,74	4,844
825,92	4,596
826,10	5,466
826,28	5,024
826,47	4,697
826,65	4,631
826,83	4,922
827,01	4,852
827,19	5,738
827,38	5,063
827,56	5,547
827,74	5,117
827,92	5,251
828,10	5,292
828,29	5,519
828,47	4,876
828,65	4,985
828,83	5,301
829,01	5,236
829,20	5,272
829,38	5,151
829,56	4,851
829,74	4,978
829,92	5,075
830,10	5,555
830,29	5,682
830,47	5,270
830,65	5,398
830,83	5,764
831,01	5,549
831,20	5,427
831,38	5,797
831,56	6,060
831,74	6,178
831,92	5,796
832,10	6,528
832,29	6,692
832,47	6,226
832,65	5,941
832,83	6,038
833,01	6,957
833,19	6,785
833,37	6,531
833,56	7,166
833,74	7,263
833,92	6,479
834,10	7,187
834,28	7,164
834,46	8,124
834,64	7,579
834,83	7,100
835,01	7,719
835,19	8,321
835,37	7,950
835,55	8,384
835,73	8,811
835,91	7,859
836,09	8,563
836,28	8,588
836,46	8,362
836,64	9,447
836,82	9,239
837,00	10,013
837,18	9,908
837,36	9,697
837,54	9,820
837,72	10,337
837,91	10,346
838,09	10,994
838,27	10,859
838,45	11,336
838,63	11,239
838,81	11,619
838,99	11,837
839,17	12,572
839,35	12,386
839,53	12,682
839,72	13,290
839,90	13,347
840,08	13,982
840,26	13,551
840,44	13,772
840,62	14,374
840,80	14,831
840,98	15,233
841,16	15,002
841,34	15,936
841,52	15,982
841,70	15,902
841,89	16,127
842,07	17,314
842,25	17,140
842,43	17,370
842,61	17,642
842,79	17,939
842,97	17,596
843,15	19,554
843,33	20,114
843,51	20,302
843,69	21,083
843,87	21,884
844,05	22,373
844,23	22,704
844,41	23,282
844,59	23,494
844,77	25,554
844,95	26,019
845,13	26,644
845,31	27,529
845,50	28,871
845,68	30,263
845,86	30,693
846,04	31,696
846,22	32,724
846,40	33,539
846,58	35,329
846,76	37,239
846,94	37,600
847,12	38,530
847,30	39,229
847,48	40,483
847,66	42,810
847,84	44,024
848,02	44,562
848,20	46,296
848,38	46,317
848,56	47,038
848,74	49,358
848,92	49,061
849,10	50,086
849,28	51,223
849,46	51,837
849,64	52,730
849,82	53,178
850,00	53,495
850,18	52,724
850,36	54,959
850,54	54,888
850,72	54,608
850,90	55,404
851,08	55,990
851,26	56,051
851,44	54,509
851,62	56,521
851,80	55,213
851,98	57,032
852,16	56,408
852,34	55,285
852,52	55,715
852,70	56,051
852,87	55,355
853,05	54,849
853,23	54,734
853,41	55,075
853,59	53,065
853,77	54,207
853,95	52,466
854,13	52,254
854,31	51,896
854,49	51,100
854,67	49,283
854,85	48,872
855,03	47,607
855,21	48,442
855,39	45,366
855,57	46,113
855,75	44,320
855,93	43,401
856,11	42,562
856,28	41,391
856,46	40,663
856,64	40,200
856,82	39,183
857,00	38,485
857,18	38,020
857,36	37,025
857,54	35,851
857,72	34,965
857,90	34,383
858,08	33,890
858,26	33,931
858,44	33,229
858,61	33,309
858,79	32,285
858,97	31,948
859,15	32,031
859,33	32,086
859,51	32,331
859,69	31,116
859,87	31,196
860,05	31,488
860,23	30,357
860,40	30,165
860,58	29,301
860,76	29,303
860,94	29,568
861,12	28,015
861,30	27,199
861,48	27,680
861,66	26,657
861,84	26,336
862,01	25,899
862,19	24,470
862,37	23,621
862,55	22,713
862,73	20,863
862,91	21,319
863,09	19,707
863,27	18,774
863,44	18,839
863,62	17,281
863,80	16,948
863,98	16,398
864,16	15,827
864,34	15,065
864,52	14,597
864,69	13,977
864,87	12,885
865,05	12,769
865,23	13,075
865,41	12,140
865,59	11,980
865,76	12,146
865,94	11,691
866,12	12,198
866,30	11,525
866,48	11,410
866,66	11,381
866,83	12,245
867,01	11,821
867,19	10,875
867,37	11,535
867,55	10,960
867,73	11,113
867,90	10,796
868,08	10,885
868,26	9,944
868,44	9,545
868,62	9,890
868,79	9,744
868,97	8,991
869,15	9,229
869,33	9,069
869,51	8,600
869,69	8,842
869,86	8,811
870,04	7,970
870,22	8,371
870,40	8,000
870,57	7,830
870,75	6,957
870,93	7,525
871,11	7,380
871,29	6,367
871,46	7,001
871,64	7,604
871,82	6,445
872,00	6,115
872,18	6,247
872,35	6,476
872,53	6,291
872,71	5,445
872,89	5,521
873,06	5,218
873,24	4,570
873,42	4,416
873,60	4,814
873,77	4,689
873,95	4,003
874,13	3,502
874,31	4,140
874,49	4,260
874,66	4,179
874,84	4,156
875,02	4,127
875,20	3,806
875,37	3,496
875,55	3,661
875,73	3,552
875,91	3,569
876,08	3,879
876,26	3,937
876,44	4,330
876,61	4,361
876,79	4,041
876,97	3,717
877,15	3,922
877,32	3,537
877,50	3,481
877,68	3,392
877,86	3,727
878,03	4,442
878,21	3,456
878,39	3,878
878,56	3,434
878,74	3,974
878,92	3,360
879,10	3,951
879,27	3,992
879,45	3,825
879,63	3,746
879,80	3,605
879,98	4,271
880,16	3,465
880,34	3,882
880,51	3,327
880,69	4,040
880,87	4,098
881,04	3,877
881,22	4,012
881,40	3,241
881,57	3,753
881,75	3,882
881,93	3,714
882,10	3,533
882,28	3,760
882,46	3,575
882,63	3,696
882,81	3,632
882,99	4,144
883,16	3,402
883,34	3,828
883,52	3,578
883,69	3,659
883,87	3,832
884,05	3,378
884,22	3,340
884,40	3,895
884,58	3,942
884,75	3,845
884,93	3,634
885,11	3,539
885,28	3,372
885,46	3,747
885,64	3,841
885,81	4,278
885,99	3,751
886,17	3,548
886,34	3,735
886,52	3,669
886,70	3,640
886,87	3,752
887,05	3,667
887,22	3,968
887,40	3,300
887,58	3,498
887,75	3,613
887,93	3,789
888,11	3,344
888,28	3,280
888,46	3,274
888,63	3,282
888,81	3,725
888,99	3,178
889,16	3,175
889,34	3,645
889,51	3,255
889,69	2,775
889,87	4,090
890,04	2,865
890,22	3,684
890,39	3,576
890,57	3,472
890,75	3,303
890,92	4,217
891,10	3,628
891,27	3,204
891,45	2,773
891,63	3,516
891,80	3,671
891,98	3,713
892,15	3,512
892,33	3,560
892,51	3,534
892,68	3,245
892,86	3,580
893,03	3,164
893,21	3,463
893,38	3,743
893,56	3,578
893,74	3,497
893,91	3,254
894,09	2,940
894,26	3,529
894,44	3,374
894,61	3,247
894,79	3,638
894,96	3,141
895,14	3,109
895,32	3,544
895,49	3,035
895,67	2,871
895,84	3,531
896,02	3,484
896,19	3,834
896,37	3,718
896,54	3,583
896,72	3,490
896,89	4,013
897,07	3,194
897,25	3,125
897,42	3,001
897,60	3,387
897,77	3,891
897,95	3,105
898,12	3,236
898,30	2,953
898,47	2,592
898,65	3,144
898,82	2,540
899,00	2,672
899,17	2,446
899,35	2,950
899,52	3,308
899,70	3,624
899,87	3,494
900,05	3,328
900,22	3,323
900,40	3,089
900,57	3,201
900,75	3,360
900,92	2,741
901,10	3,057
901,27	2,904
901,45	2,995
901,62	3,311
901,80	2,979
901,97	2,915
902,15	3,620
902,32	3,362
902,50	2,644
902,67	3,046
902,85	3,124
903,02	2,840
903,20	2,853
903,37	3,574
903,54	3,689
903,72	2,951
903,89	3,063
904,07	3,221
904,24	2,569
904,42	2,585
904,59	3,396
904,77	3,007
904,94	2,992
905,12	3,155
905,29	2,959
905,47	3,413
905,64	3,501
905,81	2,977
905,99	3,120
906,16	3,003
906,34	2,984
906,51	2,968
906,69	3,035
906,86	2,975
907,03	3,209
907,21	2,991
907,38	3,214
907,56	3,113
907,73	3,016
907,91	3,264
908,08	2,676
908,25	3,163
908,43	3,218
908,60	3,036
908,78	3,313
908,95	3,092
909,13	2,895
909,30	1,872
909,47	2,559
909,65	2,786
909,82	3,103
910,00	3,038
910,17	2,033
910,34	3,058
910,52	2,772
910,69	3,280
910,87	2,569
911,04	2,988
911,21	2,814
911,39	2,673
911,56	2,689
911,73	2,503
911,91	2,439
912,08	2,811
912,26	2,679
912,43	3,270
912,60	3,566
912,78	2,514
912,95	3,285
913,13	2,783
913,30	2,661
913,47	2,622
913,65	3,026
913,82	3,181
913,99	2,646
914,17	2,968
914,34	2,576
914,51	3,093
914,69	2,065
914,86	3,308
915,03	2,236
915,21	2,484
915,38	2,588
915,56	3,337
915,73	2,102
915,90	2,846
916,08	3,172
916,25	3,077
916,42	2,725
916,60	2,766
916,77	2,101
916,94	2,372
917,12	3,042
917,29	2,211
917,46	2,466
917,64	2,871
917,81	2,660
917,98	2,996
918,16	1,543
918,33	3,048
918,50	2,500
918,67	2,096
918,85	2,405
919,02	2,627
919,19	2,467
919,37	2,189
919,54	2,714
919,71	2,240
919,89	2,292
920,06	3,030
920,23	2,338
920,41	2,995
920,58	1,977
920,75	2,711
920,92	2,224
921,10	2,706
921,27	2,006
921,44	2,431
921,62	2,008
921,79	2,680
921,96	3,193
922,13	2,747
922,31	2,608
922,48	2,497
922,65	2,433
922,82	2,814
923,00	2,375
923,17	2,070
923,34	2,154
923,52	2,479
923,69	2,671
923,86	2,499
924,03	2,438
924,21	2,630
924,38	2,272
924,55	2,444
924,72	2,097
924,90	2,313
925,07	2,052
925,24	2,322
925,41	2,379
925,59	2,023
925,76	2,067
925,93	1,878
926,10	1,461
926,28	2,098
926,45	1,770
926,62	1,319
926,79	1,882
926,96	2,058
927,14	2,549
927,31	2,746
927,48	2,319
927,65	2,719
927,83	2,177
928,00	2,232
928,17	2,307
928,34	2,273
928,51	1,932
928,69	2,132
928,86	1,828
929,03	2,318
929,20	1,909
929,37	2,097
929,55	2,216
929,72	1,925
929,89	1,662
930,06	1,664
930,23	2,109
930,41	1,346
930,58	2,290
930,75	1,521
930,92	2,050
931,09	1,923
931,27	1,992
931,44	1,995
931,61	1,958
931,78	2,045
931,95	1,890
932,12	2,360
932,30	2,314
932,47	2,765
932,64	1,379
932,81	1,744
932,98	2,333
933,16	1,727
933,33	2,429
933,50	1,698
933,67	2,105
933,84	1,460
934,01	1,885
934,18	1,678
934,36	1,669
934,53	2,096
934,70	2,058
934,87	2,287
935,04	2,188
935,21	2,080
935,38	2,146
935,56	1,487
935,73	2,133
935,90	2,295
936,07	2,221
936,24	1,554
936,41	2,473
936,58	1,831
936,76	1,943
936,93	2,195
937,10	2,079
937,27	1,666
937,44	2,070
937,61	2,258
937,78	1,929
937,95	2,133
938,13	1,818
938,30	1,622
938,47	1,462
938,64	2,321
938,81	1,883
938,98	2,246
939,15	1,457
939,32	1,774
939,49	1,908
939,66	1,995
939,84	2,492
940,01	1,982
940,18	1,686
940,35	1,634
940,52	1,877
940,69	2,528
940,86	2,272
941,03	1,926
941,20	1,826
941,37	2,032
941,54	2,173
941,71	1,677
941,89	2,014
942,06	1,607
942,23	1,485
942,40	1,603
942,57	2,721
942,74	2,092
942,91	2,195
943,08	1,743
943,25	1,792
943,42	1,390
943,59	2,322
943,76	2,290
943,93	2,125
944,10	1,932
944,27	1,083
944,44	2,055
944,61	2,365
944,79	1,850
944,96	1,694
945,13	1,706
945,30	1,716
945,47	1,344
945,64	1,938
945,81	1,655
945,98	2,265
946,15	2,113
946,32	1,832
946,49	1,841
946,66	1,000
946,83	1,278
947,00	1,581
947,17	2,347
947,34	1,982
947,51	1,950
947,68	2,004
947,85	2,081
948,02	2,239
948,19	0,837
948,36	2,581
948,53	1,384
948,70	2,043
948,87	1,601
949,04	1,513
949,21	1,723
949,38	2,159
949,55	2,876
949,72	2,075
949,89	2,122
950,06	1,329
950,23	1,527
950,40	2,642
950,57	1,430
950,74	1,688
950,91	1,229
951,08	1,883
951,25	2,612
951,42	2,835
951,59	2,026
951,76	2,027
951,93	1,946
952,10	2,580
952,27	1,878
952,44	2,269
952,61	2,282
952,77	2,349
952,94	2,385
953,11	2,638
953,28	1,952
953,45	1,676
953,62	2,057
953,79	1,845
953,96	2,256
954,13	2,833
954,30	2,308
954,47	1,883
954,64	2,517
954,81	2,967
954,98	2,841
955,15	2,657
955,32	1,807
955,49	2,467
955,65	3,076
955,82	2,914
955,99	2,541
956,16	1,450
956,33	2,647
956,50	1,935
956,67	2,802
956,84	2,156
957,01	1,467
957,18	1,516
957,35	1,676
957,52	2,631
957,68	2,108
957,85	2,205
958,02	1,451
958,19	1,812
958,36	1,673
958,53	3,360
958,70	2,085
958,87	3,107
959,04	3,350
959,21	0,850
959,37	2,972
959,54	2,678
959,71	3,172
959,88	3,477
960,05	2,353
960,22	2,295
960,39	2,731
960,56	2,014
960,72	2,554
960,89	2,886
961,06	3,716
961,23	3,208
961,40	2,796
961,57	2,225
961,74	3,155
961,90	2,922
962,07	3,659
962,24	2,403
962,41	2,392
962,58	3,749
962,75	2,530
962,92	1,417
963,08	3,111
963,25	3,886
963,42	3,763
963,59	1,927
963,76	2,930
963,93	4,010
964,10	3,991
964,26	3,688
964,43	1,956
964,60	1,628
964,77	3,046
964,94	2,834
965,10	1,981
965,27	3,453
965,44	3,253
965,61	4,126
965,78	1,181
965,95	4,129
966,11	2,499
966,28	3,041
966,45	4,135
966,62	2,425
966,79	3,947
966,95	2,486
967,12	5,421
967,29	1,117
967,46	5,863
967,63	4,634
967,79	4,118
967,96	2,525
968,13	2,076
968,30	0,736
968,47	2,853
968,63	3,328
968,80	2,505
968,97	2,556
969,14	1,136
969,31	3,438
969,47	3,829
969,64	3,053
969,81	1,069
969,98	2,512
970,14	3,014
970,31	3,605
970,48	4,519
970,65	2,741
970,81	4,597
970,98	2,704
971,15	3,153
971,32	3,520
971,48	4,381
971,65	4,240
971,82	3,436
971,99	3,366
972,15	2,560
972,32	2,798
972,49	4,706
972,66	3,423
972,82	2,759
972,99	2,702
973,16	2,977
973,33	3,989
973,49	3,279
973,66	2,440
973,83	2,952
974,00	2,899
974,16	5,287
974,33	2,611
974,50	3,107
974,67	3,951
974,83	1,380
975,00	2,650
975,17	2,743
975,33	3,306
975,50	3,676
975,67	3,126
975,84	2,450
976,00	3,973
976,17	1,720
976,34	2,411
976,50	2,983
976,67	4,805
976,84	3,643
977,00	2,553
977,17	4,075
977,34	3,985
977,50	2,895
977,67	4,675
977,84	2,830
978,01	5,551
978,17	2,480
978,34	3,614
978,51	2,127
978,67	3,751
978,84	4,346
979,01	4,430
979,17	2,692
979,34	5,561
979,51	4,371
979,67	3,591
979,84	3,666
980,01	4,130
980,17	1,901
980,34	3,969
980,51	4,416
980,67	5,647
980,84	5,258
981,01	1,749
981,17	2,209
981,34	4,615
981,50	3,702
981,67	3,120
981,84	3,036
982,00	0,247
982,17	2,425
982,34	3,521
982,50	2,783
982,67	3,198
982,84	2,712
983,00	2,188
983,17	3,214
983,33	3,857
983,50	3,802
983,67	4,312
983,83	4,350
984,00	2,695
984,17	4,173
984,33	2,438
984,50	3,585
984,66	4,811
984,83	3,055
985,00	2,761
985,16	6,196
985,33	2,603
985,49	5,807
985,66	3,960
985,83	2,309
985,99	3,790
986,16	2,987
986,32	4,312
986,49	3,596
986,66	4,235
986,82	2,274
986,99	1,403
987,15	4,523
987,32	5,232
987,49	3,394
987,65	3,612
987,82	2,463
987,98	3,156
988,15	2,201
988,31	1,448
988,48	3,435
988,65	3,001
988,81	5,713
988,98	4,959
989,14	4,846
989,31	7,556
989,47	3,549
989,64	5,511
989,80	4,839
989,97	5,669
990,14	2,784
990,30	2,205
990,47	6,295
990,63	3,956
990,80	5,185
990,96	2,984
991,13	3,723
991,29	3,484
991,46	5,179
991,62	3,820
991,79	3,639
991,95	3,991
992,12	3,842
992,29	6,488
992,45	5,632
992,62	0,633
992,78	2,175
992,95	3,252
993,11	3,555
993,28	2,684
993,44	0,651
993,61	4,683
993,77	0,901
993,94	2,688
994,10	4,734
994,27	5,505
994,43	5,156
994,60	3,291
994,76	5,247
994,93	2,920
995,09	3,925
995,26	4,250
995,42	3,540
995,59	5,927
995,75	4,673
995,92	2,028
996,08	7,389
996,25	4,196
996,41	3,866
996,58	4,613
996,74	8,261
996,91	3,779
997,07	1,100
997,23	1,945
997,40	4,509
997,56	2,919
997,73	2,931
997,89	3,032
998,06	3,129
998,22	3,092
998,39	5,832
998,55	4,363
998,72	3,574
998,88	2,770
999,05	4,126
999,21	2,732
999,37	3,231
999,54	6,529
999,70	4,786
999,87	4,826
1000,03	3,537
1000,20	4,722
1000,36	2,632
1000,52	8,495
1000,69	5,529
1000,85	4,375
1001,02	3,584
1001,18	5,222
1001,35	1,835
1001,51	6,951
1001,67	3,855
1001,84	4,793
1002,00	-0,149
1002,17	6,672
1002,33	4,594
1002,50	5,838
1002,66	-1,095
1002,82	0,465
1002,99	4,492
1003,15	5,040
1003,32	2,905
1003,48	3,901
1003,64	5,734
1003,81	5,929
1003,97	7,422
1004,14	3,125
1004,30	1,148
1004,46	5,122
1004,63	5,828
1004,79	5,641
1004,95	3,201
1005,12	7,243
1005,28	5,502
1005,45	7,149
1005,61	1,727
1005,77	2,837
1005,94	3,770
1006,10	8,241
1006,26	3,220
1006,43	6,524
1006,59	-0,516
1006,76	3,662
1006,92	5,088
1007,08	4,409
1007,25	3,466
1007,41	1,684
1007,57	5,947
1007,74	5,841
1007,90	2,383
1008,06	6,099
1008,23	5,846
1008,39	4,749
1008,55	1,390
1008,72	2,965
1008,88	-0,090
1009,04	4,553
1009,21	0,000
1009,37	1,578
1009,53	3,464
1009,70	1,059
1009,86	5,353
1010,02	2,680
1010,19	1,316
1010,35	4,927
1010,51	5,108
1010,68	1,114
1010,84	3,041
1011,00	3,362
1011,17	4,900
1011,33	2,347
1011,49	0,442
1011,66	7,049
1011,82	-1,391
1011,98	-1,982
1012,14	4,962
1012,31	9,261
1012,47	3,473
1012,63	6,033
1012,80	2,166
1012,96	2,713
1013,12	0,978
1013,29	4,039
1013,45	2,835
1013,61	5,429
1013,77	3,516
1013,94	4,728
1014,10	2,761
1014,26	3,871
1014,43	3,980
1014,59	1,031
1014,75	2,483
1014,91	3,196
1015,08	5,639
1015,24	6,606
1015,40	3,151
1015,56	3,212
1015,73	5,960
1015,89	5,920
1016,05	-0,204
1016,21	4,334
1016,38	3,708
1016,54	3,434
1016,70	0,730
1016,86	2,457
1017,03	-0,326
1017,19	5,877
1017,35	4,030
1017,51	3,256
1017,68	1,822
1017,84	-2,784
1018,00	3,630
1018,16	3,175
1018,33	7,759
1018,49	3,632
1018,65	1,969
1018,81	7,651
1018,97	0,455
1019,14	4,821
1019,30	4,994
1019,46	7,745
1019,62	-0,644
1019,79	0,231
1019,95	3,498
1020,11	3,910
1020,27	0,364
1020,43	3,424
1020,60	8,102
1020,76	5,584
1020,92	4,910
1021,08	3,663
1021,24	3,045
1021,41	3,661
1021,57	4,216
1021,73	-1,158
1021,89	2,008
1022,05	7,470
1022,21	6,810
1022,38	7,394
1022,54	2,222
1022,70	1,587
1022,86	1,001
1023,02	5,821
1023,19	3,581
1023,35	-3,270
1023,51	6,373
1023,67	6,168
1023,83	8,264
1023,99	9,126
1024,16	6,416
1024,32	-2,168
1024,48	1,845
1024,64	-4,403
1024,80	0,828
1024,96	-0,527
1025,12	6,076
1025,29	6,223
1025,45	7,682
1025,61	6,358
1025,77	-2,754
1025,93	7,392
1026,09	3,967
1026,26	-3,070
1026,42	4,024
1026,58	-4,274
1026,74	4,802
1026,90	0,000
1027,06	5,685
1027,22	4,137
1027,38	4,274
1027,55	7,497
1027,71	6,600
1027,87	6,276
1028,03	5,187
1028,19	-0,587
1028,35	3,750
1028,51	5,539
1028,67	0,000
1028,83	1,840
1029,00	2,553
1029,16	3,483
1029,32	1,642
1029,48	3,550
1029,64	4,204
1029,80	11,279
1029,96	-0,162
1030,12	2,665
1030,28	-0,168
1030,44	5,136
1030,61	6,171
1030,77	4,870
1030,93	2,564
1031,09	3,731
1031,25	-0,504
1031,41	7,321
1031,57	2,423
1031,73	0,976
1031,89	2,318
1032,05	0,957
1032,21	-2,000
1032,37	4,596
1032,53	2,875
1032,69	4,124
1032,86	-3,466
1033,02	2,530
1033,18	0,342
1033,34	4,904
1033,50	14,691
1033,66	-1,812
1033,82	7,863
1033,98	-0,360
1034,14	-1,401
1034,30	-0,967
1034,46	1,431
1034,62	6,857
1034,78	1,890
1034,94	8,333
1035,10	2,030
1035,26	9,123
1035,42	-1,215
1035,58	2,068
1035,74	-5,400
1035,90	1,553
1036,06	4,948
1036,22	10,357
1036,38	6,936
1036,54	-0,795
1036,70	1,002
1036,86	9,770
1037,02	-0,762
1037,18	5,660
1037,34	3,486
1037,50	0,413
1037,66	4,536
1037,82	7,643
1037,98	-1,708
1038,14	5,330
1038,30	2,161
1038,46	7,839
1038,62	-7,353
1038,78	-0,612
1038,94	2,537
1039,10	0,389
1039,26	7,193
1039,42	22,445
1039,58	1,109
1039,74	0,691
1039,90	4,637
1040,06	-4,255
>>>>>End Processed Spectral Data<<<<<
