SpectraSuite Data File
++++++++++++++++++++++++++++++++++++
Date: Thu Feb 02 17:58:35 EET 2017
User: optolab
Dark Spectrum Present: Yes
Reference Spectrum Present: Yes
Number of Sampled Component Spectra: 1
Spectrometers: USB4C02475
Integration Time (usec): 100000 (USB4C02475)
Spectra Averaged: 1 (USB4C02475)
Boxcar Smoothing: 0 (USB4C02475)
Correct for Electrical Dark: No (USB4C02475)
Strobe/Lamp Enabled: No (USB4C02475)
Correct for Detector Non-linearity: No (USB4C02475)
Correct for Stray Light: No (USB4C02475)
Number of Pixels in Processed Spectrum: 3648
>>>>>Begin Processed Spectral Data<<<<<
344,91	-1800,000
345,13	-1800,000
345,35	-1800,000
345,57	-158,824
345,79	-47,826
346,00	-85,294
346,22	-1800,000
346,44	-224,242
346,66	272,340
346,87	395,652
347,09	461,538
347,31	6100,000
347,53	-1450,000
347,74	-151,163
347,96	-957,143
348,18	329,412
348,40	400,000
348,61	-202,564
348,83	7900,000
349,05	264,103
349,27	464,706
349,48	-5700,000
349,70	621,429
349,92	261,905
350,14	178,378
350,35	-384,615
350,57	-605,556
350,79	-0,000
351,01	-640,000
351,22	820,000
351,44	708,333
351,66	588,889
351,87	1400,000
352,09	155,263
352,31	223,214
352,53	245,714
352,74	-1028,571
352,96	231,579
353,18	262,500
353,40	-900,000
353,61	573,333
353,83	160,417
354,05	346,875
354,26	292,857
354,48	-2000,000
354,70	376,190
354,92	288,889
355,13	-83,721
355,35	209,259
355,57	189,062
355,78	185,714
356,00	197,872
356,22	186,364
356,44	197,674
356,65	607,143
356,87	291,667
357,09	280,000
357,30	145,455
357,52	-1616,667
357,74	403,226
357,95	257,143
358,17	86,957
358,39	140,000
358,60	222,222
358,82	450,000
359,04	225,641
359,26	184,091
359,47	-538,462
359,69	307,143
359,91	388,000
360,12	325,000
360,34	102,778
360,56	-500,000
360,77	1411,111
360,99	429,167
361,21	239,130
361,42	-1400,000
361,64	-229,630
361,86	149,254
362,07	940,000
362,29	237,500
362,51	267,568
362,72	-1660,000
362,94	307,407
363,16	120,000
363,37	1218,182
363,59	-8500,000
363,81	1012,500
364,02	113,333
364,24	268,182
364,46	404,762
364,67	123,810
364,89	505,882
365,11	267,568
365,32	411,111
365,54	356,250
365,76	215,909
365,97	221,951
366,19	133,333
366,41	960,000
366,62	156,000
366,84	325,000
367,05	107,843
367,27	1540,000
367,49	276,923
367,70	466,667
367,92	233,333
368,14	-246,154
368,35	166,176
368,57	300,000
368,79	376,923
369,00	102,564
369,22	355,556
369,43	363,158
369,65	-265,517
369,87	-341,176
370,08	385,000
370,30	471,429
370,51	645,455
370,73	230,556
370,95	405,000
371,16	96,491
371,38	233,962
371,60	310,000
371,81	142,391
372,03	-2150,000
372,24	-256,250
372,46	2333,333
372,68	152,941
372,89	100,917
373,11	155,814
373,32	115,126
373,54	645,455
373,76	544,444
373,97	193,939
374,19	-142,105
374,40	121,429
374,62	605,882
374,84	258,333
375,05	192,308
375,27	235,135
375,48	119,753
375,70	523,529
375,92	291,071
376,13	515,789
376,35	391,667
376,56	470,000
376,78	183,673
376,99	293,939
377,21	256,250
377,43	184,848
377,64	150,000
377,86	287,500
378,07	143,182
378,29	111,111
378,51	109,524
378,72	-300,000
378,94	80,435
379,15	104,545
379,37	431,250
379,58	183,333
379,80	86,364
380,01	158,000
380,23	413,043
380,45	287,500
380,66	159,722
380,88	224,324
381,09	313,043
381,31	294,872
381,52	304,348
381,74	157,143
381,95	328,571
382,17	356,000
382,39	103,226
382,60	376,471
382,82	362,069
383,03	1633,333
383,25	79,012
383,46	766,667
383,68	200,000
383,89	554,545
384,11	173,973
384,32	171,053
384,54	-1642,857
384,76	170,588
384,97	200,000
385,19	157,895
385,40	337,500
385,62	254,839
385,83	225,532
386,05	1328,571
386,26	280,769
386,48	438,462
386,69	225,000
386,91	460,000
387,12	92,308
387,34	98,305
387,55	237,143
387,77	288,000
387,98	191,837
388,20	139,437
388,41	85,714
388,63	245,714
388,84	312,500
389,06	132,558
389,27	237,500
389,49	74,699
389,70	210,169
389,92	154,545
390,13	210,256
390,35	75,000
390,56	140,625
390,78	231,818
390,99	168,889
391,21	138,636
391,42	50,000
391,64	-360,000
391,85	112,069
392,07	-185,714
392,28	365,385
392,50	1860,000
392,71	6200,000
392,93	138,710
393,14	267,391
393,36	132,051
393,57	416,667
393,79	182,540
394,00	116,438
394,22	138,000
394,43	285,714
394,65	189,286
394,86	334,375
395,08	-875,000
395,29	93,617
395,50	-2200,000
395,72	928,571
395,93	320,000
396,15	-392,857
396,36	263,333
396,58	-314,286
396,79	169,767
397,01	352,381
397,22	102,899
397,44	189,362
397,65	136,486
397,87	142,857
398,08	142,308
398,29	408,333
398,51	273,171
398,72	123,913
398,94	200,000
399,15	95,000
399,37	167,391
399,58	198,413
399,80	126,667
400,01	232,353
400,22	514,286
400,44	490,476
400,65	178,082
400,87	3500,000
401,08	64,045
401,30	117,333
401,51	154,545
401,72	112,903
401,94	204,878
402,15	65,306
402,37	227,273
402,58	137,209
402,80	768,750
403,01	119,444
403,22	148,193
403,44	172,222
403,65	153,061
403,87	136,000
404,08	180,769
404,30	296,875
404,51	92,857
404,72	781,818
404,94	103,614
405,15	211,940
405,37	128,571
405,58	219,355
405,79	900,000
406,01	114,815
406,22	114,286
406,44	212,281
406,65	172,619
406,86	146,000
407,08	76,543
407,29	166,667
407,51	76,923
407,72	91,089
407,93	120,253
408,15	160,227
408,36	385,714
408,58	138,333
408,79	106,977
409,00	92,199
409,22	106,863
409,43	109,009
409,64	78,846
409,86	110,227
410,07	58,261
410,29	54,667
410,50	82,540
410,71	70,161
410,93	43,564
411,14	33,645
411,35	70,833
411,57	52,083
411,78	55,147
412,00	48,000
412,21	48,673
412,42	28,780
412,64	51,111
412,85	19,171
413,06	29,464
413,28	45,490
413,49	43,721
413,70	37,339
413,92	34,286
414,13	20,158
414,34	17,472
414,56	20,426
414,77	25,461
414,98	31,802
415,20	16,487
415,41	34,091
415,63	26,781
415,84	27,978
416,05	14,458
416,27	25,627
416,48	24,882
416,69	14,826
416,91	15,733
417,12	11,991
417,33	13,544
417,55	21,800
417,76	18,816
417,97	15,169
418,19	10,460
418,40	-2,772
418,61	8,576
418,83	15,493
419,04	5,271
419,25	13,397
419,46	10,433
419,68	8,850
419,89	10,672
420,10	11,694
420,32	10,199
420,53	9,547
420,74	5,735
420,96	10,664
421,17	11,060
421,38	7,325
421,60	9,003
421,81	6,006
422,02	4,907
422,23	7,897
422,45	6,986
422,66	7,692
422,87	5,937
423,09	6,524
423,30	6,205
423,51	2,974
423,73	7,739
423,94	8,303
424,15	4,545
424,36	5,914
424,58	4,711
424,79	4,554
425,00	5,459
425,22	3,412
425,43	5,985
425,64	4,053
425,85	3,890
426,07	3,945
426,28	2,883
426,49	2,950
426,71	3,015
426,92	3,982
427,13	3,922
427,34	2,603
427,56	6,012
427,77	1,573
427,98	3,372
428,19	0,853
428,41	2,670
428,62	2,371
428,83	1,472
429,04	2,911
429,26	2,356
429,47	4,426
429,68	1,026
429,89	2,476
430,11	2,807
430,32	2,893
430,53	0,722
430,74	2,907
430,96	2,567
431,17	2,354
431,38	1,698
431,59	2,415
431,81	1,842
432,02	2,233
432,23	2,213
432,44	1,853
432,66	1,349
432,87	0,761
433,08	2,419
433,29	1,558
433,51	1,334
433,72	1,317
433,93	1,502
434,14	1,406
434,35	1,276
434,57	1,788
434,78	1,893
434,99	1,591
435,20	1,519
435,42	1,313
435,63	1,162
435,84	1,337
436,05	0,946
436,26	0,637
436,48	0,795
436,69	1,310
436,90	0,482
437,11	1,284
437,32	1,237
437,54	1,271
437,75	1,033
437,96	1,662
438,17	0,902
438,38	1,398
438,60	1,074
438,81	0,860
439,02	1,361
439,23	1,109
439,44	0,891
439,66	0,868
439,87	0,556
440,08	0,975
440,29	0,793
440,50	1,076
440,72	0,521
440,93	1,048
441,14	0,943
441,35	0,449
441,56	1,021
441,77	0,423
441,99	0,514
442,20	0,967
442,41	0,637
442,62	0,607
442,83	0,648
443,04	0,735
443,26	0,666
443,47	0,473
443,68	0,497
443,89	0,784
444,10	0,600
444,31	1,132
444,53	0,687
444,74	0,514
444,95	0,294
445,16	0,489
445,37	0,540
445,58	0,601
445,80	0,694
446,01	0,710
446,22	0,991
446,43	0,364
446,64	0,562
446,85	0,576
447,06	0,601
447,28	0,582
447,49	0,481
447,70	0,813
447,91	0,534
448,12	0,536
448,33	0,773
448,54	0,628
448,76	0,535
448,97	0,479
449,18	0,539
449,39	0,727
449,60	0,492
449,81	0,709
450,02	0,862
450,23	1,026
450,45	0,777
450,66	0,456
450,87	0,640
451,08	0,722
451,29	0,984
451,50	0,517
451,71	0,691
451,92	0,384
452,13	0,635
452,35	0,583
452,56	0,606
452,77	0,926
452,98	0,896
453,19	0,528
453,40	0,542
453,61	0,748
453,82	0,796
454,03	0,746
454,25	0,705
454,46	0,533
454,67	0,885
454,88	0,760
455,09	0,953
455,30	0,993
455,51	0,732
455,72	1,004
455,93	0,568
456,14	0,942
456,35	0,589
456,56	0,551
456,78	0,831
456,99	0,931
457,20	0,672
457,41	0,668
457,62	0,723
457,83	0,813
458,04	1,014
458,25	0,613
458,46	0,824
458,67	0,826
458,88	0,677
459,09	0,854
459,30	0,686
459,51	0,608
459,73	0,486
459,94	0,982
460,15	0,459
460,36	0,581
460,57	0,707
460,78	0,586
460,99	0,803
461,20	0,778
461,41	0,795
461,62	0,580
461,83	0,701
462,04	0,751
462,25	0,967
462,46	0,767
462,67	0,501
462,88	0,715
463,09	0,687
463,30	0,996
463,51	0,810
463,72	1,087
463,93	1,157
464,15	1,004
464,36	0,969
464,57	0,993
464,78	0,980
464,99	1,100
465,20	0,861
465,41	1,174
465,62	1,062
465,83	1,138
466,04	1,174
466,25	1,168
466,46	1,452
466,67	1,441
466,88	2,282
467,09	3,359
467,30	5,471
467,51	8,503
467,72	13,430
467,93	20,480
468,14	28,485
468,35	39,612
468,56	51,092
468,77	64,802
468,98	76,082
469,19	86,518
469,40	91,390
469,61	95,082
469,82	98,996
470,03	99,767
470,24	100,041
470,45	100,470
470,66	100,380
470,87	101,251
471,08	102,028
471,29	103,265
471,50	102,843
471,71	102,935
471,92	102,782
472,13	102,702
472,34	104,915
472,55	103,818
472,76	104,004
472,97	103,957
473,18	103,996
473,39	103,626
473,60	102,710
473,81	102,952
474,01	102,842
474,22	103,609
474,43	103,438
474,64	102,413
474,85	102,999
475,06	102,978
475,27	102,766
475,48	102,979
475,69	103,617
475,90	103,311
476,11	103,257
476,32	103,892
476,53	102,970
476,74	104,617
476,95	102,483
477,16	103,275
477,37	102,043
477,58	101,136
477,79	102,635
478,00	102,076
478,21	101,711
478,41	102,418
478,62	103,194
478,83	102,725
479,04	101,024
479,25	101,353
479,46	103,327
479,67	103,694
479,88	104,115
480,09	104,195
480,30	104,319
480,51	103,425
480,72	103,510
480,93	104,184
481,14	102,521
481,34	103,089
481,55	103,290
481,76	101,641
481,97	101,581
482,18	100,868
482,39	101,455
482,60	100,479
482,81	101,792
483,02	100,637
483,23	100,628
483,44	101,010
483,65	101,612
483,85	101,875
484,06	101,522
484,27	100,991
484,48	100,954
484,69	100,638
484,90	102,067
485,11	100,457
485,32	100,763
485,53	100,323
485,73	101,052
485,94	100,114
486,15	100,031
486,36	100,795
486,57	100,349
486,78	99,210
486,99	101,153
487,20	100,965
487,41	100,581
487,61	100,322
487,82	100,848
488,03	98,929
488,24	99,123
488,45	98,366
488,66	97,731
488,87	97,054
489,08	95,899
489,28	93,496
489,49	89,978
489,70	86,359
489,91	82,447
490,12	74,574
490,33	67,589
490,54	59,417
490,74	49,599
490,95	40,152
491,16	30,514
491,37	22,337
491,58	15,015
491,79	9,962
492,00	6,075
492,20	3,938
492,41	2,516
492,62	1,752
492,83	1,322
493,04	1,050
493,25	0,833
493,45	0,692
493,66	0,780
493,87	0,503
494,08	0,503
494,29	0,605
494,50	0,646
494,70	0,556
494,91	0,656
495,12	0,619
495,33	0,793
495,54	0,602
495,75	0,618
495,95	0,444
496,16	0,548
496,37	0,525
496,58	0,370
496,79	0,543
496,99	0,479
497,20	0,518
497,41	0,638
497,62	0,418
497,83	0,576
498,04	0,485
498,24	0,438
498,45	0,468
498,66	0,482
498,87	0,419
499,08	0,542
499,28	0,459
499,49	0,487
499,70	0,453
499,91	0,301
500,12	0,519
500,32	0,519
500,53	0,591
500,74	0,572
500,95	0,340
501,15	0,769
501,36	0,462
501,57	0,440
501,78	0,390
501,99	0,555
502,19	0,286
502,40	0,359
502,61	0,372
502,82	0,311
503,02	0,361
503,23	0,488
503,44	0,474
503,65	0,463
503,86	0,398
504,06	0,469
504,27	0,603
504,48	0,444
504,69	0,480
504,89	0,334
505,10	0,344
505,31	0,582
505,52	0,260
505,72	0,502
505,93	0,310
506,14	0,501
506,35	0,303
506,55	0,254
506,76	0,381
506,97	0,431
507,18	0,274
507,38	0,474
507,59	0,381
507,80	0,403
508,01	0,293
508,21	0,415
508,42	0,270
508,63	0,430
508,84	0,509
509,04	0,315
509,25	0,460
509,46	0,368
509,67	0,489
509,87	0,425
510,08	0,470
510,29	0,318
510,49	0,470
510,70	0,361
510,91	0,440
511,12	0,453
511,32	0,569
511,53	0,374
511,74	0,432
511,94	0,297
512,15	0,373
512,36	0,374
512,57	0,619
512,77	0,413
512,98	0,519
513,19	0,552
513,39	0,376
513,60	0,450
513,81	0,604
514,01	0,549
514,22	0,548
514,43	0,327
514,64	0,391
514,84	0,641
515,05	0,447
515,26	0,479
515,46	0,288
515,67	0,244
515,88	0,432
516,08	0,502
516,29	0,346
516,50	0,525
516,70	0,522
516,91	0,576
517,12	0,524
517,32	0,279
517,53	0,366
517,74	0,439
517,95	0,496
518,15	0,457
518,36	0,592
518,57	0,373
518,77	0,468
518,98	0,524
519,19	0,396
519,39	0,503
519,60	0,269
519,80	0,449
520,01	0,315
520,22	0,565
520,42	0,340
520,63	0,220
520,84	0,335
521,04	0,370
521,25	0,400
521,46	0,219
521,66	0,356
521,87	0,370
522,08	0,376
522,28	0,504
522,49	0,487
522,70	0,368
522,90	0,388
523,11	0,318
523,31	0,336
523,52	0,458
523,73	0,264
523,93	0,486
524,14	0,287
524,35	0,527
524,55	0,477
524,76	0,325
524,97	0,346
525,17	0,428
525,38	0,382
525,58	0,320
525,79	0,290
526,00	0,341
526,20	0,484
526,41	0,489
526,61	0,486
526,82	0,445
527,03	0,450
527,23	0,447
527,44	0,462
527,64	0,430
527,85	0,251
528,06	0,515
528,26	0,250
528,47	0,647
528,68	0,654
528,88	0,297
529,09	0,359
529,29	0,535
529,50	0,420
529,70	0,505
529,91	0,450
530,12	0,468
530,32	0,254
530,53	0,584
530,73	0,467
530,94	0,454
531,15	0,516
531,35	0,488
531,56	0,590
531,76	0,471
531,97	0,431
532,17	0,471
532,38	0,530
532,59	0,407
532,79	0,579
533,00	0,178
533,20	0,383
533,41	0,394
533,61	0,338
533,82	0,262
534,03	0,487
534,23	0,468
534,44	0,573
534,64	0,584
534,85	0,553
535,05	0,243
535,26	0,320
535,46	0,521
535,67	0,268
535,88	0,467
536,08	0,498
536,29	0,618
536,49	0,487
536,70	0,533
536,90	0,622
537,11	0,484
537,31	0,367
537,52	0,514
537,72	0,577
537,93	0,307
538,13	0,382
538,34	0,318
538,55	0,509
538,75	0,352
538,96	0,410
539,16	0,371
539,37	0,471
539,57	0,597
539,78	0,500
539,98	0,534
540,19	0,699
540,39	0,454
540,60	0,497
540,80	0,435
541,01	0,652
541,21	0,549
541,42	0,538
541,62	0,617
541,83	0,347
542,03	0,523
542,24	0,652
542,44	0,371
542,65	0,364
542,85	0,564
543,06	0,659
543,26	0,461
543,47	0,568
543,67	0,388
543,88	0,448
544,08	0,404
544,29	0,600
544,49	0,505
544,70	0,286
544,90	0,585
545,11	0,449
545,31	0,582
545,52	0,509
545,72	0,604
545,93	0,550
546,13	0,563
546,34	0,629
546,54	0,607
546,75	0,702
546,95	0,551
547,15	0,557
547,36	0,598
547,56	0,498
547,77	0,483
547,97	0,372
548,18	0,589
548,38	0,579
548,59	0,631
548,79	0,790
549,00	0,730
549,20	0,638
549,41	0,822
549,61	0,736
549,81	0,795
550,02	0,857
550,22	0,846
550,43	0,999
550,63	0,966
550,84	1,375
551,04	1,580
551,25	2,200
551,45	3,378
551,65	4,019
551,86	5,798
552,06	8,341
552,27	11,820
552,47	15,372
552,68	21,810
552,88	28,088
553,08	35,418
553,29	42,767
553,49	50,614
553,70	59,429
553,90	68,791
554,11	76,347
554,31	83,498
554,51	88,439
554,72	92,039
554,92	94,848
555,13	96,331
555,33	97,588
555,53	98,099
555,74	99,155
555,94	98,591
556,15	99,004
556,35	99,627
556,56	99,327
556,76	99,494
556,96	99,433
557,17	100,297
557,37	100,212
557,58	99,721
557,78	99,632
557,98	100,216
558,19	100,212
558,39	100,540
558,59	100,730
558,80	101,154
559,00	100,092
559,21	100,019
559,41	99,480
559,61	99,659
559,82	100,856
560,02	100,366
560,23	100,376
560,43	100,325
560,63	100,276
560,84	101,151
561,04	100,630
561,24	101,497
561,45	100,038
561,65	100,256
561,85	101,504
562,06	100,868
562,26	101,121
562,47	102,197
562,67	101,248
562,87	100,579
563,08	100,827
563,28	100,233
563,48	100,323
563,69	99,708
563,89	100,580
564,09	100,194
564,30	99,187
564,50	98,391
564,70	98,698
564,91	98,090
565,11	95,627
565,31	94,398
565,52	93,720
565,72	89,800
565,92	86,559
566,13	80,542
566,33	75,051
566,53	68,343
566,74	61,131
566,94	54,574
567,14	46,615
567,35	38,045
567,55	30,612
567,75	23,613
567,96	17,193
568,16	12,634
568,36	8,631
568,57	5,760
568,77	3,748
568,97	3,003
569,18	2,244
569,38	1,245
569,58	1,134
569,79	0,844
569,99	0,959
570,19	0,653
570,39	0,605
570,60	0,530
570,80	0,554
571,00	0,357
571,21	0,574
571,41	0,528
571,61	0,615
571,82	0,535
572,02	0,366
572,22	0,155
572,42	0,466
572,63	0,453
572,83	0,598
573,03	0,321
573,24	0,390
573,44	0,435
573,64	0,579
573,84	0,336
574,05	0,472
574,25	0,389
574,45	0,482
574,66	0,395
574,86	0,374
575,06	0,482
575,26	0,523
575,47	0,551
575,67	0,374
575,87	0,440
576,07	0,335
576,28	0,313
576,48	0,433
576,68	0,499
576,88	0,441
577,09	0,442
577,29	0,500
577,49	0,357
577,69	0,136
577,90	0,314
578,10	0,273
578,30	0,390
578,50	0,175
578,71	0,343
578,91	0,436
579,11	0,386
579,31	0,505
579,52	0,323
579,72	0,442
579,92	0,432
580,12	0,294
580,33	0,333
580,53	0,328
580,73	0,513
580,93	0,406
581,13	0,386
581,34	0,356
581,54	0,340
581,74	0,521
581,94	0,335
582,15	0,569
582,35	0,229
582,55	0,390
582,75	0,358
582,95	0,276
583,16	0,379
583,36	0,340
583,56	0,284
583,76	0,096
583,96	0,404
584,17	0,359
584,37	0,250
584,57	0,372
584,77	0,158
584,97	0,330
585,18	0,321
585,38	0,196
585,58	0,191
585,78	0,314
585,98	0,274
586,19	0,471
586,39	0,371
586,59	0,306
586,79	0,355
586,99	0,256
587,20	0,172
587,40	0,278
587,60	0,191
587,80	0,321
588,00	0,370
588,20	0,412
588,41	0,296
588,61	0,391
588,81	0,248
589,01	0,225
589,21	0,509
589,41	0,265
589,62	0,296
589,82	0,336
590,02	0,237
590,22	0,329
590,42	0,372
590,62	0,359
590,83	0,263
591,03	0,123
591,23	0,320
591,43	0,401
591,63	0,266
591,83	0,438
592,03	0,255
592,24	0,492
592,44	0,284
592,64	0,245
592,84	0,353
593,04	0,274
593,24	0,381
593,44	0,442
593,65	0,220
593,85	0,285
594,05	0,382
594,25	0,262
594,45	0,263
594,65	0,270
594,85	0,148
595,06	0,218
595,26	0,408
595,46	0,247
595,66	0,302
595,86	0,291
596,06	0,436
596,26	0,207
596,46	0,493
596,66	0,305
596,87	0,213
597,07	0,322
597,27	0,323
597,47	0,365
597,67	0,293
597,87	0,206
598,07	0,216
598,27	0,381
598,47	0,463
598,67	0,183
598,88	0,267
599,08	0,380
599,28	0,424
599,48	0,300
599,68	0,403
599,88	0,338
600,08	0,418
600,28	0,461
600,48	0,256
600,68	0,418
600,88	0,422
601,09	0,476
601,29	0,531
601,49	0,230
601,69	0,444
601,89	0,339
602,09	0,415
602,29	0,309
602,49	0,280
602,69	0,422
602,89	0,324
603,09	0,382
603,29	0,562
603,49	0,418
603,69	0,385
603,90	0,184
604,10	0,357
604,30	0,387
604,50	0,304
604,70	0,150
604,90	0,312
605,10	0,297
605,30	0,341
605,50	0,249
605,70	0,483
605,90	0,188
606,10	0,337
606,30	0,440
606,50	0,584
606,70	0,355
606,90	0,248
607,10	0,444
607,30	0,535
607,50	0,213
607,70	0,420
607,90	0,357
608,10	0,484
608,30	0,367
608,50	0,439
608,70	0,557
608,90	0,419
609,11	0,331
609,31	0,412
609,51	0,374
609,71	0,391
609,91	0,234
610,11	0,607
610,31	0,390
610,51	0,548
610,71	0,501
610,91	0,533
611,11	0,403
611,31	0,243
611,51	0,477
611,71	0,400
611,91	0,525
612,11	0,346
612,31	0,482
612,51	0,369
612,71	0,255
612,91	0,293
613,11	0,386
613,31	0,399
613,51	0,295
613,71	0,322
613,91	0,456
614,11	0,359
614,31	0,209
614,50	0,554
614,70	0,378
614,90	0,411
615,10	0,323
615,30	0,286
615,50	0,322
615,70	0,670
615,90	0,448
616,10	0,387
616,30	0,512
616,50	0,345
616,70	0,579
616,90	0,533
617,10	0,430
617,30	0,422
617,50	0,613
617,70	0,299
617,90	0,405
618,10	0,502
618,30	0,329
618,50	0,488
618,70	0,485
618,90	0,366
619,10	0,320
619,30	0,376
619,49	0,498
619,69	0,412
619,89	0,510
620,09	0,433
620,29	0,561
620,49	0,511
620,69	0,379
620,89	0,385
621,09	0,448
621,29	0,587
621,49	0,767
621,69	0,628
621,89	0,890
622,09	0,754
622,29	0,772
622,48	0,857
622,68	0,789
622,88	0,919
623,08	0,945
623,28	0,954
623,48	1,232
623,68	1,275
623,88	1,871
624,08	2,427
624,28	3,502
624,48	5,310
624,67	7,605
624,87	10,950
625,07	15,055
625,27	20,349
625,47	27,062
625,67	35,034
625,87	43,489
626,07	52,455
626,27	60,955
626,47	68,912
626,66	75,401
626,86	80,766
627,06	84,291
627,26	87,804
627,46	89,760
627,66	92,356
627,86	93,688
628,06	94,360
628,25	94,486
628,45	95,467
628,65	97,384
628,85	97,641
629,05	98,420
629,25	98,677
629,45	99,242
629,65	99,699
629,84	100,574
630,04	99,600
630,24	99,831
630,44	100,023
630,64	100,171
630,84	99,931
631,04	98,541
631,23	98,560
631,43	98,631
631,63	98,950
631,83	97,328
632,03	98,696
632,23	98,452
632,42	98,750
632,62	98,752
632,82	99,228
633,02	100,101
633,22	100,825
633,42	101,648
633,62	102,017
633,81	103,230
634,01	103,475
634,21	101,324
634,41	103,482
634,61	102,856
634,80	103,497
635,00	102,714
635,20	103,796
635,40	102,430
635,60	102,842
635,80	102,838
635,99	103,107
636,19	101,980
636,39	102,333
636,59	101,228
636,79	101,612
636,98	101,238
637,18	102,092
637,38	100,924
637,58	101,732
637,78	101,437
637,97	101,883
638,17	101,335
638,37	102,172
638,57	100,819
638,77	101,033
638,96	100,114
639,16	100,450
639,36	99,547
639,56	99,121
639,76	98,940
639,95	99,214
640,15	99,159
640,35	101,578
640,55	99,692
640,75	99,787
640,94	100,339
641,14	99,686
641,34	100,852
641,54	101,292
641,73	100,019
641,93	102,393
642,13	102,277
642,33	100,762
642,53	99,332
642,72	100,123
642,92	98,510
643,12	98,889
643,32	98,067
643,51	97,396
643,71	97,927
643,91	97,068
644,11	96,693
644,30	94,610
644,50	94,176
644,70	90,779
644,90	88,099
645,09	84,134
645,29	77,843
645,49	70,833
645,69	63,634
645,88	56,069
646,08	46,960
646,28	39,705
646,48	31,948
646,67	24,996
646,87	18,615
647,07	14,670
647,26	10,922
647,46	8,088
647,66	6,205
647,86	4,816
648,05	3,421
648,25	3,533
648,45	2,298
648,65	1,742
648,84	1,327
649,04	1,821
649,24	1,349
649,43	1,063
649,63	1,228
649,83	0,916
650,03	1,123
650,22	0,918
650,42	1,135
650,62	1,036
650,81	0,878
651,01	0,687
651,21	0,349
651,40	0,597
651,60	0,535
651,80	1,135
652,00	0,918
652,19	0,738
652,39	0,651
652,59	1,037
652,78	0,616
652,98	0,091
653,18	0,627
653,37	0,577
653,57	0,859
653,77	0,962
653,96	0,644
654,16	1,084
654,36	0,755
654,55	0,556
654,75	0,733
654,95	1,004
655,14	0,457
655,34	1,076
655,54	0,843
655,73	0,400
655,93	0,750
656,13	0,652
656,32	0,379
656,52	1,015
656,72	0,608
656,91	0,838
657,11	0,811
657,31	0,809
657,50	1,018
657,70	1,120
657,90	0,712
658,09	0,937
658,29	0,519
658,49	0,689
658,68	0,721
658,88	0,924
659,07	0,662
659,27	0,698
659,47	0,966
659,66	0,380
659,86	0,751
660,06	0,753
660,25	0,610
660,45	0,668
660,64	0,623
660,84	0,950
661,04	0,621
661,23	0,472
661,43	0,703
661,63	0,602
661,82	0,563
662,02	0,921
662,21	0,950
662,41	0,997
662,61	1,281
662,80	0,536
663,00	0,390
663,19	0,690
663,39	0,440
663,59	0,878
663,78	0,885
663,98	0,658
664,17	1,167
664,37	0,913
664,57	0,934
664,76	0,900
664,96	0,673
665,15	0,519
665,35	0,407
665,55	0,299
665,74	0,776
665,94	0,456
666,13	0,507
666,33	0,684
666,53	0,885
666,72	0,944
666,92	0,717
667,11	0,965
667,31	0,264
667,50	0,613
667,70	0,666
667,90	0,490
668,09	0,271
668,29	0,376
668,48	0,390
668,68	0,431
668,87	0,532
669,07	0,448
669,26	0,609
669,46	0,681
669,66	0,396
669,85	0,671
670,05	0,805
670,24	0,488
670,44	0,386
670,63	0,429
670,83	0,803
671,02	0,571
671,22	0,511
671,42	0,571
671,61	0,401
671,81	0,562
672,00	0,969
672,20	0,555
672,39	0,398
672,59	0,525
672,78	0,717
672,98	0,452
673,17	0,474
673,37	0,262
673,56	0,573
673,76	0,138
673,95	0,423
674,15	0,419
674,34	0,300
674,54	0,421
674,73	0,697
674,93	0,482
675,13	0,558
675,32	0,519
675,52	0,651
675,71	0,583
675,91	0,551
676,10	0,405
676,30	0,487
676,49	0,271
676,69	0,428
676,88	0,323
677,08	0,347
677,27	0,450
677,47	0,683
677,66	0,575
677,86	0,493
678,05	0,351
678,24	0,553
678,44	1,012
678,63	0,504
678,83	0,279
679,02	0,449
679,22	0,512
679,41	0,530
679,61	0,327
679,80	0,320
680,00	0,118
680,19	0,363
680,39	0,453
680,58	0,302
680,78	0,430
680,97	0,376
681,17	0,277
681,36	0,311
681,56	0,298
681,75	0,218
681,94	0,347
682,14	0,580
682,33	0,347
682,53	0,417
682,72	0,344
682,92	0,613
683,11	0,495
683,31	0,372
683,50	0,350
683,69	0,196
683,89	0,334
684,08	0,415
684,28	0,179
684,47	0,366
684,67	0,322
684,86	0,197
685,06	0,271
685,25	0,433
685,44	0,319
685,64	0,488
685,83	0,489
686,03	0,220
686,22	0,172
686,42	0,434
686,61	0,255
686,80	0,141
687,00	0,298
687,19	0,351
687,39	0,262
687,58	0,349
687,77	0,491
687,97	0,309
688,16	0,287
688,36	0,174
688,55	0,212
688,74	0,000
688,94	0,273
689,13	0,134
689,33	0,316
689,52	0,313
689,71	0,298
689,91	0,150
690,10	0,236
690,30	0,040
690,49	0,099
690,68	0,421
690,88	0,158
691,07	0,305
691,27	0,231
691,46	0,308
691,65	0,205
691,85	0,373
692,04	0,332
692,23	0,206
692,43	0,269
692,62	0,343
692,82	0,236
693,01	0,219
693,20	0,238
693,40	0,148
693,59	0,166
693,78	0,308
693,98	0,167
694,17	0,237
694,36	0,320
694,56	0,383
694,75	0,460
694,94	0,367
695,14	0,328
695,33	0,365
695,53	0,438
695,72	0,306
695,91	-0,009
696,11	0,494
696,30	0,308
696,49	0,352
696,69	0,259
696,88	0,157
697,07	0,281
697,27	0,393
697,46	0,583
697,65	0,125
697,85	0,129
698,04	0,449
698,23	0,322
698,43	0,374
698,62	-0,051
698,81	0,624
699,01	0,506
699,20	0,610
699,39	0,598
699,58	0,285
699,78	0,015
699,97	0,495
700,16	0,242
700,36	0,434
700,55	0,371
700,74	0,709
700,94	0,368
701,13	0,161
701,32	0,311
701,52	0,349
701,71	0,655
701,90	0,502
702,09	0,943
702,29	0,728
702,48	0,285
702,67	1,094
702,87	1,268
703,06	0,952
703,25	1,000
703,44	0,497
703,64	0,843
703,83	0,788
704,02	1,110
704,22	0,354
704,41	1,130
704,60	0,966
704,79	1,170
704,99	1,274
705,18	1,440
705,37	0,655
705,56	1,539
705,76	1,770
705,95	1,627
706,14	1,374
706,33	0,966
706,53	0,973
706,72	0,377
706,91	1,766
707,11	1,612
707,30	1,415
707,49	1,414
707,68	2,182
707,88	2,063
708,07	0,609
708,26	1,019
708,45	1,298
708,64	2,545
708,84	0,916
709,03	2,676
709,22	0,362
709,41	2,768
709,61	1,827
709,80	2,195
709,99	1,713
710,18	2,960
710,38	0,126
710,57	1,621
710,76	0,590
710,95	1,995
711,14	2,085
711,34	1,273
711,53	3,010
711,72	3,498
711,91	1,476
712,11	3,755
712,30	2,078
712,49	2,412
712,68	0,475
712,87	3,224
713,07	4,014
713,26	2,207
713,45	0,957
713,64	2,313
713,83	1,671
714,03	1,164
714,22	3,167
714,41	2,142
714,60	3,085
714,79	1,728
714,99	2,179
715,18	4,148
715,37	4,873
715,56	1,248
715,75	4,802
715,94	3,593
716,14	5,255
716,33	3,850
716,52	3,616
716,71	5,260
716,90	3,496
717,10	2,116
717,29	4,952
717,48	3,671
717,67	2,256
717,86	2,884
718,05	4,450
718,24	4,816
718,44	3,427
718,63	2,433
718,82	4,685
719,01	4,981
719,20	1,524
719,39	3,529
719,59	0,781
719,78	3,874
719,97	2,142
720,16	4,099
720,35	1,376
720,54	2,236
720,73	5,734
720,93	5,568
721,12	1,796
721,31	6,122
721,50	4,873
721,69	4,981
721,88	5,376
722,07	2,326
722,27	4,059
722,46	3,898
722,65	3,415
722,84	5,484
723,03	7,402
723,22	2,176
723,41	7,558
723,60	1,390
723,79	7,261
723,99	1,174
724,18	6,509
724,37	4,450
724,56	6,303
724,75	3,130
724,94	9,966
725,13	7,124
725,32	9,001
725,51	4,930
725,71	5,856
725,90	7,750
726,09	4,475
726,28	3,146
726,47	2,564
726,66	6,047
726,85	7,393
727,04	2,752
727,23	6,590
727,42	8,445
727,61	9,362
727,81	2,162
728,00	1,767
728,19	8,126
728,38	2,948
728,57	9,583
728,76	9,871
728,95	9,063
729,14	8,333
729,33	7,527
729,52	5,399
729,71	6,291
729,90	8,132
730,09	5,738
730,28	6,709
730,48	5,869
730,67	6,362
730,86	10,047
731,05	3,617
731,24	2,317
731,43	7,201
731,62	4,467
731,81	5,335
732,00	8,383
732,19	6,851
732,38	8,974
732,57	6,479
732,76	6,430
732,95	7,207
733,14	-1,722
733,33	7,143
733,52	10,815
733,71	7,461
733,90	4,802
734,09	10,270
734,28	8,530
734,47	10,556
734,66	8,690
734,85	11,000
735,04	5,991
735,23	8,403
735,42	12,432
735,61	10,496
735,81	12,574
736,00	3,846
736,19	5,775
736,38	10,928
736,57	10,014
736,76	10,219
736,95	3,822
737,14	9,888
737,33	15,276
737,52	7,538
737,71	8,689
737,90	11,437
738,09	12,024
738,28	14,200
738,47	4,380
738,66	7,372
738,85	8,408
739,04	4,803
739,22	15,385
739,41	6,618
739,60	3,584
739,79	1,439
739,98	3,584
740,17	12,457
740,36	8,861
740,55	9,236
740,74	13,551
740,93	9,560
741,12	11,786
741,31	14,613
741,50	1,890
741,69	13,451
741,88	3,755
742,07	16,304
742,26	14,857
742,45	16,598
742,64	13,163
742,83	10,088
743,02	4,842
743,21	14,801
743,40	7,660
743,59	10,294
743,78	9,002
743,97	13,846
744,16	9,449
744,34	-7,925
744,53	11,546
744,72	6,889
744,91	6,723
745,10	11,530
745,29	17,339
745,48	9,091
745,67	11,162
745,86	14,790
746,05	23,460
746,24	8,660
746,43	12,420
746,62	30,819
746,81	13,933
747,00	16,630
747,18	11,329
747,37	17,053
747,56	12,000
747,75	-1,970
747,94	19,417
748,13	21,029
748,32	1,667
748,51	17,766
748,70	20,044
748,89	12,646
749,08	3,488
749,26	17,181
749,45	16,086
749,64	11,335
749,83	18,202
750,02	15,761
750,21	10,687
750,40	24,899
750,59	10,456
750,78	19,451
750,96	17,403
751,15	17,757
751,34	2,273
751,53	12,568
751,72	18,028
751,91	13,990
752,10	4,974
752,29	14,133
752,47	12,607
752,66	12,698
752,85	22,131
753,04	10,335
753,23	23,220
753,42	23,720
753,61	23,824
753,80	13,402
753,98	17,929
754,17	13,070
754,36	4,194
754,55	8,735
754,74	14,286
754,93	22,314
755,12	8,605
755,30	11,688
755,49	20,930
755,68	15,644
755,87	13,314
756,06	10,764
756,25	15,502
756,43	12,752
756,62	10,248
756,81	20,199
757,00	21,382
757,19	20,833
757,38	7,336
757,56	4,000
757,75	19,113
757,94	10,646
758,13	5,822
758,32	11,276
758,51	19,529
758,69	3,475
758,88	9,091
759,07	30,240
759,26	27,562
759,45	10,877
759,63	26,407
759,82	26,667
760,01	26,740
760,20	36,478
760,39	27,445
760,57	19,861
760,76	22,997
760,95	16,319
761,14	31,752
761,33	29,677
761,51	25,357
761,70	35,688
761,89	21,333
762,08	43,494
762,27	18,412
762,45	11,232
762,64	24,623
762,83	32,669
763,02	23,478
763,21	5,500
763,39	33,916
763,58	17,472
763,77	29,536
763,96	37,052
764,14	10,417
764,33	20,476
764,52	23,661
764,71	25,574
764,89	24,554
765,08	19,212
765,27	36,596
765,46	18,386
765,65	36,863
765,83	41,176
766,02	10,952
766,21	2,732
766,40	26,070
766,58	28,042
766,77	37,615
766,96	35,772
767,15	33,193
767,33	27,536
767,52	36,681
767,71	14,912
767,90	23,116
768,08	47,305
768,27	32,520
768,46	34,211
768,64	37,500
768,83	22,549
769,02	21,182
769,21	26,042
769,39	16,429
769,58	26,407
769,77	34,043
769,96	37,387
770,14	26,230
770,33	27,103
770,52	27,338
770,70	31,892
770,89	49,189
771,08	25,904
771,27	23,684
771,45	8,235
771,64	35,758
771,83	35,784
772,01	37,113
772,20	26,866
772,39	37,342
772,57	28,358
772,76	26,351
772,95	46,552
773,14	53,061
773,32	32,203
773,51	20,833
773,70	46,043
773,88	49,032
774,07	26,396
774,26	13,710
774,44	60,150
774,63	41,317
774,82	38,961
775,00	21,028
775,19	29,167
775,38	41,489
775,56	55,901
775,75	24,176
775,94	31,667
776,12	56,863
776,31	13,534
776,50	28,082
776,68	43,011
776,87	63,158
777,06	47,170
777,24	51,261
777,43	32,086
777,62	47,191
777,80	48,428
777,99	59,167
778,18	59,770
778,36	49,153
778,55	8,475
778,74	63,281
778,92	50,000
779,11	48,182
779,29	7,092
779,48	61,702
779,67	52,252
779,85	15,789
780,04	52,899
780,23	48,810
780,41	61,864
780,60	63,087
780,79	23,387
780,97	26,144
781,16	28,723
781,34	45,946
781,53	54,464
781,72	37,838
781,90	41,317
782,09	51,163
782,28	72,109
782,46	67,857
782,65	68,310
782,83	30,189
783,02	75,439
783,21	42,105
783,39	64,706
783,58	47,826
783,76	51,020
783,95	57,746
784,14	48,684
784,32	2,353
784,51	73,649
784,69	35,938
784,88	61,682
785,06	51,656
785,25	66,667
785,44	22,581
785,62	54,286
785,81	66,667
785,99	69,173
786,18	38,739
786,37	63,736
786,55	41,667
786,74	80,909
786,92	50,350
787,11	23,611
787,29	62,500
787,48	43,011
787,67	64,151
787,85	89,873
788,04	72,072
788,22	52,475
788,41	34,646
788,59	59,868
788,78	79,121
788,96	73,554
789,15	33,333
789,34	37,500
789,52	100,000
789,71	71,942
789,89	23,377
790,08	67,500
790,26	72,611
790,45	50,000
790,63	64,368
790,82	56,923
791,00	78,761
791,19	22,400
791,38	45,714
791,56	52,727
791,75	-5,556
791,93	82,000
792,12	38,261
792,30	69,343
792,49	21,212
792,67	38,235
792,86	53,600
793,04	45,370
793,23	52,632
793,41	61,594
793,60	72,222
793,78	92,381
793,97	61,111
794,15	90,226
794,34	48,000
794,52	1,075
794,71	86,822
794,89	31,061
795,08	64,000
795,26	74,667
795,45	47,222
795,63	66,129
795,82	13,187
796,00	69,000
796,19	56,098
796,37	32,061
796,56	60,194
796,74	35,789
796,93	98,485
797,11	85,542
797,30	62,778
797,48	42,969
797,67	56,098
797,85	51,538
798,04	66,102
798,22	76,923
798,41	19,231
798,59	89,524
798,77	43,373
798,96	65,432
799,14	70,161
799,33	64,220
799,51	79,167
799,70	76,923
799,88	77,064
800,07	49,618
800,25	67,470
800,44	46,296
800,62	81,944
800,80	53,521
800,99	165,753
801,17	86,207
801,36	63,571
801,54	72,000
801,73	62,105
801,91	75,207
802,10	72,941
802,28	45,600
802,46	48,684
802,65	51,079
802,83	109,333
803,02	62,097
803,20	89,157
803,39	59,770
803,57	50,394
803,75	60,976
803,94	68,254
804,12	90,345
804,31	-11,594
804,49	31,200
804,67	44,853
804,86	71,681
805,04	12,048
805,23	87,611
805,41	74,167
805,59	86,301
805,78	75,200
805,96	110,843
806,15	100,000
806,33	105,263
806,51	78,667
806,70	69,173
806,88	111,628
807,07	81,081
807,25	45,055
807,43	57,143
807,62	58,407
807,80	55,238
807,99	28,462
808,17	23,622
808,35	42,000
808,54	76,812
808,72	41,441
808,90	60,274
809,09	39,130
809,27	57,333
809,46	96,703
809,64	84,146
809,82	59,603
810,01	63,281
810,19	56,566
810,37	50,000
810,56	128,889
810,74	61,039
810,92	48,000
811,11	34,211
811,29	79,245
811,48	40,769
811,66	80,899
811,84	18,681
812,03	34,426
812,21	55,263
812,39	50,435
812,58	58,947
812,76	64,748
812,94	45,783
813,13	32,979
813,31	63,000
813,49	82,407
813,68	64,545
813,86	48,315
814,04	61,983
814,23	51,205
814,41	58,427
814,59	52,427
814,78	44,118
814,96	77,987
815,14	75,701
815,33	55,814
815,51	56,693
815,69	49,524
815,87	55,446
816,06	86,957
816,24	54,037
816,42	55,147
816,61	38,365
816,79	55,172
816,97	71,591
817,16	32,544
817,34	97,619
817,52	61,983
817,70	38,614
817,89	62,222
818,07	28,082
818,25	30,612
818,44	46,154
818,62	31,783
818,80	36,842
818,98	59,236
819,17	49,580
819,35	48,936
819,53	87,313
819,72	46,835
819,90	40,310
820,08	46,154
820,26	72,414
820,45	34,228
820,63	96,429
820,81	40,800
820,99	77,305
821,18	35,374
821,36	50,633
821,54	55,172
821,73	36,667
821,91	78,947
822,09	43,548
822,27	61,290
822,46	16,176
822,64	61,600
822,82	48,619
823,00	35,912
823,19	34,066
823,37	44,848
823,55	26,705
823,73	43,448
823,91	42,754
824,10	46,774
824,28	62,814
824,46	57,282
824,64	75,000
824,83	36,025
825,01	51,333
825,19	13,710
825,37	40,000
825,56	58,019
825,74	41,837
825,92	15,924
826,10	54,545
826,28	14,881
826,47	27,368
826,65	73,050
826,83	30,172
827,01	20,231
827,19	51,190
827,38	64,815
827,56	40,909
827,74	25,698
827,92	22,674
828,10	36,538
828,29	47,929
828,47	44,309
828,65	40,769
828,83	17,576
829,01	36,957
829,20	42,857
829,38	56,250
829,56	34,783
829,74	17,610
829,92	44,444
830,10	47,126
830,29	21,106
830,47	51,256
830,65	23,780
830,83	40,625
831,01	38,690
831,20	49,029
831,38	22,488
831,56	41,395
831,74	57,346
831,92	57,895
832,10	41,905
832,29	42,568
832,47	26,404
832,65	41,667
832,83	23,944
833,01	50,000
833,19	36,652
833,37	42,081
833,56	17,722
833,74	29,412
833,92	34,722
834,10	20,747
834,28	37,975
834,46	27,602
834,64	39,352
834,83	33,182
835,01	44,813
835,19	34,800
835,37	42,975
835,55	35,938
835,73	48,276
835,91	39,483
836,09	26,616
836,28	31,365
836,46	16,800
836,64	38,346
836,82	47,059
837,00	32,246
837,18	24,907
837,36	40,637
837,54	24,545
837,72	6,034
837,91	25,373
838,09	23,108
838,27	32,000
838,45	22,340
838,63	16,176
838,81	5,907
838,99	12,500
839,17	28,041
839,35	24,468
839,53	29,474
839,72	27,068
839,90	22,680
840,08	31,692
840,26	36,905
840,44	30,514
840,62	21,034
840,80	39,116
840,98	27,059
841,16	17,871
841,34	16,388
841,52	26,300
841,70	18,462
841,89	20,161
842,07	31,348
842,25	27,586
842,43	30,172
842,61	25,965
842,79	21,751
842,97	24,756
843,15	24,752
843,33	10,726
843,51	8,434
843,69	33,903
843,87	16,418
844,05	17,325
844,23	12,613
844,41	24,138
844,59	26,801
844,77	22,129
844,95	20,809
845,13	29,538
845,31	14,244
845,50	35,864
845,68	20,900
845,86	10,345
846,04	31,285
846,22	14,441
846,40	26,613
846,58	14,530
846,76	26,882
846,94	20,948
847,12	15,026
847,30	13,402
847,48	3,096
847,66	24,877
847,84	22,678
848,02	19,565
848,20	9,819
848,38	17,094
848,56	24,148
848,74	29,594
848,92	15,960
849,10	22,250
849,28	17,004
849,46	15,467
849,64	18,707
849,82	7,407
850,00	33,411
850,18	19,574
850,36	6,623
850,54	12,531
850,72	18,509
850,90	21,304
851,08	17,287
851,26	14,880
851,44	8,628
851,62	14,884
851,80	22,467
851,98	18,901
852,16	19,858
852,34	17,938
852,52	14,063
852,70	3,872
852,87	13,699
853,05	12,476
853,23	15,464
853,41	16,553
853,59	11,618
853,77	14,286
853,95	17,300
854,13	9,292
854,31	11,910
854,49	18,563
854,67	11,015
854,85	14,493
855,03	25,251
855,21	17,895
855,39	10,865
855,57	10,932
855,75	16,058
855,93	13,922
856,11	24,565
856,28	15,129
856,46	22,776
856,64	15,238
856,82	18,385
857,00	7,708
857,18	13,177
857,36	10,287
857,54	19,550
857,72	10,877
857,90	8,672
858,08	7,255
858,26	13,665
858,44	9,162
858,61	8,885
858,79	19,031
858,97	14,336
859,15	17,492
859,33	15,312
859,51	12,730
859,69	2,147
859,87	8,072
860,05	4,796
860,23	8,117
860,40	14,057
860,58	13,115
860,76	5,873
860,94	14,797
861,12	14,308
861,30	8,320
861,48	17,000
861,66	6,825
861,84	8,670
862,01	18,409
862,19	3,898
862,37	4,690
862,55	11,960
862,73	8,978
862,91	4,112
863,09	9,226
863,27	11,063
863,44	7,616
863,62	7,337
863,80	9,845
863,98	10,089
864,16	2,890
864,34	5,658
864,52	11,796
864,69	7,895
864,87	6,078
865,05	6,122
865,23	7,451
865,41	14,247
865,59	7,537
865,76	9,573
865,94	12,532
866,12	9,677
866,30	8,696
866,48	12,852
866,66	8,199
866,83	14,249
867,01	10,870
867,19	5,462
867,37	5,692
867,55	10,036
867,73	3,606
867,90	10,180
868,08	5,562
868,26	7,843
868,44	8,324
868,62	8,600
868,79	6,300
868,97	6,171
869,15	5,916
869,33	7,937
869,51	2,091
869,69	4,512
869,86	6,550
870,04	9,195
870,22	8,641
870,40	6,667
870,57	4,844
870,75	12,486
870,93	7,158
871,11	6,169
871,29	4,110
871,46	4,525
871,64	8,473
871,82	5,705
872,00	12,551
872,18	3,586
872,35	7,492
872,53	5,482
872,71	8,980
872,89	11,359
873,06	8,100
873,24	9,408
873,42	3,770
873,60	2,634
873,77	9,714
873,95	8,170
874,13	3,171
874,31	9,288
874,49	9,197
874,66	3,853
874,84	8,225
875,02	5,591
875,20	8,079
875,37	9,456
875,55	10,305
875,73	3,322
875,91	6,227
876,08	5,484
876,26	2,385
876,44	6,950
876,61	8,944
876,79	9,186
876,97	0,182
877,15	4,581
877,32	4,433
877,50	3,063
877,68	2,314
877,86	1,020
878,03	3,474
878,21	5,463
878,39	6,897
878,56	4,628
878,74	8,486
878,92	4,278
879,10	4,151
879,27	7,325
879,45	6,723
879,63	4,503
879,80	7,560
879,98	2,784
880,16	5,022
880,34	7,811
880,51	2,918
880,69	3,795
880,87	4,533
881,04	4,269
881,22	8,071
881,40	6,928
881,57	5,618
881,75	6,233
881,93	4,240
882,10	5,552
882,28	6,069
882,46	6,644
882,63	4,506
882,81	7,587
882,99	5,085
883,16	4,468
883,34	5,080
883,52	4,225
883,69	4,296
883,87	1,432
884,05	5,603
884,22	2,805
884,40	6,703
884,58	0,645
884,75	3,065
884,93	3,771
885,11	6,367
885,28	2,932
885,46	2,276
885,64	3,082
885,81	4,594
885,99	4,585
886,17	2,270
886,34	3,289
886,52	0,699
886,70	5,343
886,87	3,480
887,05	3,591
887,22	0,830
887,40	4,341
887,58	3,634
887,75	5,275
887,93	4,070
888,11	5,283
888,28	3,450
888,46	4,589
888,63	3,891
888,81	3,335
888,99	5,303
889,16	8,059
889,34	1,839
889,51	2,851
889,69	2,621
889,87	5,417
890,04	3,448
890,22	4,973
890,39	2,184
890,57	3,818
890,75	3,179
890,92	2,961
891,10	2,955
891,27	2,884
891,45	4,200
891,63	4,107
891,80	4,134
891,98	1,839
892,15	3,161
892,33	2,169
892,51	2,865
892,68	3,261
892,86	2,873
893,03	2,883
893,21	3,036
893,38	1,543
893,56	4,369
893,74	3,195
893,91	3,388
894,09	2,940
894,26	3,746
894,44	1,341
894,61	3,615
894,79	2,166
894,96	1,962
895,14	3,771
895,32	3,494
895,49	3,835
895,67	3,294
895,84	2,962
896,02	1,031
896,19	1,816
896,37	4,324
896,54	2,680
896,72	2,760
896,89	3,316
897,07	4,625
897,25	3,260
897,42	3,897
897,60	4,005
897,77	3,701
897,95	4,293
898,12	3,318
898,30	2,800
898,47	2,523
898,65	1,214
898,82	2,059
899,00	2,163
899,17	3,546
899,35	2,049
899,52	4,113
899,70	2,900
899,87	0,649
900,05	1,712
900,22	2,895
900,40	2,648
900,57	2,523
900,75	3,063
900,92	2,076
901,10	2,382
901,27	1,739
901,45	3,963
901,62	2,735
901,80	1,418
901,97	2,230
902,15	3,130
902,32	3,306
902,50	1,866
902,67	3,048
902,85	2,674
903,02	3,911
903,20	3,032
903,37	1,566
903,54	2,802
903,72	3,176
903,89	3,301
904,07	1,996
904,24	2,519
904,42	2,465
904,59	2,321
904,77	2,441
904,94	1,918
905,12	0,850
905,29	1,405
905,47	1,638
905,64	3,627
905,81	1,531
905,99	1,295
906,16	1,214
906,34	2,362
906,51	0,725
906,69	2,864
906,86	2,747
907,03	1,850
907,21	1,361
907,38	2,655
907,56	2,399
907,73	2,608
907,91	2,030
908,08	2,140
908,25	3,196
908,43	2,215
908,60	1,100
908,78	2,164
908,95	1,647
909,13	3,929
909,30	2,594
909,47	0,946
909,65	2,010
909,82	2,317
910,00	1,827
910,17	1,886
910,34	2,926
910,52	1,215
910,69	2,114
910,87	2,506
911,04	1,211
911,21	3,392
911,39	1,733
911,56	2,304
911,73	1,863
911,91	2,112
912,08	2,650
912,26	1,661
912,43	4,114
912,60	2,121
912,78	2,641
912,95	3,059
913,13	2,627
913,30	2,521
913,47	3,475
913,65	2,371
913,82	2,046
913,99	0,553
914,17	2,041
914,34	2,383
914,51	2,572
914,69	3,013
914,86	3,224
915,03	2,391
915,21	1,234
915,38	1,619
915,56	2,667
915,73	1,478
915,90	2,536
916,08	2,065
916,25	1,311
916,42	2,339
916,60	2,307
916,77	1,213
916,94	1,808
917,12	2,365
917,29	2,647
917,46	1,812
917,64	1,725
917,81	1,670
917,98	1,392
918,16	2,114
918,33	2,859
918,50	1,776
918,67	1,538
918,85	1,223
919,02	1,968
919,19	2,684
919,37	1,048
919,54	1,764
919,71	2,982
919,89	1,615
920,06	1,895
920,23	0,998
920,41	1,347
920,58	1,404
920,75	2,980
920,92	0,634
921,10	0,462
921,27	1,950
921,44	2,437
921,62	1,936
921,79	2,333
921,96	1,300
922,13	2,227
922,31	1,191
922,48	1,006
922,65	1,045
922,82	0,888
923,00	2,197
923,17	1,320
923,34	1,451
923,52	1,334
923,69	1,711
923,86	3,054
924,03	2,335
924,21	0,874
924,38	2,680
924,55	2,197
924,72	0,472
924,90	1,444
925,07	2,009
925,24	1,839
925,41	2,094
925,59	0,571
925,76	0,693
925,93	1,681
926,10	1,406
926,28	0,295
926,45	1,203
926,62	0,699
926,79	2,824
926,96	3,180
927,14	2,576
927,31	1,766
927,48	2,101
927,65	2,249
927,83	2,118
928,00	1,034
928,17	2,846
928,34	1,302
928,51	1,140
928,69	1,645
928,86	1,049
929,03	1,669
929,20	1,464
929,37	0,362
929,55	2,084
929,72	1,671
929,89	0,712
930,06	2,024
930,23	1,262
930,41	1,582
930,58	2,041
930,75	1,411
930,92	2,012
931,09	1,577
931,27	1,073
931,44	1,043
931,61	1,997
931,78	1,461
931,95	1,327
932,12	2,044
932,30	1,363
932,47	0,619
932,64	1,177
932,81	0,771
932,98	1,179
933,16	0,504
933,33	1,641
933,50	1,425
933,67	2,202
933,84	2,104
934,01	1,289
934,18	1,647
934,36	1,053
934,53	1,388
934,70	1,448
934,87	0,830
935,04	0,798
935,21	1,302
935,38	0,942
935,56	2,344
935,73	0,279
935,90	1,904
936,07	1,570
936,24	1,313
936,41	0,986
936,58	1,581
936,76	1,611
936,93	1,457
937,10	1,448
937,27	1,777
937,44	1,593
937,61	1,849
937,78	1,351
937,95	1,406
938,13	0,699
938,30	1,089
938,47	1,785
938,64	0,920
938,81	0,716
938,98	1,276
939,15	1,508
939,32	1,162
939,49	0,657
939,66	0,954
939,84	0,747
940,01	1,540
940,18	1,154
940,35	0,760
940,52	0,205
940,69	-0,101
940,86	2,213
941,03	0,845
941,20	0,709
941,37	0,126
941,54	2,323
941,71	2,510
941,89	1,465
942,06	1,237
942,23	1,742
942,40	0,674
942,57	1,325
942,74	1,616
942,91	2,403
943,08	2,200
943,25	1,864
943,42	0,178
943,59	1,517
943,76	1,598
943,93	1,390
944,10	0,518
944,27	0,321
944,44	0,876
944,61	0,874
944,79	2,480
944,96	0,991
945,13	0,984
945,30	1,614
945,47	1,737
945,64	1,796
945,81	2,291
945,98	2,457
946,15	1,196
946,32	2,273
946,49	1,972
946,66	1,886
946,83	0,936
947,00	2,346
947,17	1,250
947,34	2,080
947,51	2,214
947,68	3,402
947,85	1,819
948,02	3,069
948,19	2,058
948,36	2,650
948,53	0,408
948,70	1,479
948,87	2,254
949,04	2,947
949,21	1,618
949,38	3,054
949,55	4,087
949,72	1,725
949,89	2,816
950,06	2,160
950,23	0,942
950,40	1,899
950,57	2,010
950,74	2,137
950,91	1,211
951,08	1,730
951,25	1,825
951,42	2,223
951,59	0,532
951,76	1,990
951,93	1,954
952,10	3,708
952,27	1,098
952,44	2,305
952,61	1,229
952,77	2,837
952,94	2,484
953,11	3,125
953,28	4,328
953,45	4,334
953,62	3,277
953,79	3,457
953,96	4,721
954,13	3,976
954,30	4,036
954,47	2,902
954,64	2,573
954,81	8,063
954,98	5,000
955,15	3,265
955,32	4,411
955,49	3,209
955,65	4,409
955,82	3,155
955,99	7,138
956,16	8,238
956,33	1,040
956,50	2,581
956,67	1,816
956,84	6,219
957,01	2,090
957,18	6,920
957,35	5,446
957,52	5,141
957,68	6,931
957,85	5,963
958,02	4,039
958,19	5,342
958,36	8,839
958,53	5,288
958,70	6,884
958,87	4,890
959,04	6,442
959,21	12,887
959,37	9,156
959,54	6,178
959,71	7,119
959,88	3,605
960,05	7,218
960,22	10,943
960,39	6,910
960,56	4,348
960,72	8,172
960,89	6,577
961,06	2,632
961,23	7,034
961,40	7,930
961,57	11,022
961,74	10,138
961,90	8,273
962,07	12,407
962,24	13,965
962,41	14,483
962,58	7,692
962,75	11,624
962,92	10,175
963,08	11,667
963,25	6,574
963,42	18,675
963,59	5,749
963,76	15,905
963,93	20,163
964,10	16,063
964,26	10,476
964,43	15,349
964,60	17,865
964,77	19,016
964,94	13,827
965,10	13,370
965,27	7,542
965,44	24,444
965,61	16,781
965,78	17,702
965,95	15,423
966,11	11,515
966,28	21,508
966,45	16,667
966,62	18,118
966,79	13,993
966,95	19,217
967,12	20,000
967,29	42,284
967,46	28,114
967,63	31,373
967,79	34,564
967,96	35,780
968,13	54,286
968,30	32,099
968,47	28,077
968,63	35,784
968,80	27,203
968,97	28,324
969,14	51,977
969,31	46,429
969,47	48,913
969,64	24,725
969,81	30,968
969,98	40,526
970,14	22,581
970,31	38,994
970,48	28,188
970,65	36,364
970,81	16,783
970,98	36,979
971,15	59,394
971,32	42,424
971,48	60,119
971,65	47,682
971,82	58,182
971,99	62,025
972,15	36,047
972,32	40,278
972,49	51,639
972,66	44,628
972,82	44,521
972,99	57,500
973,16	86,755
973,33	47,407
973,49	63,415
973,66	74,286
973,83	65,432
974,00	60,759
974,16	83,636
974,33	96,000
974,50	92,929
974,67	67,857
974,83	77,551
975,00	129,091
975,17	83,871
975,33	67,816
975,50	104,918
975,67	96,154
975,84	82,927
976,00	81,579
976,17	63,043
976,34	107,059
976,50	119,780
976,67	114,286
976,84	210,417
977,00	92,308
977,17	77,778
977,34	161,538
977,50	94,048
977,67	98,824
977,84	88,136
978,01	87,838
978,17	79,310
978,34	203,704
978,51	364,000
978,67	153,061
978,84	60,000
979,01	200,000
979,17	58,571
979,34	213,043
979,51	150,000
979,67	379,167
979,84	194,915
980,01	128,846
980,17	126,471
980,34	97,260
980,51	633,333
980,67	73,333
980,84	88,571
981,01	255,882
981,17	114,706
981,34	135,714
981,50	87,368
981,67	207,143
981,84	100,000
982,00	7200,000
982,17	156,250
982,34	200,000
982,50	0,000
982,67	-528,571
982,84	430,000
983,00	157,407
983,17	-485,714
983,33	922,222
983,50	175,610
983,67	110,145
983,83	390,476
984,00	173,913
984,17	822,222
984,33	-357,143
984,50	224,324
984,66	268,750
984,83	675,000
985,00	353,846
985,16	309,677
985,33	4200,000
985,49	103,488
985,66	115,000
985,83	-2333,333
985,99	544,444
986,16	510,526
986,32	84,932
986,49	-1080,000
986,66	1180,000
986,82	248,485
986,99	-960,000
987,15	300,000
987,32	458,824
987,49	232,143
987,65	-243,478
987,82	-195,000
987,98	172,727
988,15	142,857
988,31	280,000
988,48	229,412
988,65	510,000
988,81	205,455
988,98	294,595
989,14	410,000
989,31	128,814
989,47	-167,857
989,64	272,222
989,80	109,574
989,97	176,364
990,14	350,000
990,30	-937,500
990,47	-95,833
990,63	194,737
990,80	1833,333
990,96	683,333
991,13	236,667
991,29	113,725
991,46	162,500
991,62	0,000
991,79	-500,000
991,95	282,353
992,12	1283,333
992,29	-204,762
992,45	285,714
992,62	-235,714
992,78	-966,667
992,95	309,677
993,11	962,500
993,28	-4500,000
993,44	-268,966
993,61	98,246
993,77	0,000
993,94	238,462
994,10	771,429
994,27	-81,579
994,43	237,500
994,60	978,571
994,76	266,667
994,93	-640,000
995,09	-475,000
995,26	341,667
995,42	450,000
995,59	260,000
995,75	-616,667
995,92	-1142,857
996,08	-1320,000
996,25	239,394
996,41	2040,000
996,58	300,000
996,74	-720,000
996,91	154,839
997,07	276,000
997,23	72,549
997,40	1416,667
997,56	-1933,333
997,73	400,000
997,89	2060,000
998,06	247,368
998,22	206,383
998,39	187,755
998,55	336,842
998,72	-10900,000
998,88	162,000
999,05	640,000
999,21	529,412
999,37	269,767
999,54	251,613
999,70	257,143
999,87	1450,000
1000,03	333,333
1000,20	521,429
1000,36	-750,000
1000,52	3850,000
1000,69	432,000
1000,85	-558,333
1001,02	233,333
1001,18	1120,000
1001,35	0,000
1001,51	421,429
1001,67	95,000
1001,84	265,854
1002,00	-490,909
1002,17	1000,000
1002,33	-937,500
1002,50	450,000
1002,66	887,500
1002,82	187,805
1002,99	-181,818
1003,15	-4600,000
1003,32	-207,143
1003,48	-2833,333
1003,64	286,957
1003,81	-226,316
1003,97	189,855
1004,14	-116,364
1004,30	536,364
1004,46	-6800,000
1004,63	-515,385
1004,79	332,432
1004,95	-1100,000
1005,12	-138,462
1005,28	272,222
1005,45	-1083,333
1005,61	353,846
1005,77	-800,000
1005,94	250,000
1006,10	-690,000
1006,26	-196,296
1006,43	224,242
1006,59	361,290
1006,76	-172,000
1006,92	256,522
1007,08	87,879
1007,25	155,556
1007,41	318,182
1007,57	-617,647
1007,74	291,304
1007,90	-457,143
1008,06	-213,333
1008,23	-278,947
1008,39	130,556
1008,55	68,235
1008,72	-812,500
1008,88	-128,571
1009,04	-1355,556
1009,21	206,250
1009,37	303,226
1009,53	-270,000
1009,70	-6,061
1009,86	310,526
1010,02	184,091
1010,19	780,000
1010,35	6500,000
1010,51	325,714
1010,68	450,000
1010,84	395,000
1011,00	464,286
1011,17	3033,333
1011,33	126,923
1011,49	675,000
1011,66	350,000
1011,82	-1000,000
1011,98	466,667
1012,14	523,077
1012,31	236,364
1012,47	-1214,286
1012,63	3700,000
1012,80	494,444
1012,96	119,444
1013,12	-303,704
1013,29	512,500
1013,45	-205,882
1013,61	-1780,000
1013,77	-177,778
1013,94	441,667
1014,10	4100,000
1014,26	-35,294
1014,43	231,579
1014,59	0,000
1014,75	670,000
1014,91	211,429
1015,08	342,308
1015,24	400,000
1015,40	620,000
1015,56	594,118
1015,73	191,837
1015,89	622,222
1016,05	356,757
1016,21	285,185
1016,38	239,474
1016,54	-380,000
1016,70	526,316
1016,86	-484,615
1017,03	0,000
1017,19	775,000
1017,35	330,000
1017,51	1033,333
1017,68	942,857
1017,84	363,158
1018,00	295,238
1018,16	-325,000
1018,33	763,636
1018,49	521,429
1018,65	-409,091
1018,81	-43,902
1018,97	923,077
1019,14	-1200,000
1019,30	314,286
1019,46	307,692
1019,62	4700,000
1019,79	-514,286
1019,95	-1975,000
1020,11	380,000
1020,27	200,000
1020,43	-775,000
1020,60	0,000
1020,76	150,000
1020,92	10000,000
1021,08	-120,000
1021,24	-3700,000
1021,41	233,333
1021,57	-425,000
1021,73	0,000
1021,89	-372,727
1022,05	411,429
1022,21	-584,615
1022,38	426,316
1022,54	1800,000
1022,70	359,259
1022,86	-2650,000
1023,02	533,333
1023,19	-450,000
1023,35	107,547
1023,51	361,290
1023,67	171,053
1023,83	772,727
1023,99	228,571
1024,16	-60,000
1024,32	412,500
1024,48	261,224
1024,64	-960,000
1024,80	600,000
1024,96	407,692
1025,12	3333,333
1025,29	-1875,000
1025,45	383,333
1025,61	3633,333
1025,77	323,810
1025,93	-130,769
1026,09	4650,000
1026,26	-1242,857
1026,42	-2000,000
1026,58	186,538
1026,74	657,143
1026,90	505,263
1027,06	-550,000
1027,22	-516,667
1027,38	722,222
1027,55	-312,000
1027,71	837,500
1027,87	130,000
1028,03	90,909
1028,19	-196,970
1028,35	114,865
1028,51	16,129
1028,67	-620,000
1028,83	192,857
1029,00	428,571
1029,16	-593,333
1029,32	264,706
1029,48	3100,000
1029,64	900,000
1029,80	1550,000
1029,96	174,510
1030,12	-437,500
1030,28	1825,000
1030,44	-3900,000
1030,61	306,250
1030,77	-339,130
1030,93	225,581
1031,09	-492,857
1031,25	-1077,778
1031,41	-3600,000
1031,57	-94,737
1031,73	654,545
1031,89	-196,970
1032,05	1242,857
1032,21	1160,000
1032,37	-123,529
1032,53	-280,000
1032,69	-7700,000
1032,86	1516,667
1033,02	431,250
1033,18	-730,769
1033,34	-361,538
1033,50	264,516
1033,66	-500,000
1033,82	342,857
1033,98	-511,765
1034,14	1188,889
1034,30	-295,455
1034,46	408,333
1034,62	611,111
1034,78	155,556
1034,94	-106,452
1035,10	-527,273
1035,26	-755,556
1035,42	102,857
1035,58	1620,000
1035,74	-183,333
1035,90	-550,000
1036,06	258,491
1036,22	-296,000
1036,38	513,333
1036,54	570,000
1036,70	-3700,000
1036,86	-228,571
1037,02	-1800,000
1037,18	-142,857
1037,34	426,087
1037,50	-446,667
1037,66	-2833,333
1037,82	-188,235
1037,98	295,238
1038,14	-89,655
1038,30	-53,846
1038,46	104,167
1038,62	235,484
1038,78	250,000
1038,94	-136,842
1039,10	-450,000
1039,26	-252,632
1039,42	-757,143
1039,58	156,604
1039,74	140,625
1039,90	-148,718
1040,06	452,941
>>>>>End Processed Spectral Data<<<<<
