SpectraSuite Data File
++++++++++++++++++++++++++++++++++++
Date: Thu Feb 02 17:59:22 EET 2017
User: optolab
Dark Spectrum Present: Yes
Reference Spectrum Present: Yes
Number of Sampled Component Spectra: 1
Spectrometers: USB4C02475
Integration Time (usec): 100000 (USB4C02475)
Spectra Averaged: 1 (USB4C02475)
Boxcar Smoothing: 0 (USB4C02475)
Correct for Electrical Dark: No (USB4C02475)
Strobe/Lamp Enabled: No (USB4C02475)
Correct for Detector Non-linearity: No (USB4C02475)
Correct for Stray Light: No (USB4C02475)
Number of Pixels in Processed Spectrum: 3648
>>>>>Begin Processed Spectral Data<<<<<
344,91	-350,000
345,13	-350,000
345,35	-350,000
345,57	-117,647
345,79	4,348
346,00	-223,529
346,22	-1185,714
346,44	-151,515
346,66	248,936
346,87	352,174
347,09	807,692
347,31	6800,000
347,53	-2075,000
347,74	-197,674
347,96	-842,857
348,18	347,059
348,40	264,706
348,61	-184,615
348,83	9300,000
349,05	243,590
349,27	405,882
349,48	-6850,000
349,70	435,714
349,92	357,143
350,14	197,297
350,35	-292,308
350,57	-466,667
350,79	-35,897
351,01	-273,333
351,22	600,000
351,44	758,333
351,66	427,778
351,87	1900,000
352,09	165,789
352,31	260,714
352,53	320,000
352,74	-1300,000
352,96	342,105
353,18	96,875
353,40	-1000,000
353,61	686,667
353,83	212,500
354,05	240,625
354,26	442,857
354,48	-1900,000
354,70	295,238
354,92	286,111
355,13	-27,907
355,35	238,889
355,57	235,938
355,78	400,000
356,00	234,043
356,22	31,818
356,44	195,349
356,65	471,429
356,87	319,444
357,09	234,286
357,30	152,273
357,52	-1166,667
357,74	277,419
357,95	265,714
358,17	86,957
358,39	280,000
358,60	230,556
358,82	327,273
359,04	215,385
359,26	202,273
359,47	-615,385
359,69	417,857
359,91	408,000
360,12	280,000
360,34	72,222
360,56	-2550,000
360,77	1300,000
360,99	475,000
361,21	91,304
361,42	-1700,000
361,64	-262,963
361,86	73,134
362,07	513,333
362,29	217,500
362,51	294,595
362,72	-2360,000
362,94	385,185
363,16	108,571
363,37	809,091
363,59	-10300,000
363,81	900,000
364,02	128,000
364,24	286,364
364,46	523,810
364,67	147,619
364,89	323,529
365,11	243,243
365,32	448,148
365,54	350,000
365,76	195,455
365,97	204,878
366,19	185,965
366,41	870,000
366,62	124,000
366,84	608,333
367,05	122,549
367,27	1480,000
367,49	300,000
367,70	466,667
367,92	193,750
368,14	-261,538
368,35	145,588
368,57	151,515
368,79	357,692
369,00	162,821
369,22	550,000
369,43	642,105
369,65	-165,517
369,87	-305,882
370,08	425,000
370,30	507,143
370,51	200,000
370,73	225,000
370,95	445,000
371,16	185,965
371,38	269,811
371,60	230,000
371,81	133,696
372,03	-1975,000
372,24	-318,750
372,46	2666,667
372,68	255,882
372,89	124,771
373,11	144,186
373,32	105,882
373,54	581,818
373,76	461,111
373,97	227,273
374,19	-552,632
374,40	111,429
374,62	541,176
374,84	412,500
375,05	194,231
375,27	348,649
375,48	140,741
375,70	517,647
375,92	144,643
376,13	626,316
376,35	387,500
376,56	310,000
376,78	148,980
376,99	242,424
377,21	196,875
377,43	148,485
377,64	230,000
377,86	468,750
378,07	172,727
378,29	200,000
378,51	146,429
378,72	-240,909
378,94	97,826
379,15	229,545
379,37	506,250
379,58	190,000
379,80	81,818
380,01	140,000
380,23	256,522
380,45	222,917
380,66	120,833
380,88	218,919
381,09	539,130
381,31	269,231
381,52	478,261
381,74	166,071
381,95	300,000
382,17	380,000
382,39	167,742
382,60	835,294
382,82	296,552
383,03	2800,000
383,25	112,346
383,46	583,333
383,68	234,043
383,89	331,818
384,11	180,822
384,32	223,684
384,54	-685,714
384,76	161,765
384,97	360,000
385,19	268,421
385,40	371,875
385,62	280,645
385,83	202,128
386,05	928,571
386,26	442,308
386,48	715,385
386,69	255,556
386,91	510,000
387,12	128,205
387,34	123,729
387,55	274,286
387,77	344,000
387,98	202,041
388,20	130,986
388,41	104,762
388,63	135,714
388,84	285,000
389,06	230,233
389,27	237,500
389,49	98,795
389,70	179,661
389,92	161,364
390,13	300,000
390,35	115,625
390,56	134,375
390,78	313,636
390,99	233,333
391,21	143,182
391,42	123,913
391,64	-650,000
391,85	153,448
392,07	-207,143
392,28	200,000
392,50	1040,000
392,71	5800,000
392,93	111,290
393,14	250,000
393,36	160,256
393,57	316,667
393,79	133,333
394,00	90,411
394,22	110,000
394,43	335,714
394,65	342,857
394,86	153,125
395,08	-862,500
395,29	142,553
395,50	-4000,000
395,72	1028,571
395,93	252,000
396,15	-285,714
396,36	226,667
396,58	-257,143
396,79	251,163
397,01	338,095
397,22	136,232
397,44	225,532
397,65	136,486
397,87	128,571
398,08	161,538
398,29	416,667
398,51	185,366
398,72	150,000
398,94	225,581
399,15	120,000
399,37	186,957
399,58	157,143
399,80	353,333
400,01	241,176
400,22	271,429
400,44	580,952
400,65	146,575
400,87	2500,000
401,08	116,854
401,30	137,333
401,51	180,000
401,72	169,355
401,94	221,951
402,15	183,673
402,37	150,000
402,58	113,953
402,80	468,750
403,01	202,778
403,22	153,012
403,44	294,444
403,65	185,714
403,87	182,667
404,08	167,308
404,30	228,125
404,51	101,429
404,72	972,727
404,94	109,639
405,15	128,358
405,37	113,187
405,58	261,290
405,79	464,286
406,01	121,481
406,22	96,429
406,44	198,246
406,65	134,524
406,86	182,000
407,08	93,827
407,29	136,000
407,51	76,923
407,72	99,010
407,93	83,544
408,15	92,045
408,36	231,429
408,58	71,667
408,79	71,318
409,00	48,227
409,22	94,118
409,43	67,568
409,64	55,769
409,86	52,273
410,07	59,130
410,29	24,667
410,50	16,667
410,71	65,323
410,93	49,505
411,14	77,570
411,35	42,361
411,57	42,361
411,78	36,029
412,00	40,667
412,21	43,363
412,42	32,683
412,64	46,667
412,85	25,907
413,06	29,464
413,28	30,980
413,49	38,140
413,70	35,193
413,92	27,619
414,13	13,439
414,34	21,190
414,56	27,660
414,77	30,258
414,98	31,449
415,20	26,523
415,41	28,571
415,63	24,786
415,84	33,241
416,05	30,723
416,27	18,663
416,48	23,934
416,69	11,628
416,91	9,600
417,12	17,873
417,33	13,770
417,55	15,600
417,76	18,605
417,97	12,921
418,19	14,644
418,40	13,220
418,61	9,262
418,83	16,197
419,04	10,078
419,25	9,569
419,46	10,273
419,68	10,619
419,89	14,361
420,10	13,172
420,32	5,960
420,53	6,802
420,74	8,841
420,96	8,412
421,17	9,578
421,38	5,105
421,60	7,717
421,81	5,906
422,02	7,458
422,23	11,989
422,45	7,751
422,66	8,612
422,87	3,478
423,09	7,382
423,30	7,010
423,51	4,535
423,73	5,539
423,94	5,487
424,15	2,727
424,36	6,866
424,58	6,124
424,79	3,904
425,00	4,032
425,22	4,294
425,43	3,719
425,64	2,238
425,85	2,931
426,07	2,315
426,28	4,698
426,49	4,120
426,71	3,061
426,92	4,832
427,13	4,412
427,34	1,750
427,56	3,980
427,77	0,911
427,98	3,411
428,19	0,931
428,41	1,432
428,62	2,371
428,83	2,568
429,04	2,568
429,26	2,518
429,47	3,522
429,68	1,026
429,89	1,529
430,11	3,472
430,32	3,012
430,53	1,305
430,74	2,409
430,96	1,535
431,17	2,594
431,38	1,930
431,59	1,049
431,81	2,057
432,02	2,625
432,23	2,257
432,44	2,184
432,66	1,454
432,87	0,993
433,08	1,988
433,29	1,065
433,51	2,040
433,72	2,381
433,93	0,608
434,14	1,175
434,35	1,102
434,57	1,316
434,78	2,367
434,99	1,189
435,20	1,598
435,42	1,660
435,63	0,924
435,84	1,939
436,05	0,917
436,26	0,830
436,48	1,630
436,69	1,245
436,90	0,672
437,11	1,467
437,32	1,525
437,54	1,008
437,75	1,249
437,96	1,100
438,17	0,902
438,38	1,324
438,60	1,905
438,81	0,982
439,02	1,019
439,23	0,858
439,44	0,613
439,66	0,924
439,87	1,121
440,08	0,773
440,29	1,207
440,50	0,894
440,72	0,890
440,93	0,983
441,14	0,886
441,35	0,528
441,56	0,797
441,77	0,773
441,99	0,609
442,20	1,032
442,41	0,673
442,62	0,783
442,83	0,704
443,04	0,488
443,26	0,904
443,47	0,831
443,68	0,814
443,89	0,837
444,10	0,717
444,31	1,235
444,53	0,988
444,74	0,665
444,95	0,600
445,16	0,502
445,37	0,559
445,58	0,384
445,80	0,700
446,01	0,788
446,22	0,889
446,43	0,729
446,64	0,618
446,85	0,589
447,06	0,698
447,28	0,618
447,49	0,621
447,70	0,918
447,91	0,823
448,12	0,548
448,33	0,587
448,54	0,677
448,76	0,535
448,97	0,675
449,18	0,640
449,39	0,532
449,60	0,858
449,81	1,026
450,02	0,811
450,23	0,631
450,45	0,925
450,66	0,390
450,87	0,627
451,08	0,656
451,29	0,912
451,50	0,933
451,71	0,664
451,92	0,875
452,13	0,900
452,35	0,630
452,56	0,735
452,77	1,028
452,98	0,813
453,19	1,078
453,40	1,065
453,61	1,111
453,82	0,809
454,03	0,726
454,25	0,873
454,46	1,001
454,67	0,928
454,88	0,719
455,09	0,884
455,30	0,767
455,51	0,683
455,72	1,004
455,93	1,130
456,14	1,102
456,35	0,883
456,56	0,901
456,78	1,154
456,99	1,248
457,20	0,898
457,41	0,840
457,62	0,798
457,83	0,952
458,04	0,862
458,25	0,661
458,46	1,010
458,67	0,850
458,88	0,914
459,09	0,831
459,30	0,738
459,51	0,991
459,73	0,603
459,94	0,977
460,15	0,988
460,36	0,986
460,57	1,142
460,78	1,156
460,99	1,016
461,20	1,140
461,41	1,113
461,62	0,974
461,83	1,099
462,04	1,085
462,25	1,410
462,46	1,127
462,67	1,112
462,88	1,039
463,09	1,220
463,30	1,347
463,51	1,423
463,72	2,442
463,93	2,946
464,15	3,972
464,36	5,528
464,57	8,121
464,78	11,038
464,99	15,462
465,20	19,776
465,41	25,771
465,62	32,989
465,83	40,787
466,04	49,025
466,25	57,633
466,46	66,387
466,67	74,563
466,88	81,738
467,09	86,101
467,30	91,561
467,51	93,332
467,72	96,175
467,93	98,211
468,14	99,061
468,35	99,957
468,56	99,832
468,77	101,586
468,98	101,603
469,19	102,852
469,40	102,483
469,61	102,957
469,82	103,091
470,03	101,835
470,24	103,562
470,45	102,999
470,66	102,683
470,87	102,585
471,08	102,833
471,29	104,625
471,50	103,472
471,71	103,364
471,92	103,109
472,13	102,824
472,34	103,635
472,55	103,514
472,76	104,422
472,97	102,773
473,18	103,711
473,39	103,617
473,60	103,541
473,81	101,842
474,01	102,629
474,22	103,530
474,43	103,328
474,64	102,551
474,85	102,106
475,06	101,692
475,27	101,599
475,48	101,692
475,69	101,361
475,90	101,462
476,11	103,379
476,32	102,585
476,53	102,714
476,74	102,700
476,95	102,084
477,16	102,307
477,37	102,508
477,58	101,408
477,79	102,702
478,00	102,486
478,21	101,401
478,41	101,563
478,62	102,536
478,83	101,994
479,04	100,223
479,25	99,697
479,46	102,201
479,67	101,852
479,88	101,588
480,09	101,649
480,30	101,930
480,51	102,650
480,72	102,516
480,93	103,004
481,14	101,853
481,34	103,244
481,55	102,757
481,76	101,951
481,97	101,932
482,18	101,083
482,39	101,813
482,60	101,628
482,81	101,722
483,02	99,677
483,23	100,821
483,44	100,209
483,65	100,448
483,85	99,560
484,06	98,378
484,27	99,138
484,48	98,610
484,69	97,393
484,90	99,169
485,11	96,512
485,32	96,053
485,53	94,011
485,73	93,731
485,94	91,205
486,15	89,515
486,36	86,504
486,57	82,301
486,78	78,682
486,99	73,446
487,20	68,108
487,41	61,661
487,61	54,693
487,82	48,600
488,03	41,237
488,24	34,263
488,45	27,524
488,66	21,219
488,87	16,229
489,08	11,456
489,28	7,624
489,49	5,323
489,70	3,437
489,91	2,359
490,12	1,498
490,33	1,185
490,54	1,102
490,74	1,085
490,95	0,711
491,16	0,714
491,37	0,753
491,58	0,653
491,79	0,563
492,00	0,383
492,20	0,676
492,41	0,498
492,62	0,731
492,83	0,716
493,04	0,679
493,25	0,653
493,45	0,511
493,66	0,616
493,87	0,507
494,08	0,418
494,29	0,434
494,50	0,494
494,70	0,610
494,91	0,533
495,12	0,433
495,33	0,513
495,54	0,617
495,75	0,477
495,95	0,574
496,16	0,422
496,37	0,472
496,58	0,467
496,79	0,463
496,99	0,172
497,20	0,503
497,41	0,452
497,62	0,463
497,83	0,403
498,04	0,414
498,24	0,506
498,45	0,460
498,66	0,474
498,87	0,426
499,08	0,526
499,28	0,233
499,49	0,517
499,70	0,347
499,91	0,392
500,12	0,335
500,32	0,342
500,53	0,505
500,74	0,307
500,95	0,234
501,15	0,407
501,36	0,455
501,57	0,371
501,78	0,397
501,99	0,471
502,19	0,354
502,40	0,363
502,61	0,303
502,82	0,478
503,02	0,422
503,23	0,280
503,44	0,597
503,65	0,436
503,86	0,274
504,06	0,519
504,27	0,568
504,48	0,291
504,69	0,480
504,89	0,538
505,10	0,390
505,31	0,655
505,52	0,384
505,72	0,634
505,93	0,368
506,14	0,392
506,35	0,460
506,55	0,301
506,76	0,322
506,97	0,577
507,18	0,423
507,38	0,407
507,59	0,421
507,80	0,501
508,01	0,305
508,21	0,360
508,42	0,342
508,63	0,426
508,84	0,593
509,04	0,415
509,25	0,417
509,46	0,479
509,67	0,541
509,87	0,570
510,08	0,515
510,29	0,535
510,49	0,462
510,70	0,486
510,91	0,558
511,12	0,485
511,32	0,467
511,53	0,382
511,74	0,224
511,94	0,285
512,15	0,466
512,36	0,353
512,57	0,457
512,77	0,442
512,98	0,340
513,19	0,560
513,39	0,400
513,60	0,352
513,81	0,482
514,01	0,569
514,22	0,475
514,43	0,486
514,64	0,408
514,84	0,632
515,05	0,680
515,26	0,512
515,46	0,325
515,67	0,393
515,88	0,530
516,08	0,437
516,29	0,318
516,50	0,398
516,70	0,411
516,91	0,421
517,12	0,503
517,32	0,287
517,53	0,326
517,74	0,394
517,95	0,586
518,15	0,567
518,36	0,649
518,57	0,536
518,77	0,501
518,98	0,573
519,19	0,541
519,39	0,503
519,60	0,445
519,80	0,364
520,01	0,524
520,22	0,496
520,42	0,514
520,63	0,611
520,84	0,576
521,04	0,500
521,25	0,526
521,46	0,348
521,66	0,538
521,87	0,411
522,08	0,446
522,28	0,565
522,49	0,523
522,70	0,548
522,90	0,457
523,11	0,253
523,31	0,496
523,52	0,506
523,73	0,466
523,93	0,637
524,14	0,439
524,35	0,612
524,55	0,498
524,76	0,539
524,97	0,545
525,17	0,605
525,38	0,521
525,58	0,452
525,79	0,536
526,00	0,521
526,20	0,406
526,41	0,576
526,61	0,495
526,82	0,408
527,03	0,573
527,23	0,410
527,44	0,611
527,64	0,631
527,85	0,391
528,06	0,699
528,26	0,578
528,47	0,531
528,68	0,816
528,88	0,490
529,09	0,425
529,29	0,782
529,50	0,713
529,70	0,410
529,91	0,487
530,12	0,680
530,32	0,603
530,53	0,517
530,73	0,558
530,94	0,562
531,15	0,606
531,35	0,623
531,56	0,656
531,76	0,446
531,97	0,595
532,17	0,467
532,38	0,522
532,59	0,530
532,79	0,848
533,00	0,461
533,20	0,530
533,41	0,382
533,61	0,428
533,82	0,287
534,03	0,520
534,23	0,603
534,44	0,726
534,64	0,633
534,85	0,681
535,05	0,586
535,26	0,439
535,46	0,711
535,67	0,363
535,88	0,446
536,08	0,744
536,29	0,697
536,49	0,636
536,70	0,711
536,90	0,692
537,11	0,760
537,31	0,629
537,52	0,678
537,72	0,733
537,93	0,503
538,13	0,455
538,34	0,591
538,55	0,517
538,75	0,478
538,96	0,431
539,16	0,559
539,37	0,589
539,57	0,618
539,78	0,731
539,98	0,675
540,19	0,748
540,39	0,656
540,60	0,579
540,80	0,675
541,01	0,838
541,21	0,671
541,42	0,595
541,62	0,662
541,83	0,477
542,03	0,629
542,24	0,632
542,44	0,570
542,65	0,683
542,85	0,797
543,06	0,781
543,26	0,727
543,47	0,748
543,67	0,755
543,88	0,654
544,08	0,526
544,29	0,800
544,49	0,722
544,70	0,653
544,90	0,963
545,11	0,906
545,31	0,712
545,52	0,856
545,72	0,685
545,93	1,064
546,13	1,010
546,34	1,150
546,54	1,314
546,75	1,607
546,95	2,122
547,15	2,582
547,36	3,368
547,56	4,336
547,77	5,666
547,97	7,316
548,18	9,841
548,38	12,374
548,59	16,161
548,79	20,013
549,00	23,810
549,20	27,890
549,41	32,241
549,61	36,704
549,81	40,636
550,02	45,260
550,22	49,512
550,43	54,539
550,63	60,292
550,84	65,565
551,04	70,867
551,25	76,087
551,45	81,033
551,65	84,986
551,86	87,987
552,06	90,850
552,27	93,718
552,47	94,177
552,68	95,731
552,88	96,382
553,08	98,828
553,29	97,242
553,49	97,912
553,70	98,659
553,90	100,083
554,11	100,766
554,31	100,997
554,51	100,324
554,72	99,732
554,92	100,451
555,13	100,245
555,33	99,950
555,53	100,495
555,74	100,857
555,94	100,131
556,15	100,552
556,35	99,981
556,56	99,752
556,76	98,930
556,96	99,782
557,17	99,280
557,37	99,796
557,58	98,511
557,78	99,425
557,98	99,452
558,19	99,488
558,39	99,086
558,59	99,641
558,80	99,238
559,00	99,082
559,21	99,230
559,41	97,670
559,61	98,666
559,82	99,125
560,02	98,088
560,23	97,382
560,43	97,482
560,63	95,538
560,84	95,282
561,04	93,685
561,24	91,841
561,45	88,834
561,65	85,653
561,85	82,826
562,06	78,145
562,26	73,880
562,47	68,804
562,67	63,583
562,87	57,420
563,08	52,732
563,28	47,262
563,48	42,168
563,69	37,751
563,89	32,554
564,09	27,824
564,30	22,937
564,50	18,289
564,70	15,242
564,91	11,147
565,11	8,101
565,31	6,129
565,52	4,319
565,72	3,420
565,92	2,222
566,13	1,727
566,33	1,653
566,53	1,035
566,74	0,812
566,94	0,712
567,14	0,794
567,35	0,729
567,55	0,598
567,75	0,760
567,96	0,664
568,16	0,504
568,36	0,390
568,57	0,633
568,77	0,314
568,97	0,717
569,18	0,443
569,38	0,386
569,58	0,352
569,79	0,407
569,99	0,492
570,19	0,343
570,39	0,408
570,60	0,414
570,80	0,388
571,00	0,401
571,21	0,429
571,41	0,510
571,61	0,522
571,82	0,521
572,02	0,496
572,22	0,274
572,42	0,437
572,63	0,350
572,83	0,484
573,03	0,239
573,24	0,282
573,44	0,424
573,64	0,508
573,84	0,262
574,05	0,361
574,25	0,352
574,45	0,519
574,66	0,339
574,86	0,426
575,06	0,552
575,26	0,355
575,47	0,536
575,67	0,370
575,87	0,540
576,07	0,394
576,28	0,531
576,48	0,429
576,68	0,480
576,88	0,445
577,09	0,375
577,29	0,584
577,49	0,223
577,69	0,243
577,90	0,325
578,10	0,247
578,30	0,386
578,50	0,164
578,71	0,406
578,91	0,417
579,11	0,467
579,31	0,439
579,52	0,427
579,72	0,442
579,92	0,476
580,12	0,427
580,33	0,436
580,53	0,285
580,73	0,453
580,93	0,355
581,13	0,356
581,34	0,202
581,54	0,502
581,74	0,337
581,94	0,412
582,15	0,495
582,35	0,270
582,55	0,364
582,75	0,366
582,95	0,386
583,16	0,206
583,36	0,248
583,56	0,262
583,76	0,129
583,96	0,364
584,17	0,340
584,37	0,422
584,57	0,457
584,77	0,184
584,97	0,286
585,18	0,409
585,38	0,188
585,58	0,397
585,78	0,425
585,98	0,381
586,19	0,449
586,39	0,549
586,59	0,314
586,79	0,458
586,99	0,263
587,20	0,380
587,40	0,352
587,60	0,195
587,80	0,379
588,00	0,491
588,20	0,452
588,41	0,399
588,61	0,479
588,81	0,383
589,01	0,465
589,21	0,490
589,41	0,189
589,62	0,307
589,82	0,395
590,02	0,380
590,22	0,365
590,42	0,369
590,62	0,399
590,83	0,259
591,03	0,152
591,23	0,269
591,43	0,499
591,63	0,383
591,83	0,344
592,03	0,369
592,24	0,412
592,44	0,365
592,64	0,281
592,84	0,397
593,04	0,354
593,24	0,417
593,44	0,359
593,65	0,336
593,85	0,519
594,05	0,364
594,25	0,327
594,45	0,371
594,65	0,180
594,85	0,274
595,06	0,327
595,26	0,541
595,46	0,203
595,66	0,299
595,86	0,424
596,06	0,451
596,26	0,163
596,46	0,540
596,66	0,414
596,87	0,412
597,07	0,369
597,27	0,290
597,47	0,306
597,67	0,347
597,87	0,319
598,07	0,326
598,27	0,297
598,47	0,613
598,67	0,436
598,88	0,527
599,08	0,428
599,28	0,491
599,48	0,296
599,68	0,388
599,88	0,367
600,08	0,429
600,28	0,465
600,48	0,400
600,68	0,354
600,88	0,605
601,09	0,311
601,29	0,493
601,49	0,294
601,69	0,384
601,89	0,346
602,09	0,336
602,29	0,497
602,49	0,208
602,69	0,483
602,89	0,347
603,09	0,322
603,29	0,520
603,49	0,303
603,69	0,576
603,90	0,253
604,10	0,528
604,30	0,460
604,50	0,563
604,70	0,442
604,90	0,457
605,10	0,460
605,30	0,514
605,50	0,395
605,70	0,429
605,90	0,299
606,10	0,479
606,30	0,284
606,50	0,541
606,70	0,478
606,90	0,093
607,10	0,521
607,30	0,520
607,50	0,433
607,70	0,665
607,90	0,602
608,10	0,590
608,30	0,436
608,50	0,582
608,70	0,588
608,90	0,450
609,11	0,304
609,31	0,338
609,51	0,401
609,71	0,505
609,91	0,323
610,11	0,649
610,31	0,488
610,51	0,528
610,71	0,395
610,91	0,462
611,11	0,587
611,31	0,489
611,51	0,497
611,71	0,412
611,91	0,635
612,11	0,530
612,31	0,660
612,51	0,542
612,71	0,447
612,91	0,483
613,11	0,537
613,31	0,613
613,51	0,474
613,71	0,350
613,91	0,536
614,11	0,499
614,31	0,371
614,50	0,750
614,70	0,543
614,90	0,710
615,10	0,555
615,30	0,552
615,50	0,493
615,70	0,638
615,90	0,524
616,10	0,595
616,30	0,465
616,50	0,435
616,70	0,563
616,90	0,727
617,10	0,748
617,30	0,613
617,50	0,736
617,70	0,735
617,90	0,686
618,10	0,783
618,30	0,678
618,50	0,912
618,70	1,166
618,90	0,999
619,10	1,319
619,30	1,640
619,49	2,260
619,69	2,940
619,89	4,107
620,09	5,459
620,29	7,149
620,49	9,127
620,69	11,947
620,89	15,599
621,09	19,812
621,29	25,155
621,49	31,196
621,69	37,389
621,89	44,219
622,09	49,813
622,29	56,940
622,48	63,927
622,68	68,859
622,88	73,776
623,08	78,117
623,28	82,036
623,48	85,098
623,68	87,608
623,88	89,419
624,08	91,645
624,28	92,427
624,48	93,125
624,67	95,022
624,87	95,254
625,07	95,465
625,27	95,899
625,47	96,604
625,67	96,714
625,87	96,935
626,07	96,986
626,27	96,397
626,47	95,553
626,66	95,404
626,86	95,804
627,06	94,024
627,26	94,558
627,46	94,902
627,66	95,268
627,86	95,383
628,06	95,046
628,25	94,600
628,45	95,441
628,65	96,834
628,85	96,437
629,05	97,800
629,25	97,859
629,45	99,133
629,65	98,523
629,84	100,176
630,04	99,648
630,24	100,056
630,44	100,544
630,64	100,307
630,84	101,018
631,04	100,480
631,23	101,167
631,43	100,858
631,63	102,060
631,83	100,447
632,03	102,019
632,23	100,434
632,42	101,279
632,62	101,317
632,82	101,743
633,02	101,076
633,22	101,942
633,42	102,144
633,62	101,579
633,81	101,507
634,01	102,247
634,21	102,513
634,41	101,443
634,61	100,609
634,80	100,456
635,00	99,958
635,20	100,505
635,40	100,674
635,60	100,735
635,80	100,900
635,99	101,262
636,19	99,884
636,39	101,043
636,59	100,535
636,79	100,747
636,98	100,381
637,18	100,565
637,38	99,161
637,58	99,532
637,78	98,909
637,97	99,224
638,17	98,444
638,37	97,036
638,57	96,488
638,77	96,900
638,96	94,953
639,16	93,543
639,36	91,011
639,56	89,400
639,76	88,231
639,95	86,992
640,15	82,114
640,35	80,740
640,55	76,548
640,75	72,239
640,94	68,599
641,14	63,021
641,34	58,521
641,54	53,597
641,73	47,445
641,93	42,451
642,13	37,182
642,33	32,487
642,53	27,277
642,72	23,139
642,92	18,567
643,12	14,958
643,32	11,787
643,51	9,501
643,71	6,976
643,91	5,783
644,11	4,848
644,30	3,216
644,50	2,909
644,70	2,049
644,90	2,033
645,09	1,538
645,29	1,553
645,49	1,276
645,69	0,984
645,88	1,189
646,08	1,049
646,28	1,103
646,48	0,531
646,67	0,808
646,87	0,723
647,07	0,977
647,26	0,924
647,46	0,922
647,66	0,804
647,86	0,930
648,05	0,888
648,25	1,404
648,45	0,874
648,65	0,711
648,84	0,307
649,04	1,071
649,24	1,125
649,43	0,764
649,63	0,870
649,83	0,994
650,03	1,217
650,22	0,957
650,42	1,016
650,62	0,910
650,81	0,685
651,01	0,791
651,21	0,857
651,40	0,823
651,60	0,706
651,80	1,021
652,00	0,699
652,19	0,983
652,39	0,667
652,59	1,021
652,78	0,706
652,98	0,381
653,18	0,778
653,37	0,643
653,57	1,067
653,77	1,087
653,96	0,509
654,16	0,967
654,36	1,043
654,55	0,657
654,75	0,707
654,95	0,681
655,14	0,656
655,34	1,051
655,54	1,024
655,73	0,712
655,93	0,628
656,13	0,582
656,32	0,326
656,52	0,900
656,72	0,817
656,91	0,891
657,11	0,664
657,31	0,653
657,50	0,586
657,70	0,738
657,90	1,051
658,09	1,267
658,29	0,952
658,49	1,082
658,68	0,608
658,88	0,663
659,07	0,784
659,27	0,733
659,47	0,836
659,66	0,927
659,86	0,751
660,06	0,424
660,25	0,584
660,45	0,660
660,64	0,615
660,84	0,706
661,04	0,726
661,23	0,644
661,43	0,817
661,63	0,723
661,82	0,693
662,02	0,573
662,21	0,453
662,41	0,927
662,61	0,880
662,80	0,667
663,00	0,061
663,19	1,013
663,39	0,371
663,59	0,784
663,78	0,765
663,98	0,821
664,17	0,613
664,37	0,732
664,57	0,549
664,76	1,053
664,96	0,681
665,15	0,417
665,35	0,568
665,55	0,658
665,74	0,675
665,94	0,802
666,13	0,499
666,33	0,810
666,53	0,677
666,72	0,607
666,92	0,759
667,11	0,649
667,31	0,281
667,50	0,339
667,70	1,011
667,90	0,458
668,09	0,631
668,29	0,597
668,48	0,601
668,68	0,520
668,87	0,661
669,07	0,304
669,26	0,745
669,46	0,689
669,66	0,641
669,85	0,663
670,05	0,568
670,24	0,408
670,44	0,535
670,63	0,491
670,83	0,764
671,02	0,524
671,22	0,504
671,42	0,309
671,61	0,511
671,81	0,562
672,00	0,719
672,20	0,479
672,39	0,593
672,59	0,473
672,78	0,490
672,98	0,504
673,17	0,445
673,37	0,337
673,56	0,624
673,76	0,160
673,95	0,467
674,15	0,700
674,34	0,293
674,54	0,806
674,73	0,583
674,93	0,411
675,13	0,634
675,32	0,764
675,52	0,406
675,71	0,720
675,91	0,619
676,10	0,700
676,30	0,302
676,49	0,448
676,69	0,448
676,88	0,349
677,08	0,157
677,27	0,411
677,47	0,423
677,66	0,440
677,86	0,666
678,05	0,262
678,24	0,350
678,44	0,636
678,63	0,436
678,83	0,483
679,02	0,436
679,22	0,457
679,41	0,470
679,61	0,333
679,80	0,408
680,00	0,255
680,19	0,392
680,39	0,383
680,58	0,366
680,78	0,132
680,97	0,467
681,17	0,272
681,36	0,153
681,56	0,303
681,75	0,129
681,94	0,270
682,14	0,630
682,33	0,542
682,53	0,330
682,72	0,344
682,92	0,400
683,11	0,263
683,31	0,378
683,50	0,183
683,69	0,232
683,89	0,370
684,08	0,395
684,28	0,128
684,47	0,391
684,67	0,233
684,86	0,173
685,06	0,419
685,25	0,318
685,44	0,232
685,64	0,493
685,83	0,527
686,03	0,319
686,22	0,293
686,42	0,383
686,61	0,268
686,80	0,323
687,00	0,266
687,19	0,302
687,39	0,156
687,58	0,309
687,77	0,430
687,97	0,404
688,16	0,217
688,36	0,170
688,55	0,234
688,74	0,230
688,94	0,231
689,13	0,235
689,33	0,158
689,52	0,462
689,71	0,232
689,91	0,089
690,10	0,187
690,30	0,125
690,49	0,119
690,68	0,488
690,88	0,048
691,07	0,230
691,27	0,180
691,46	0,205
691,65	0,201
691,85	0,141
692,04	0,127
692,23	-0,107
692,43	0,396
692,62	0,415
692,82	0,268
693,01	0,299
693,20	0,198
693,40	0,340
693,59	0,182
693,78	0,435
693,98	0,171
694,17	0,195
694,36	0,635
694,56	0,257
694,75	0,252
694,94	0,380
695,14	0,288
695,33	0,281
695,53	0,438
695,72	0,265
695,91	-0,102
696,11	0,193
696,30	0,274
696,49	0,347
696,69	0,244
696,88	0,066
697,07	0,140
697,27	0,351
697,46	0,533
697,65	0,182
697,85	0,240
698,04	0,319
698,23	0,353
698,43	0,543
698,62	-0,032
698,81	0,401
699,01	0,506
699,20	0,393
699,39	0,620
699,58	0,458
699,78	0,230
699,97	0,605
700,16	0,170
700,36	0,651
700,55	0,552
700,74	0,963
700,94	0,422
701,13	0,351
701,32	0,282
701,52	0,648
701,71	0,379
701,90	0,470
702,09	0,705
702,29	0,796
702,48	0,080
702,67	0,690
702,87	1,305
703,06	1,077
703,25	1,285
703,44	0,484
703,64	1,078
703,83	0,673
704,02	1,412
704,22	0,945
704,41	0,495
704,60	1,542
704,79	0,962
704,99	1,539
705,18	1,355
705,37	1,621
705,56	1,068
705,76	1,879
705,95	1,272
706,14	0,658
706,33	0,750
706,53	1,744
706,72	0,963
706,91	1,745
707,11	1,590
707,30	0,943
707,49	2,030
707,68	1,591
707,88	0,849
708,07	0,414
708,26	2,312
708,45	0,623
708,64	1,740
708,84	0,863
709,03	2,217
709,22	0,808
709,41	2,544
709,61	1,015
709,80	2,640
709,99	2,494
710,18	2,313
710,38	1,384
710,57	1,112
710,76	0,918
710,95	2,096
711,14	2,218
711,34	1,686
711,53	3,500
711,72	3,248
711,91	3,838
712,11	3,394
712,30	2,001
712,49	1,723
712,68	1,108
712,87	2,245
713,07	3,372
713,26	3,748
713,45	1,165
713,64	1,397
713,83	2,287
714,03	2,283
714,22	3,710
714,41	4,376
714,60	2,421
714,79	0,528
714,99	2,179
715,18	4,246
715,37	4,204
715,56	2,596
715,75	4,452
715,94	4,478
716,14	6,518
716,33	4,162
716,52	4,298
716,71	2,604
716,90	2,497
717,10	1,893
717,29	3,770
717,48	1,669
717,67	4,174
717,86	4,556
718,05	4,333
718,24	5,470
718,44	6,978
718,63	0,973
718,82	3,435
719,01	3,051
719,20	2,857
719,39	5,098
719,59	-0,195
719,78	4,342
719,97	5,622
720,16	3,360
720,35	3,028
720,54	3,843
720,73	5,870
720,93	4,121
721,12	1,437
721,31	6,050
721,50	7,418
721,69	3,569
721,88	5,914
722,07	3,601
722,27	4,606
722,46	5,697
722,65	3,654
722,84	2,258
723,03	6,399
723,22	3,546
723,41	4,485
723,60	1,717
723,79	9,076
723,99	5,197
724,18	8,199
724,37	1,817
724,56	4,344
724,75	4,870
724,94	9,544
725,13	3,519
725,32	9,271
725,51	-0,465
725,71	4,348
725,90	5,482
726,09	5,571
726,28	5,338
726,47	4,241
726,66	7,310
726,85	5,024
727,04	6,728
727,23	3,629
727,42	4,840
727,61	8,025
727,81	-1,838
728,00	4,574
728,19	8,342
728,38	2,620
728,57	6,458
728,76	5,901
728,95	12,292
729,14	9,957
729,33	6,129
729,52	6,974
729,71	6,833
729,90	5,275
730,09	4,918
730,28	6,070
730,48	6,546
730,67	7,478
730,86	9,929
731,05	3,034
731,24	1,585
731,43	8,362
731,62	7,446
731,81	1,930
732,00	14,850
732,19	6,490
732,38	5,513
732,57	10,269
732,76	5,746
732,95	2,960
733,14	1,865
733,33	3,307
733,52	7,584
733,71	5,595
733,90	5,932
734,09	9,730
734,28	12,467
734,47	8,194
734,66	10,160
734,85	6,429
735,04	7,418
735,23	15,546
735,42	10,792
735,61	4,519
735,81	6,361
736,00	1,994
736,19	2,432
736,38	11,826
736,57	10,974
736,76	9,781
736,95	10,191
737,14	11,802
737,33	9,052
737,52	11,538
737,71	6,230
737,90	11,437
738,09	7,915
738,28	10,463
738,47	6,387
738,66	11,538
738,85	7,808
739,04	12,178
739,22	10,201
739,41	9,559
739,60	2,048
739,79	4,496
739,98	5,197
740,17	10,922
740,36	10,669
740,55	10,987
740,74	13,722
740,93	8,031
741,12	11,429
741,31	6,338
741,50	5,104
741,69	14,336
741,88	6,324
742,07	14,674
742,26	15,810
742,45	12,705
742,64	8,958
742,83	9,027
743,02	7,368
743,21	19,856
743,40	2,070
743,59	15,257
743,78	10,176
743,97	11,923
744,16	7,087
744,34	2,331
744,53	15,464
744,72	5,428
744,91	7,353
745,10	6,918
745,29	12,298
745,48	14,773
745,67	12,984
745,86	18,985
746,05	7,583
746,24	15,876
746,43	14,347
746,62	13,578
746,81	17,303
747,00	15,317
747,18	18,954
747,37	21,263
747,56	12,706
747,75	9,852
747,94	28,398
748,13	21,477
748,32	15,714
748,51	18,274
748,70	20,705
748,89	13,583
749,08	4,651
749,26	15,639
749,45	9,651
749,64	8,312
749,83	14,831
750,02	20,380
750,21	11,450
750,40	24,291
750,59	0,536
750,78	15,711
750,96	11,050
751,15	13,551
751,34	6,250
751,53	8,743
751,72	20,282
751,91	16,062
752,10	10,209
752,29	10,933
752,47	10,029
752,66	25,714
752,85	20,219
753,04	11,732
753,23	12,693
753,42	24,528
753,61	16,928
753,80	27,148
753,98	19,697
754,17	14,590
754,36	11,290
754,55	17,169
754,74	15,909
754,93	26,446
755,12	14,243
755,30	11,364
755,49	20,640
755,68	28,221
755,87	12,130
756,06	17,014
756,25	20,669
756,43	-4,027
756,62	24,224
756,81	29,801
757,00	17,434
757,19	16,667
757,38	8,880
757,56	6,400
757,75	22,184
757,94	10,266
758,13	8,219
758,32	14,243
758,51	13,468
758,69	5,405
758,88	9,764
759,07	22,754
759,26	18,728
759,45	19,298
759,63	6,926
759,82	32,632
760,01	17,216
760,20	35,535
760,39	29,022
760,57	19,861
760,76	24,042
760,95	27,083
761,14	23,358
761,33	24,194
761,51	28,929
761,70	20,446
761,89	16,000
762,08	33,457
762,27	20,217
762,45	14,493
762,64	22,613
762,83	27,490
763,02	21,304
763,21	6,500
763,39	25,175
763,58	22,305
763,77	27,848
763,96	25,498
764,14	28,333
764,33	31,905
764,52	21,429
764,71	24,262
764,89	47,321
765,08	12,808
765,27	31,064
765,46	27,354
765,65	27,451
765,83	45,249
766,02	10,000
766,21	19,672
766,40	43,191
766,58	19,048
766,77	40,367
766,96	20,732
767,15	38,235
767,33	23,188
767,52	44,105
767,71	30,702
767,90	25,126
768,08	32,934
768,27	32,114
768,46	36,404
768,64	28,241
768,83	18,137
769,02	31,034
769,21	16,667
769,39	17,143
769,58	33,766
769,77	43,617
769,96	24,324
770,14	25,683
770,33	22,430
770,52	36,691
770,70	33,514
770,89	49,189
771,08	22,892
771,27	37,895
771,45	31,765
771,64	38,788
771,83	37,255
772,01	27,320
772,20	36,318
772,39	18,354
772,57	25,373
772,76	45,270
772,95	58,621
773,14	40,816
773,32	18,079
773,51	34,524
773,70	49,640
773,88	37,419
774,07	21,320
774,26	1,613
774,44	48,120
774,63	41,916
774,82	37,662
775,00	44,860
775,19	38,095
775,38	22,340
775,56	38,509
775,75	34,066
775,94	24,167
776,12	49,673
776,31	41,353
776,50	26,027
776,68	33,333
776,87	48,325
777,06	64,151
777,24	25,210
777,43	47,594
777,62	45,506
777,80	50,314
777,99	58,333
778,18	43,678
778,36	12,712
778,55	44,068
778,74	26,563
778,92	40,741
779,11	87,273
779,29	8,511
779,48	43,262
779,67	60,360
779,85	20,175
780,04	54,348
780,23	35,714
780,41	83,898
780,60	29,530
780,79	19,355
780,97	24,837
781,16	27,128
781,34	39,189
781,53	42,857
781,72	33,333
781,90	29,940
782,09	24,419
782,28	63,265
782,46	42,857
782,65	54,930
782,83	40,252
783,02	88,596
783,21	62,406
783,39	42,857
783,58	49,565
783,76	51,020
783,95	67,606
784,14	105,263
784,32	54,118
784,51	66,892
784,69	29,688
784,88	55,140
785,06	49,669
785,25	73,050
785,44	20,968
785,62	40,000
785,81	50,000
785,99	35,338
786,18	40,541
786,37	97,802
786,55	37,500
786,74	49,091
786,92	30,769
787,11	18,750
787,29	29,464
787,48	56,989
787,67	65,094
787,85	105,063
788,04	50,450
788,22	57,426
788,41	51,181
788,59	50,658
788,78	81,319
788,96	77,686
789,15	59,167
789,34	83,654
789,52	40,323
789,71	61,871
789,89	71,429
790,08	62,500
790,26	73,885
790,45	66,667
790,63	22,989
790,82	55,385
791,00	28,319
791,19	52,800
791,38	43,810
791,56	53,636
791,75	43,056
791,93	60,000
792,12	80,870
792,30	37,226
792,49	55,556
792,67	26,471
792,86	64,800
793,04	69,444
793,23	66,316
793,41	63,043
793,60	72,222
793,78	74,286
793,97	33,333
794,15	82,707
794,34	40,000
794,52	30,108
794,71	71,318
794,89	37,879
795,08	58,400
795,26	98,667
795,45	83,333
795,63	54,839
795,82	70,330
796,00	58,000
796,19	44,715
796,37	54,962
796,56	45,631
796,74	43,158
796,93	13,636
797,11	61,446
797,30	59,444
797,48	42,969
797,67	37,398
797,85	79,231
798,04	24,576
798,22	84,615
798,41	64,423
798,59	30,476
798,77	69,880
798,96	45,062
799,14	45,968
799,33	79,817
799,51	44,444
799,70	105,385
799,88	77,064
800,07	64,885
800,25	75,904
800,44	92,593
800,62	66,667
800,80	63,380
800,99	164,384
801,17	89,655
801,36	80,714
801,54	82,000
801,73	47,368
801,91	71,901
802,10	68,235
802,28	58,400
802,46	1,316
802,65	73,381
802,83	50,667
803,02	83,871
803,20	118,072
803,39	26,437
803,57	38,583
803,75	67,480
803,94	56,349
804,12	90,345
804,31	59,420
804,49	46,400
804,67	39,706
804,86	81,416
805,04	-13,253
805,23	82,301
805,41	31,667
805,59	71,233
805,78	95,200
805,96	32,530
806,15	69,307
806,33	31,579
806,51	29,333
806,70	57,895
806,88	39,535
807,07	62,162
807,25	46,154
807,43	72,321
807,62	39,823
807,80	35,238
807,99	39,231
808,17	52,756
808,35	39,000
808,54	57,246
808,72	74,775
808,90	47,945
809,09	82,609
809,27	70,667
809,46	42,857
809,64	92,683
809,82	31,788
810,01	63,281
810,19	83,838
810,37	78,125
810,56	120,000
810,74	66,234
810,92	42,000
811,11	26,316
811,29	50,943
811,48	35,385
811,66	85,393
811,84	54,945
812,03	56,557
812,21	77,193
812,39	20,000
812,58	88,421
812,76	88,489
812,94	44,578
813,13	47,872
813,31	108,000
813,49	64,815
813,68	80,909
813,86	82,022
814,04	66,116
814,23	31,928
814,41	35,955
814,59	47,573
814,78	73,529
814,96	41,509
815,14	79,439
815,33	48,837
815,51	49,606
815,69	20,000
815,87	68,317
816,06	68,696
816,24	55,280
816,42	57,353
816,61	54,088
816,79	49,138
816,97	94,318
817,16	36,095
817,34	38,889
817,52	61,157
817,70	105,941
817,89	59,259
818,07	39,726
818,25	51,020
818,44	96,154
818,62	17,829
818,80	49,624
818,98	68,153
819,17	59,664
819,35	60,638
819,53	60,448
819,72	46,203
819,90	56,589
820,08	35,897
820,26	60,345
820,45	12,081
820,63	66,071
820,81	49,600
820,99	57,447
821,18	47,619
821,36	40,506
821,54	42,759
821,73	54,444
821,91	42,982
822,09	29,839
822,27	56,129
822,46	36,029
822,64	31,200
822,82	67,403
823,00	16,575
823,19	48,352
823,37	60,000
823,55	52,841
823,73	72,414
823,91	51,449
824,10	41,935
824,28	67,839
824,46	28,155
824,64	50,658
824,83	51,553
825,01	38,000
825,19	71,774
825,37	49,565
825,56	55,660
825,74	41,327
825,92	29,936
826,10	67,614
826,28	17,857
826,47	52,632
826,65	36,170
826,83	60,345
827,01	34,682
827,19	18,452
827,38	54,321
827,56	53,409
827,74	38,547
827,92	40,116
828,10	29,487
828,29	36,095
828,47	35,772
828,65	38,462
828,83	21,818
829,01	60,870
829,20	54,396
829,38	69,886
829,56	45,109
829,74	42,138
829,92	44,048
830,10	49,425
830,29	29,648
830,47	44,724
830,65	18,293
830,83	29,911
831,01	33,929
831,20	49,029
831,38	27,751
831,56	43,721
831,74	49,763
831,92	57,895
832,10	38,095
832,29	61,486
832,47	19,101
832,65	41,667
832,83	30,986
833,01	34,000
833,19	31,674
833,37	34,842
833,56	29,536
833,74	45,098
833,92	25,926
834,10	35,685
834,28	50,633
834,46	45,701
834,64	14,352
834,83	63,182
835,01	39,004
835,19	36,000
835,37	38,430
835,55	28,125
835,73	52,709
835,91	38,007
836,09	31,179
836,28	38,745
836,46	18,000
836,64	37,970
836,82	26,697
837,00	37,681
837,18	24,535
837,36	25,896
837,54	33,636
837,72	35,345
837,91	34,701
838,09	19,522
838,27	26,667
838,45	19,504
838,63	15,074
838,81	8,017
838,99	22,984
839,17	23,986
839,35	14,894
839,53	24,561
839,72	18,421
839,90	20,619
840,08	33,846
840,26	12,302
840,44	27,492
840,62	15,517
840,80	33,673
840,98	23,922
841,16	14,829
841,34	9,365
841,52	20,489
841,70	25,231
841,89	39,919
842,07	20,376
842,25	40,805
842,43	6,034
842,61	25,263
842,79	22,034
842,97	16,938
843,15	27,723
843,33	20,505
843,51	15,663
843,69	41,026
843,87	4,851
844,05	19,453
844,23	25,826
844,41	8,464
844,59	20,461
844,77	3,641
844,95	23,988
845,13	13,538
845,31	8,430
845,50	31,675
845,68	18,328
845,86	13,793
846,04	20,112
846,22	7,629
846,40	23,118
846,58	24,501
846,76	22,849
846,94	15,461
847,12	15,285
847,30	11,082
847,48	5,263
847,66	23,153
847,84	19,126
848,02	25,121
848,20	17,571
848,38	18,234
848,56	22,727
848,74	24,582
848,92	15,960
849,10	15,750
849,28	16,194
849,46	15,733
849,64	21,247
849,82	1,852
850,00	31,075
850,18	27,447
850,36	16,336
850,54	14,536
850,72	16,452
850,90	23,696
851,08	15,098
851,26	21,007
851,44	11,062
851,62	16,977
851,80	16,960
851,98	22,637
852,16	22,695
852,34	15,052
852,52	21,652
852,70	10,023
852,87	15,753
853,05	11,111
853,23	10,722
853,41	19,048
853,59	19,917
853,77	15,278
853,95	18,776
854,13	14,823
854,31	16,016
854,49	14,770
854,67	15,335
854,85	13,043
855,03	17,435
855,21	20,000
855,39	7,243
855,57	9,857
855,75	15,328
855,93	11,373
856,11	20,696
856,28	6,089
856,46	10,676
856,64	19,238
856,82	16,323
857,00	17,850
857,18	11,191
857,36	16,526
857,54	16,609
857,72	12,632
857,90	10,517
858,08	9,608
858,26	2,277
858,44	9,162
858,61	12,021
858,79	17,301
858,97	16,814
859,15	9,598
859,33	13,281
859,51	14,405
859,69	10,197
859,87	11,697
860,05	6,572
860,23	12,825
860,40	10,142
860,58	7,377
860,76	6,349
860,94	12,520
861,12	12,769
861,30	7,221
861,48	11,143
861,66	9,048
861,84	4,484
862,01	9,426
862,19	5,763
862,37	9,531
862,55	10,519
862,73	6,347
862,91	3,818
863,09	9,821
863,27	8,621
863,44	11,425
863,62	9,375
863,80	7,876
863,98	8,012
864,16	6,358
864,34	10,184
864,52	8,579
864,69	10,673
864,87	2,026
865,05	13,061
865,23	8,497
865,41	10,753
865,59	7,537
865,76	10,737
865,94	9,044
866,12	12,645
866,30	10,379
866,48	11,506
866,66	4,167
866,83	17,176
867,01	6,650
867,19	9,233
867,37	6,986
867,55	6,093
867,73	8,053
867,90	9,461
868,08	5,200
868,26	8,456
868,44	7,503
868,62	9,091
868,79	9,507
868,97	4,912
869,15	3,596
869,33	8,669
869,51	4,878
869,69	12,073
869,86	5,380
870,04	7,471
870,22	10,537
870,40	10,877
870,57	5,882
870,75	9,061
870,93	8,211
871,11	6,602
871,29	7,534
871,46	7,616
871,64	9,205
871,82	7,643
872,00	11,317
872,18	3,692
872,35	10,198
872,53	8,772
872,71	9,898
872,89	11,465
873,06	8,411
873,24	9,408
873,42	8,333
873,60	6,322
873,77	8,589
873,95	3,102
874,13	4,017
874,31	12,178
874,49	4,066
874,66	6,391
874,84	5,416
875,02	8,433
875,20	4,926
875,37	10,169
875,55	5,344
875,73	3,147
875,91	6,506
876,08	5,119
876,26	6,449
876,44	7,646
876,61	7,172
876,79	11,549
876,97	2,281
877,15	6,167
877,32	2,984
877,50	3,228
877,68	7,626
877,86	0,510
878,03	7,196
878,21	6,572
878,39	6,496
878,56	3,967
878,74	8,716
878,92	1,695
879,10	5,919
879,27	7,170
879,45	6,028
879,63	3,339
879,80	6,587
879,98	1,430
880,16	7,642
880,34	7,148
880,51	2,681
880,69	5,357
880,87	4,533
881,04	6,006
881,22	6,977
881,40	4,339
881,57	4,705
881,75	5,471
881,93	6,864
882,10	5,271
882,28	6,207
882,46	3,356
882,63	3,910
882,81	6,082
882,99	3,390
883,16	4,402
883,34	2,607
883,52	5,433
883,69	5,816
883,87	3,646
884,05	6,151
884,22	1,957
884,40	5,424
884,58	1,483
884,75	3,245
884,93	5,170
885,11	4,791
885,28	1,185
885,46	3,936
885,64	2,193
885,81	3,357
885,99	2,664
886,17	3,085
886,34	4,459
886,52	2,972
886,70	3,194
886,87	5,329
887,05	4,826
887,22	2,822
887,40	2,308
887,58	4,222
887,75	4,040
887,93	4,620
888,11	3,856
888,28	2,123
888,46	3,376
888,63	2,663
888,81	3,387
888,99	3,131
889,16	7,096
889,34	0,398
889,51	3,002
889,69	2,016
889,87	5,119
890,04	2,266
890,22	2,682
890,39	2,730
890,57	4,846
890,75	2,244
890,92	3,677
891,10	2,111
891,27	3,783
891,45	2,737
891,63	4,569
891,80	3,950
891,98	4,092
892,15	1,099
892,33	3,230
892,51	4,086
892,68	3,804
892,86	2,326
893,03	3,387
893,21	4,440
893,38	2,813
893,56	2,898
893,74	3,420
893,91	3,473
894,09	2,940
894,26	3,482
894,44	3,849
894,61	3,445
894,79	2,208
894,96	1,408
895,14	4,322
895,32	2,288
895,49	2,514
895,67	2,787
895,84	1,270
896,02	1,375
896,19	2,238
896,37	3,410
896,54	2,351
896,72	3,003
896,89	3,356
897,07	5,649
897,25	3,586
897,42	1,829
897,60	4,686
897,77	2,816
897,95	2,780
898,12	2,888
898,30	2,603
898,47	1,436
898,65	-0,548
898,82	1,943
899,00	2,006
899,17	2,679
899,35	1,852
899,52	5,178
899,70	1,717
899,87	1,184
900,05	2,397
900,22	3,048
900,40	2,383
900,57	1,410
900,75	1,046
900,92	3,300
901,10	1,749
901,27	1,591
901,45	4,498
901,62	3,709
901,80	1,642
901,97	2,698
902,15	2,181
902,32	2,300
902,50	1,112
902,67	3,765
902,85	1,925
903,02	2,995
903,20	2,497
903,37	1,459
903,54	2,622
903,72	3,486
903,89	1,966
904,07	0,891
904,24	2,657
904,42	1,831
904,59	1,000
904,77	2,087
904,94	1,747
905,12	1,417
905,29	1,932
905,47	2,405
905,64	2,232
905,81	0,974
905,99	0,315
906,16	-0,382
906,34	2,157
906,51	1,554
906,69	3,485
906,86	0,972
907,03	1,917
907,21	1,926
907,38	1,089
907,56	2,695
907,73	2,909
907,91	1,611
908,08	3,410
908,25	3,260
908,43	1,007
908,60	0,485
908,78	1,082
908,95	2,260
909,13	2,222
909,30	3,522
909,47	1,631
909,65	2,999
909,82	2,190
910,00	1,982
910,17	1,087
910,34	1,909
910,52	2,959
910,69	0,820
910,87	3,008
911,04	1,484
911,21	2,998
911,39	0,973
911,56	2,646
911,73	0,511
911,91	3,259
912,08	2,889
912,26	1,238
912,43	3,995
912,60	1,553
912,78	2,147
912,95	2,879
913,13	2,223
913,30	3,559
913,47	3,504
913,65	2,718
913,82	3,486
913,99	2,066
914,17	1,957
914,34	1,924
914,51	2,686
914,69	2,181
914,86	2,539
915,03	2,621
915,21	1,148
915,38	2,053
915,56	1,556
915,73	1,990
915,90	1,783
916,08	3,055
916,25	1,311
916,42	2,423
916,60	2,168
916,77	2,730
916,94	2,308
917,12	1,717
917,29	1,158
917,46	1,153
917,64	1,391
917,81	1,561
917,98	2,620
918,16	1,231
918,33	2,489
918,50	2,556
918,67	2,348
918,85	0,082
919,02	1,684
919,19	1,590
919,37	1,467
919,54	2,422
919,71	2,881
919,89	1,823
920,06	2,843
920,23	2,149
920,41	1,895
920,58	1,794
920,75	2,096
920,92	0,761
921,10	0,873
921,27	0,975
921,44	2,486
921,62	2,279
921,79	2,085
921,96	1,055
922,13	1,902
922,31	1,021
922,48	0,589
922,65	1,532
922,82	1,258
923,00	1,883
923,17	0,904
923,34	1,285
923,52	1,451
923,69	1,688
923,86	2,381
924,03	1,722
924,21	0,945
924,38	1,779
924,55	2,291
924,72	0,874
924,90	1,235
925,07	1,773
925,24	0,967
925,41	1,482
925,59	1,393
925,76	0,231
925,93	1,749
926,10	1,610
926,28	1,225
926,45	0,885
926,62	1,781
926,79	1,776
926,96	2,495
927,14	3,038
927,31	1,876
927,48	1,040
927,65	1,859
927,83	2,339
928,00	1,421
928,17	1,760
928,34	1,236
928,51	1,293
928,69	0,107
928,86	0,896
929,03	0,834
929,20	1,593
929,37	1,276
929,55	1,584
929,72	1,248
929,89	1,194
930,06	2,003
930,23	2,318
930,41	2,123
930,58	1,915
930,75	0,747
930,92	2,093
931,09	2,130
931,27	0,764
931,44	1,207
931,61	1,876
931,78	1,278
931,95	1,367
932,12	1,703
932,30	1,546
932,47	0,021
932,64	1,177
932,81	1,562
932,98	1,117
933,16	1,854
933,33	1,378
933,50	0,957
933,67	1,859
933,84	1,603
934,01	1,188
934,18	1,446
934,36	0,689
934,53	1,549
934,70	1,388
934,87	0,627
935,04	1,675
935,21	1,243
935,38	0,741
935,56	1,182
935,73	0,798
935,90	0,694
936,07	1,276
936,24	1,920
936,41	1,163
936,58	1,146
936,76	1,651
936,93	1,004
937,10	1,937
937,27	1,816
937,44	1,016
937,61	1,367
937,78	1,390
937,95	1,882
938,13	0,777
938,30	2,020
938,47	1,605
938,64	0,960
938,81	0,656
938,98	1,416
939,15	0,704
939,32	1,437
939,49	1,493
939,66	1,252
939,84	1,111
940,01	0,709
940,18	1,215
940,35	0,247
940,52	0,925
940,69	0,749
940,86	2,558
941,03	1,134
941,20	0,405
941,37	0,565
941,54	2,053
941,71	1,841
941,89	1,168
942,06	1,907
942,23	1,678
942,40	1,368
942,57	1,430
942,74	0,957
942,91	1,888
943,08	2,264
943,25	1,798
943,42	1,643
943,59	1,896
943,76	0,720
943,93	1,009
944,10	0,360
944,27	0,183
944,44	1,359
944,61	1,472
944,79	2,202
944,96	2,006
945,13	1,476
945,30	1,263
945,47	1,689
945,64	1,650
945,81	1,438
945,98	1,241
946,15	1,469
946,32	2,644
946,49	1,716
946,66	2,906
946,83	1,508
947,00	2,062
947,17	1,332
947,34	1,378
947,51	2,673
947,68	1,838
947,85	1,295
948,02	2,329
948,19	1,594
948,36	3,255
948,53	0,029
948,70	1,183
948,87	2,254
949,04	3,158
949,21	0,824
949,38	2,141
949,55	1,820
949,72	0,390
949,89	3,366
950,06	2,260
950,23	0,774
950,40	1,594
950,57	2,283
950,74	2,463
950,91	1,101
951,08	3,349
951,25	2,495
951,42	2,223
951,59	2,318
951,76	1,751
951,93	2,462
952,10	1,048
952,27	0,803
952,44	2,850
952,61	3,205
952,77	4,758
952,94	3,864
953,11	3,078
953,28	2,916
953,45	3,075
953,62	2,949
953,79	1,975
953,96	3,014
954,13	3,422
954,30	5,765
954,47	2,311
954,64	1,658
954,81	4,871
954,98	3,371
955,15	-0,181
955,32	4,817
955,49	4,172
955,65	4,665
955,82	3,849
955,99	5,023
956,16	9,656
956,33	0,347
956,50	5,236
956,67	1,452
956,84	7,562
957,01	3,134
957,18	4,867
957,35	8,333
957,52	5,307
957,68	3,713
957,85	7,836
958,02	6,321
958,19	4,499
958,36	9,185
958,53	6,232
958,70	6,326
958,87	0,798
959,04	6,033
959,21	8,292
959,37	8,342
959,54	8,377
959,71	9,529
959,88	0,930
960,05	9,779
960,22	7,170
960,39	7,035
960,56	7,161
960,72	6,510
960,89	7,114
961,06	13,435
961,23	4,434
961,40	11,454
961,57	9,105
961,74	6,452
961,90	8,853
962,07	10,912
962,24	9,310
962,41	10,517
962,58	7,191
962,75	16,923
962,92	6,316
963,08	3,125
963,25	3,586
963,42	13,655
963,59	11,704
963,76	18,290
963,93	16,701
964,10	7,014
964,26	13,571
964,43	2,326
964,60	11,137
964,77	25,503
964,94	15,556
965,10	2,786
965,27	12,291
965,44	4,127
965,61	24,315
965,78	10,870
965,95	22,388
966,11	3,636
966,28	10,615
966,45	21,242
966,62	9,756
966,79	11,945
966,95	19,573
967,12	13,333
967,29	29,012
967,46	33,096
967,63	34,118
967,79	35,235
967,96	27,523
968,13	42,381
968,30	31,687
968,47	32,308
968,63	24,510
968,80	22,989
968,97	32,370
969,14	46,893
969,31	27,551
969,47	35,326
969,64	27,473
969,81	29,677
969,98	28,421
970,14	12,903
970,31	30,189
970,48	41,611
970,65	50,413
970,81	39,161
970,98	38,021
971,15	52,121
971,32	57,576
971,48	41,667
971,65	42,384
971,82	58,182
971,99	68,354
972,15	32,558
972,32	57,639
972,49	62,295
972,66	42,975
972,82	47,945
972,99	68,750
973,16	70,861
973,33	74,815
973,49	36,585
973,66	64,762
973,83	114,815
974,00	81,013
974,16	127,273
974,33	42,667
974,50	54,545
974,67	61,905
974,83	123,469
975,00	127,273
975,17	93,548
975,33	98,851
975,50	136,066
975,67	140,385
975,84	68,293
976,00	72,368
976,17	78,261
976,34	80,000
976,50	60,440
976,67	102,381
976,84	245,833
977,00	129,487
977,17	131,111
977,34	178,846
977,50	100,000
977,67	98,824
977,84	164,407
978,01	85,135
978,17	181,034
978,34	140,741
978,51	80,000
978,67	97,959
978,84	81,818
979,01	150,000
979,17	61,429
979,34	141,304
979,51	161,364
979,67	325,000
979,84	127,119
980,01	119,231
980,17	191,176
980,34	98,630
980,51	655,556
980,67	93,333
980,84	104,286
981,01	211,765
981,17	95,588
981,34	102,857
981,50	111,579
981,67	157,143
981,84	-3,571
982,00	4200,000
982,17	150,000
982,34	234,146
982,50	0,000
982,67	-885,714
982,84	420,000
983,00	188,889
983,17	-428,571
983,33	722,222
983,50	146,341
983,67	97,101
983,83	347,619
984,00	221,739
984,17	577,778
984,33	-214,286
984,50	221,622
984,66	193,750
984,83	675,000
985,00	238,462
985,16	183,871
985,33	3750,000
985,49	125,581
985,66	225,000
985,83	-2466,667
985,99	211,111
986,16	294,737
986,32	113,699
986,49	-620,000
986,66	880,000
986,82	175,758
986,99	120,000
987,15	327,273
987,32	500,000
987,49	271,429
987,65	43,478
987,82	-240,000
987,98	166,667
988,15	842,857
988,31	217,143
988,48	166,667
988,65	530,000
988,81	107,273
988,98	348,649
989,14	630,000
989,31	157,627
989,47	-67,857
989,64	311,111
989,80	135,106
989,97	178,182
990,14	671,429
990,30	-1225,000
990,47	-245,833
990,63	205,263
990,80	1466,667
990,96	583,333
991,13	163,333
991,29	252,941
991,46	229,167
991,62	0,000
991,79	-470,000
991,95	600,000
992,12	1783,333
992,29	-338,095
992,45	261,905
992,62	-225,000
992,78	-1266,667
992,95	325,806
993,11	1237,500
993,28	-6100,000
993,44	-275,862
993,61	170,175
993,77	0,000
993,94	256,410
994,10	1300,000
994,27	-123,684
994,43	246,875
994,60	707,143
994,76	206,061
994,93	-620,000
995,09	-456,250
995,26	425,000
995,42	675,000
995,59	203,333
995,75	-558,333
995,92	-1314,286
996,08	-1340,000
996,25	306,061
996,41	700,000
996,58	328,000
996,74	-770,000
996,91	150,000
997,07	344,000
997,23	84,314
997,40	1550,000
997,56	-2966,667
997,73	443,478
997,89	1500,000
998,06	152,632
998,22	210,638
998,39	173,469
998,55	515,789
998,72	-7000,000
998,88	168,000
999,05	680,000
999,21	347,059
999,37	267,442
999,54	325,806
999,70	419,048
999,87	1383,333
1000,03	370,000
1000,20	585,714
1000,36	-712,500
1000,52	2850,000
1000,69	484,000
1000,85	-716,667
1001,02	214,286
1001,18	1440,000
1001,35	0,000
1001,51	614,286
1001,67	360,000
1001,84	243,902
1002,00	-609,091
1002,17	1675,000
1002,33	-300,000
1002,50	666,667
1002,66	812,500
1002,82	356,098
1002,99	-427,273
1003,15	-6700,000
1003,32	-178,571
1003,48	-1966,667
1003,64	352,174
1003,81	-200,000
1003,97	192,754
1004,14	-114,545
1004,30	518,182
1004,46	-3900,000
1004,63	-561,538
1004,79	305,405
1004,95	-1480,000
1005,12	-276,923
1005,28	147,222
1005,45	-983,333
1005,61	623,077
1005,77	-757,143
1005,94	247,826
1006,10	-340,000
1006,26	-122,222
1006,43	269,697
1006,59	241,935
1006,76	-248,000
1006,92	343,478
1007,08	112,121
1007,25	227,778
1007,41	186,364
1007,57	-382,353
1007,74	265,217
1007,90	-471,429
1008,06	-333,333
1008,23	-352,632
1008,39	88,889
1008,55	105,882
1008,72	-625,000
1008,88	-151,429
1009,04	-700,000
1009,21	193,750
1009,37	541,935
1009,53	-440,000
1009,70	-68,182
1009,86	415,789
1010,02	227,273
1010,19	853,333
1010,35	7100,000
1010,51	314,286
1010,68	495,455
1010,84	300,000
1011,00	435,714
1011,17	3400,000
1011,33	57,692
1011,49	531,250
1011,66	334,375
1011,82	-933,333
1011,98	726,667
1012,14	253,846
1012,31	215,909
1012,47	-757,143
1012,63	9200,000
1012,80	494,444
1012,96	219,444
1013,12	-237,037
1013,29	291,667
1013,45	-223,529
1013,61	-1420,000
1013,77	-422,222
1013,94	412,500
1014,10	4500,000
1014,26	-88,235
1014,43	302,632
1014,59	0,000
1014,75	360,000
1014,91	234,286
1015,08	180,769
1015,24	620,000
1015,40	720,000
1015,56	576,471
1015,73	310,204
1015,89	422,222
1016,05	321,622
1016,21	266,667
1016,38	236,842
1016,54	-328,000
1016,70	589,474
1016,86	-607,692
1017,03	0,000
1017,19	662,500
1017,35	356,667
1017,51	1633,333
1017,68	985,714
1017,84	563,158
1018,00	252,381
1018,16	-362,500
1018,33	454,545
1018,49	485,714
1018,65	-390,909
1018,81	-36,585
1018,97	523,077
1019,14	-1028,571
1019,30	395,238
1019,46	269,231
1019,62	3850,000
1019,79	-1042,857
1019,95	-2150,000
1020,11	1260,000
1020,27	220,000
1020,43	-612,500
1020,60	0,000
1020,76	151,471
1020,92	11700,000
1021,08	-175,556
1021,24	-4050,000
1021,41	336,364
1021,57	-404,167
1021,73	0,000
1021,89	-318,182
1022,05	242,857
1022,21	-615,385
1022,38	352,632
1022,54	1840,000
1022,70	277,778
1022,86	-4150,000
1023,02	855,556
1023,19	-320,000
1023,35	224,528
1023,51	361,290
1023,67	213,158
1023,83	709,091
1023,99	242,857
1024,16	-16,923
1024,32	331,250
1024,48	224,490
1024,64	-800,000
1024,80	583,333
1024,96	692,308
1025,12	3300,000
1025,29	-2200,000
1025,45	237,500
1025,61	2566,667
1025,77	576,190
1025,93	-407,692
1026,09	6300,000
1026,26	-1228,571
1026,42	-825,000
1026,58	205,769
1026,74	714,286
1026,90	184,211
1027,06	-720,000
1027,22	-566,667
1027,38	655,556
1027,55	-196,000
1027,71	550,000
1027,87	277,500
1028,03	133,333
1028,19	-60,606
1028,35	105,405
1028,51	-95,161
1028,67	-1260,000
1028,83	200,000
1029,00	721,429
1029,16	-566,667
1029,32	335,294
1029,48	3950,000
1029,64	1242,857
1029,80	1516,667
1029,96	74,510
1030,12	-462,500
1030,28	2150,000
1030,44	-2450,000
1030,61	262,500
1030,77	-234,783
1030,93	283,721
1031,09	-514,286
1031,25	-1033,333
1031,41	-5000,000
1031,57	-136,842
1031,73	681,818
1031,89	-221,212
1032,05	1100,000
1032,21	870,000
1032,37	-102,941
1032,53	-145,000
1032,69	-4900,000
1032,86	1483,333
1033,02	-12,500
1033,18	-438,462
1033,34	-761,538
1033,50	293,548
1033,66	-633,333
1033,82	364,286
1033,98	-470,588
1034,14	922,222
1034,30	-340,909
1034,46	250,000
1034,62	438,889
1034,78	177,778
1034,94	-196,774
1035,10	-263,636
1035,26	-1422,222
1035,42	160,000
1035,58	1600,000
1035,74	-180,000
1035,90	-225,000
1036,06	154,717
1036,22	-388,000
1036,38	746,667
1036,54	440,000
1036,70	-3600,000
1036,86	-385,714
1037,02	-2150,000
1037,18	-271,429
1037,34	226,087
1037,50	-446,667
1037,66	-3466,667
1037,82	-188,235
1037,98	523,810
1038,14	-210,345
1038,30	44,231
1038,46	135,417
1038,62	109,677
1038,78	183,333
1038,94	-115,789
1039,10	-304,167
1039,26	-300,000
1039,42	-685,714
1039,58	158,491
1039,74	100,000
1039,90	-128,205
1040,06	400,000
>>>>>End Processed Spectral Data<<<<<
