SpectraSuite Data File
++++++++++++++++++++++++++++++++++++
Date: Thu Feb 02 17:59:58 EET 2017
User: optolab
Dark Spectrum Present: Yes
Reference Spectrum Present: Yes
Number of Sampled Component Spectra: 1
Spectrometers: USB4C02475
Integration Time (usec): 100000 (USB4C02475)
Spectra Averaged: 1 (USB4C02475)
Boxcar Smoothing: 0 (USB4C02475)
Correct for Electrical Dark: No (USB4C02475)
Strobe/Lamp Enabled: No (USB4C02475)
Correct for Detector Non-linearity: No (USB4C02475)
Correct for Stray Light: No (USB4C02475)
Number of Pixels in Processed Spectrum: 3648
>>>>>Begin Processed Spectral Data<<<<<
344,91	-1225,000
345,13	-1225,000
345,35	-1225,000
345,57	-152,941
345,79	45,652
346,00	-176,471
346,22	-1171,429
346,44	-9,091
346,66	280,851
346,87	195,652
347,09	746,154
347,31	5000,000
347,53	-1650,000
347,74	-172,093
347,96	-1442,857
348,18	241,176
348,40	382,353
348,61	-212,821
348,83	5600,000
349,05	294,872
349,27	329,412
349,48	-4850,000
349,70	771,429
349,92	242,857
350,14	164,865
350,35	-392,308
350,57	-477,778
350,79	-130,769
351,01	-453,333
351,22	570,000
351,44	575,000
351,66	377,778
351,87	1300,000
352,09	125,000
352,31	214,286
352,53	357,143
352,74	-614,286
352,96	384,211
353,18	134,375
353,40	-712,500
353,61	540,000
353,83	237,500
354,05	359,375
354,26	303,571
354,48	-1640,000
354,70	519,048
354,92	325,000
355,13	-79,070
355,35	198,148
355,57	228,125
355,78	157,143
356,00	212,766
356,22	86,364
356,44	295,349
356,65	471,429
356,87	169,444
357,09	322,857
357,30	109,091
357,52	-1766,667
357,74	345,161
357,95	320,000
358,17	121,739
358,39	260,000
358,60	113,889
358,82	322,727
359,04	325,641
359,26	195,455
359,47	-461,538
359,69	417,857
359,91	544,000
360,12	485,000
360,34	172,222
360,56	-1200,000
360,77	1077,778
360,99	545,833
361,21	226,087
361,42	-2000,000
361,64	-274,074
361,86	153,731
362,07	713,333
362,29	225,000
362,51	240,541
362,72	-1260,000
362,94	303,704
363,16	120,000
363,37	1009,091
363,59	-6200,000
363,81	850,000
364,02	150,667
364,24	288,636
364,46	500,000
364,67	133,333
364,89	270,588
365,11	213,514
365,32	251,852
365,54	312,500
365,76	170,455
365,97	126,829
366,19	112,281
366,41	840,000
366,62	140,000
366,84	500,000
367,05	140,196
367,27	1480,000
367,49	261,538
367,70	655,556
367,92	158,333
368,14	-530,769
368,35	130,882
368,57	90,909
368,79	303,846
369,00	124,359
369,22	338,889
369,43	478,947
369,65	-82,759
369,87	-517,647
370,08	565,000
370,30	357,143
370,51	554,545
370,73	219,444
370,95	600,000
371,16	140,351
371,38	273,585
371,60	300,000
371,81	114,130
372,03	-2525,000
372,24	-234,375
372,46	2400,000
372,68	241,176
372,89	109,174
373,11	186,047
373,32	121,008
373,54	727,273
373,76	444,444
373,97	281,818
374,19	-310,526
374,40	162,857
374,62	558,824
374,84	437,500
375,05	113,462
375,27	194,595
375,48	104,938
375,70	429,412
375,92	183,929
376,13	621,053
376,35	354,167
376,56	390,000
376,78	134,694
376,99	269,697
377,21	237,500
377,43	206,061
377,64	96,000
377,86	437,500
378,07	175,000
378,29	152,778
378,51	125,000
378,72	-54,545
378,94	163,043
379,15	122,727
379,37	568,750
379,58	196,667
379,80	113,636
380,01	186,000
380,23	391,304
380,45	154,167
380,66	161,111
380,88	291,892
381,09	447,826
381,31	282,051
381,52	360,870
381,74	208,929
381,95	378,571
382,17	332,000
382,39	143,548
382,60	470,588
382,82	168,966
383,03	2300,000
383,25	106,173
383,46	808,333
383,68	221,277
383,89	290,909
384,11	157,534
384,32	278,947
384,54	-1157,143
384,76	270,588
384,97	210,000
385,19	321,053
385,40	431,250
385,62	383,871
385,83	206,383
386,05	657,143
386,26	396,154
386,48	500,000
386,69	244,444
386,91	520,000
387,12	274,359
387,34	201,695
387,55	234,286
387,77	284,000
387,98	202,041
388,20	130,986
388,41	117,460
388,63	144,286
388,84	222,500
389,06	188,372
389,27	215,625
389,49	78,313
389,70	164,407
389,92	240,909
390,13	233,333
390,35	114,583
390,56	175,000
390,78	372,727
390,99	115,556
391,21	123,864
391,42	73,913
391,64	-610,000
391,85	115,517
392,07	-307,143
392,28	165,385
392,50	1660,000
392,71	8000,000
392,93	150,000
393,14	193,478
393,36	126,923
393,57	225,000
393,79	68,254
394,00	120,548
394,22	126,000
394,43	367,857
394,65	346,429
394,86	137,500
395,08	-837,500
395,29	93,617
395,50	-3700,000
395,72	1185,714
395,93	396,000
396,15	-271,429
396,36	260,000
396,58	-252,381
396,79	204,651
397,01	323,810
397,22	114,493
397,44	161,702
397,65	108,108
397,87	118,571
398,08	180,769
398,29	400,000
398,51	221,951
398,72	258,696
398,94	118,605
399,15	98,333
399,37	176,087
399,58	147,619
399,80	433,333
400,01	317,647
400,22	642,857
400,44	533,333
400,65	126,027
400,87	5600,000
401,08	130,337
401,30	145,333
401,51	172,727
401,72	114,516
401,94	280,488
402,15	142,857
402,37	152,273
402,58	151,163
402,80	425,000
403,01	172,222
403,22	112,048
403,44	258,333
403,65	87,755
403,87	150,667
404,08	213,462
404,30	84,375
404,51	150,000
404,72	772,727
404,94	104,819
405,15	164,179
405,37	108,791
405,58	196,774
405,79	478,571
406,01	77,778
406,22	95,238
406,44	71,930
406,65	76,190
406,86	94,000
407,08	96,296
407,29	124,000
407,51	74,038
407,72	112,871
407,93	111,392
408,15	111,364
408,36	154,286
408,58	48,333
408,79	64,341
409,00	66,667
409,22	72,549
409,43	52,252
409,64	53,846
409,86	57,955
410,07	36,522
410,29	51,333
410,50	50,794
410,71	45,968
410,93	26,733
411,14	69,159
411,35	39,583
411,57	50,694
411,78	55,147
412,00	40,667
412,21	30,088
412,42	28,780
412,64	50,000
412,85	35,751
413,06	40,179
413,28	33,333
413,49	26,512
413,70	25,751
413,92	29,048
414,13	24,901
414,34	4,461
414,56	37,447
414,77	25,461
414,98	21,201
415,20	30,466
415,41	33,766
415,63	29,060
415,84	39,335
416,05	19,578
416,27	16,156
416,48	23,934
416,69	12,209
416,91	3,733
417,12	8,824
417,33	15,801
417,55	26,400
417,76	20,930
417,97	19,288
418,19	13,808
418,40	5,970
418,61	10,978
418,83	17,606
419,04	11,938
419,25	7,337
419,46	14,125
419,68	11,209
419,89	12,516
420,10	10,215
420,32	9,934
420,53	12,291
420,74	8,363
420,96	2,962
421,17	10,490
421,38	5,549
421,60	8,360
421,81	6,707
422,02	4,514
422,23	4,377
422,45	5,167
422,66	6,271
422,87	5,768
423,09	4,807
423,30	7,736
423,51	4,981
423,73	7,739
423,94	6,643
424,15	2,867
424,36	7,274
424,58	7,201
424,79	1,887
425,00	2,481
425,22	4,588
425,43	5,811
425,64	3,085
425,85	4,340
426,07	3,735
426,28	3,631
426,49	2,442
426,71	5,334
426,92	4,474
427,13	1,515
427,34	3,244
427,56	6,605
427,77	3,271
427,98	2,975
428,19	1,357
428,41	1,858
428,62	3,282
428,83	1,883
429,04	3,562
429,26	2,130
429,47	4,782
429,68	1,369
429,89	1,162
430,11	2,257
430,32	2,332
430,53	2,222
430,74	3,184
430,96	2,223
431,17	1,551
431,38	2,676
431,59	0,951
431,81	2,248
432,02	1,681
432,23	3,040
432,44	1,368
432,66	1,812
432,87	0,528
433,08	2,480
433,29	1,084
433,51	1,727
433,72	1,605
433,93	1,825
434,14	1,940
434,35	0,874
434,57	1,367
434,78	1,371
434,99	1,832
435,20	1,662
435,42	1,313
435,63	1,326
435,84	1,072
436,05	1,390
436,26	0,512
436,48	1,751
436,69	1,219
436,90	0,950
437,11	1,467
437,32	1,213
437,54	1,031
437,75	0,954
437,96	0,977
438,17	1,130
438,38	1,398
438,60	1,165
438,81	1,276
439,02	1,087
439,23	1,891
439,44	0,798
439,66	1,259
439,87	0,948
440,08	0,904
440,29	1,410
440,50	1,267
440,72	0,899
440,93	0,991
441,14	1,008
441,35	0,504
441,56	0,897
441,77	0,802
441,99	0,785
442,20	0,678
442,41	0,890
442,62	0,572
442,83	0,453
443,04	0,735
443,26	0,788
443,47	1,278
443,68	0,781
443,89	0,974
444,10	0,658
444,31	0,952
444,53	1,034
444,74	0,809
444,95	0,612
445,16	0,619
445,37	0,653
445,58	0,595
445,80	0,575
446,01	0,842
446,22	0,991
446,43	0,790
446,64	0,587
446,85	0,674
447,06	0,661
447,28	0,521
447,49	0,768
447,70	0,961
447,91	0,995
448,12	0,517
448,33	0,503
448,54	0,609
448,76	0,542
448,97	0,804
449,18	1,001
449,39	0,662
449,60	0,473
449,81	0,696
450,02	0,932
450,23	0,752
450,45	0,751
450,66	0,625
450,87	0,774
451,08	0,676
451,29	1,096
451,50	0,765
451,71	0,638
451,92	0,639
452,13	0,984
452,35	0,805
452,56	0,503
452,77	0,776
452,98	1,164
453,19	0,778
453,40	1,031
453,61	0,951
453,82	0,979
454,03	0,691
454,25	0,726
454,46	0,667
454,67	0,907
454,88	1,232
455,09	0,891
455,30	1,077
455,51	0,997
455,72	1,211
455,93	0,880
456,14	0,828
456,35	0,810
456,56	1,103
456,78	1,181
456,99	1,301
457,20	0,898
457,41	0,865
457,62	1,087
457,83	1,355
458,04	1,489
458,25	1,384
458,46	1,341
458,67	1,212
458,88	1,389
459,09	1,501
459,30	1,390
459,51	1,531
459,73	1,810
459,94	2,612
460,15	2,641
460,36	3,868
460,57	5,436
460,78	6,918
460,99	8,904
461,20	11,416
461,41	14,494
461,62	17,605
461,83	21,875
462,04	26,017
462,25	30,716
462,46	36,128
462,67	40,772
462,88	47,305
463,09	52,830
463,30	58,165
463,51	63,205
463,72	68,328
463,93	74,638
464,15	77,872
464,36	83,387
464,57	86,378
464,78	90,472
464,99	92,997
465,20	94,905
465,41	96,740
465,62	97,566
465,83	98,453
466,04	99,579
466,25	100,811
466,46	100,447
466,67	101,042
466,88	101,696
467,09	100,684
467,30	101,253
467,51	101,497
467,72	100,763
467,93	102,671
468,14	101,954
468,35	100,704
468,56	100,505
468,77	101,219
468,98	100,727
469,19	102,216
469,40	101,113
469,61	100,601
469,82	102,071
470,03	101,396
470,24	100,931
470,45	101,780
470,66	101,254
470,87	101,756
471,08	102,212
471,29	102,773
471,50	101,233
471,71	100,763
471,92	101,401
472,13	100,408
472,34	102,278
472,55	100,528
472,76	100,405
472,97	100,530
473,18	101,260
473,39	100,982
473,60	100,607
473,81	99,432
474,01	100,842
474,22	101,473
474,43	102,171
474,64	101,280
474,85	100,716
475,06	100,571
475,27	100,766
475,48	100,186
475,69	100,361
475,90	100,959
476,11	101,622
476,32	101,121
476,53	101,210
476,74	101,677
476,95	99,798
477,16	100,488
477,37	100,343
477,58	99,751
477,79	100,816
478,00	100,603
478,21	100,691
478,41	101,064
478,62	100,588
478,83	100,565
479,04	98,539
479,25	98,623
479,46	99,857
479,67	99,650
479,88	99,461
480,09	98,719
480,30	97,696
480,51	97,867
480,72	97,432
480,93	96,225
481,14	94,683
481,34	93,606
481,55	92,544
481,76	90,071
481,97	88,992
482,18	85,459
482,39	84,010
482,60	79,963
482,81	76,688
483,02	71,896
483,23	67,063
483,44	62,999
483,65	57,705
483,85	51,744
484,06	46,081
484,27	40,858
484,48	35,099
484,69	30,117
484,90	25,063
485,11	20,091
485,32	15,795
485,53	12,248
485,73	9,562
485,94	6,980
486,15	5,265
486,36	3,550
486,57	2,770
486,78	1,918
486,99	1,312
487,20	0,956
487,41	0,981
487,61	0,878
487,82	0,462
488,03	0,689
488,24	0,634
488,45	0,660
488,66	0,639
488,87	0,693
489,08	0,688
489,28	0,503
489,49	0,719
489,70	0,645
489,91	0,515
490,12	0,412
490,33	0,470
490,54	0,559
490,74	0,526
490,95	0,400
491,16	0,573
491,37	0,500
491,58	0,374
491,79	0,635
492,00	0,283
492,20	0,529
492,41	0,434
492,62	0,534
492,83	0,421
493,04	0,549
493,25	0,552
493,45	0,389
493,66	0,620
493,87	0,338
494,08	0,275
494,29	0,345
494,50	0,354
494,70	0,428
494,91	0,371
495,12	0,383
495,33	0,720
495,54	0,408
495,75	0,618
495,95	0,422
496,16	0,403
496,37	0,404
496,58	0,363
496,79	0,371
496,99	0,452
497,20	0,339
497,41	0,414
497,62	0,478
497,83	0,478
498,04	0,354
498,24	0,442
498,45	0,271
498,66	0,482
498,87	0,283
499,08	0,451
499,28	0,395
499,49	0,532
499,70	0,408
499,91	0,324
500,12	0,301
500,32	0,417
500,53	0,403
500,74	0,379
500,95	0,318
501,15	0,524
501,36	0,390
501,57	0,530
501,78	0,401
501,99	0,360
502,19	0,240
502,40	0,397
502,61	0,361
502,82	0,360
503,02	0,307
503,23	0,323
503,44	0,513
503,65	0,394
503,86	0,394
504,06	0,374
504,27	0,533
504,48	0,394
504,69	0,522
504,89	0,407
505,10	0,409
505,31	0,448
505,52	0,349
505,72	0,641
505,93	0,329
506,14	0,435
506,35	0,295
506,55	0,411
506,76	0,417
506,97	0,442
507,18	0,380
507,38	0,403
507,59	0,354
507,80	0,454
508,01	0,262
508,21	0,391
508,42	0,207
508,63	0,533
508,84	0,473
509,04	0,439
509,25	0,329
509,46	0,372
509,67	0,450
509,87	0,481
510,08	0,426
510,29	0,258
510,49	0,442
510,70	0,555
510,91	0,590
511,12	0,384
511,32	0,382
511,53	0,472
511,74	0,489
511,94	0,310
512,15	0,377
512,36	0,259
512,57	0,404
512,77	0,376
512,98	0,389
513,19	0,364
513,39	0,468
513,60	0,299
513,81	0,580
514,01	0,512
514,22	0,524
514,43	0,420
514,64	0,470
514,84	0,678
515,05	0,578
515,26	0,516
515,46	0,345
515,67	0,413
515,88	0,506
516,08	0,588
516,29	0,371
516,50	0,415
516,70	0,506
516,91	0,616
517,12	0,520
517,32	0,316
517,53	0,346
517,74	0,557
517,95	0,622
518,15	0,713
518,36	0,641
518,57	0,402
518,77	0,468
518,98	0,504
519,19	0,408
519,39	0,409
519,60	0,314
519,80	0,417
520,01	0,360
520,22	0,418
520,42	0,356
520,63	0,391
520,84	0,478
521,04	0,317
521,25	0,526
521,46	0,283
521,66	0,352
521,87	0,366
522,08	0,368
522,28	0,532
522,49	0,621
522,70	0,339
522,90	0,461
523,11	0,278
523,31	0,476
523,52	0,514
523,73	0,280
523,93	0,612
524,14	0,463
524,35	0,519
524,55	0,530
524,76	0,399
524,97	0,455
525,17	0,403
525,38	0,419
525,58	0,349
525,79	0,511
526,00	0,414
526,20	0,591
526,41	0,527
526,61	0,503
526,82	0,326
527,03	0,438
527,23	0,447
527,44	0,528
527,64	0,496
527,85	0,363
528,06	0,540
528,26	0,525
528,47	0,531
528,68	0,629
528,88	0,494
529,09	0,640
529,29	0,715
529,50	0,585
529,70	0,501
529,91	0,409
530,12	0,692
530,32	0,468
530,53	0,820
530,73	0,603
530,94	0,620
531,15	0,528
531,35	0,709
531,56	0,590
531,76	0,644
531,97	0,571
532,17	0,700
532,38	0,506
532,59	0,604
532,79	0,770
533,00	0,610
533,20	0,579
533,41	0,535
533,61	0,544
533,82	0,402
534,03	0,512
534,23	0,521
534,44	0,643
534,64	0,477
534,85	0,528
535,05	0,318
535,26	0,595
535,46	0,707
535,67	0,644
535,88	0,591
536,08	0,658
536,29	0,709
536,49	0,632
536,70	0,781
536,90	0,701
537,11	0,526
537,31	0,641
537,52	0,703
537,72	0,869
537,93	0,540
538,13	0,536
538,34	0,554
538,55	0,661
538,75	0,437
538,96	0,593
539,16	0,445
539,37	0,650
539,57	0,707
539,78	0,800
539,98	0,707
540,19	0,845
540,39	0,733
540,60	0,733
540,80	0,838
541,01	1,117
541,21	1,272
541,42	1,206
541,62	1,470
541,83	1,754
542,03	2,348
542,24	2,817
542,44	3,614
542,65	4,218
542,85	5,942
543,06	7,208
543,26	8,854
543,47	10,980
543,67	13,324
543,88	15,789
544,08	18,692
544,29	21,534
544,49	24,440
544,70	28,137
544,90	31,889
545,11	34,702
545,31	37,737
545,52	40,381
545,72	42,825
545,93	46,456
546,13	48,583
546,34	50,964
546,54	53,934
546,75	57,133
546,95	60,781
547,15	63,810
547,36	67,235
547,56	71,378
547,77	74,955
547,97	77,882
548,18	81,747
548,38	84,752
548,59	87,293
548,79	88,498
549,00	90,762
549,20	91,161
549,41	93,208
549,61	93,990
549,81	94,090
550,02	95,181
550,22	95,835
550,43	96,283
550,63	98,152
550,84	97,846
551,04	98,559
551,25	97,666
551,45	99,455
551,65	98,227
551,86	99,292
552,06	99,396
552,27	98,998
552,47	97,743
552,68	99,001
552,88	98,854
553,08	100,331
553,29	99,066
553,49	98,553
553,70	98,566
553,90	98,778
554,11	98,693
554,31	98,069
554,51	97,281
554,72	96,128
554,92	95,330
555,13	94,567
555,33	93,124
555,53	91,996
555,74	90,924
555,94	87,535
556,15	85,554
556,35	82,279
556,56	80,094
556,76	75,597
556,96	71,818
557,17	68,214
557,37	64,182
557,58	59,746
557,78	56,294
557,98	53,159
558,19	49,709
558,39	46,157
558,59	43,017
558,80	39,130
559,00	35,773
559,21	33,068
559,41	29,598
559,61	25,977
559,82	23,088
560,02	19,762
560,23	16,648
560,43	14,014
560,63	11,152
560,84	9,034
561,04	6,899
561,24	5,445
561,45	4,152
561,65	2,925
561,85	2,302
562,06	1,827
562,26	1,402
562,47	1,317
562,67	0,938
562,87	0,519
563,08	0,858
563,28	0,814
563,48	0,665
563,69	0,591
563,89	0,633
564,09	0,541
564,30	0,638
564,50	0,276
564,70	0,326
564,91	0,365
565,11	0,333
565,31	0,531
565,52	0,391
565,72	0,614
565,92	0,507
566,13	0,423
566,33	0,429
566,53	0,423
566,74	0,550
566,94	0,318
567,14	0,404
567,35	0,342
567,55	0,444
567,75	0,641
567,96	0,541
568,16	0,455
568,36	0,390
568,57	0,411
568,77	0,343
568,97	0,373
569,18	0,454
569,38	0,505
569,58	0,314
569,79	0,220
569,99	0,352
570,19	0,370
570,39	0,382
570,60	0,492
570,80	0,402
571,00	0,360
571,21	0,466
571,41	0,428
571,61	0,467
571,82	0,476
572,02	0,333
572,22	0,155
572,42	0,389
572,63	0,313
572,83	0,506
573,03	0,407
573,24	0,341
573,44	0,368
573,64	0,274
573,84	0,292
574,05	0,284
574,25	0,393
574,45	0,376
574,66	0,489
574,86	0,433
575,06	0,378
575,26	0,265
575,47	0,562
575,67	0,319
575,87	0,429
576,07	0,265
576,28	0,291
576,48	0,330
576,68	0,524
576,88	0,504
577,09	0,305
577,29	0,500
577,49	0,179
577,69	0,217
577,90	0,411
578,10	0,251
578,30	0,515
578,50	0,234
578,71	0,454
578,91	0,284
579,11	0,449
579,31	0,435
579,52	0,290
579,72	0,199
579,92	0,354
580,12	0,324
580,33	0,351
580,53	0,307
580,73	0,349
580,93	0,343
581,13	0,319
581,34	0,275
581,54	0,391
581,74	0,300
581,94	0,482
582,15	0,436
582,35	0,199
582,55	0,323
582,75	0,326
582,95	0,379
583,16	0,357
583,36	0,266
583,56	0,296
583,76	0,321
583,96	0,268
584,17	0,281
584,37	0,275
584,57	0,401
584,77	0,063
584,97	0,217
585,18	0,317
585,38	0,192
585,58	0,393
585,78	0,459
585,98	0,266
586,19	0,252
586,39	0,437
586,59	0,140
586,79	0,399
586,99	0,260
587,20	0,285
587,40	0,348
587,60	0,331
587,80	0,248
588,00	0,476
588,20	0,529
588,41	0,359
588,61	0,446
588,81	0,314
589,01	0,424
589,21	0,520
589,41	0,229
589,62	0,358
589,82	0,318
590,02	0,474
590,22	0,369
590,42	0,398
590,62	0,407
590,83	0,230
591,03	0,276
591,23	0,367
591,43	0,473
591,63	0,237
591,83	0,431
592,03	0,281
592,24	0,318
592,44	0,386
592,64	0,321
592,84	0,327
593,04	0,365
593,24	0,341
593,44	0,395
593,65	0,285
593,85	0,354
594,05	0,256
594,25	0,244
594,45	0,457
594,65	0,320
594,85	0,187
595,06	0,309
595,26	0,563
595,46	0,352
595,66	0,327
595,86	0,208
596,06	0,418
596,26	0,319
596,46	0,532
596,66	0,330
596,87	0,484
597,07	0,420
597,27	0,428
597,47	0,467
597,67	0,290
597,87	0,268
598,07	0,187
598,27	0,378
598,47	0,429
598,67	0,271
598,88	0,498
599,08	0,476
599,28	0,479
599,48	0,222
599,68	0,615
599,88	0,408
600,08	0,318
600,28	0,424
600,48	0,437
600,68	0,347
600,88	0,482
601,09	0,304
601,29	0,613
601,49	0,297
601,69	0,373
601,89	0,501
602,09	0,430
602,29	0,482
602,49	0,409
602,69	0,532
602,89	0,400
603,09	0,515
603,29	0,554
603,49	0,548
603,69	0,549
603,90	0,322
604,10	0,524
604,30	0,483
604,50	0,445
604,70	0,366
604,90	0,468
605,10	0,407
605,30	0,464
605,50	0,330
605,70	0,526
605,90	0,318
606,10	0,510
606,30	0,452
606,50	0,553
606,70	0,490
606,90	0,337
607,10	0,552
607,30	0,559
607,50	0,483
607,70	0,517
607,90	0,495
608,10	0,551
608,30	0,428
608,50	0,463
608,70	0,692
608,90	0,462
609,11	0,468
609,31	0,501
609,51	0,578
609,71	0,364
609,91	0,358
610,11	0,723
610,31	0,737
610,51	0,427
610,71	0,607
610,91	0,517
611,11	0,634
611,31	0,544
611,51	0,552
611,71	0,606
611,91	0,781
612,11	0,660
612,31	0,850
612,51	0,601
612,71	0,789
612,91	0,708
613,11	1,014
613,31	1,111
613,51	1,306
613,71	1,637
613,91	2,130
614,11	2,668
614,31	3,296
614,50	4,210
614,70	5,363
614,90	6,646
615,10	8,364
615,30	10,860
615,50	12,838
615,70	16,069
615,90	19,521
616,10	23,738
616,30	27,887
616,50	32,487
616,70	37,620
616,90	42,579
617,10	47,400
617,30	51,912
617,50	57,669
617,70	61,851
617,90	66,802
618,10	69,788
618,30	73,982
618,50	77,512
618,70	79,381
618,90	82,248
619,10	84,846
619,30	86,978
619,49	88,167
619,69	89,592
619,89	91,450
620,09	92,619
620,29	92,278
620,49	94,517
620,69	93,792
620,89	94,733
621,09	93,610
621,29	95,406
621,49	94,809
621,69	94,632
621,89	95,277
622,09	95,021
622,29	95,304
622,48	95,041
622,68	95,616
622,88	96,149
623,08	95,135
623,28	95,860
623,48	96,132
623,68	96,750
623,88	96,951
624,08	97,475
624,28	97,016
624,48	97,162
624,67	98,570
624,87	97,623
625,07	98,045
625,27	98,216
625,47	98,418
625,67	98,152
625,87	98,445
626,07	97,695
626,27	96,789
626,47	96,857
626,66	96,520
626,86	97,545
627,06	96,257
627,26	97,418
627,46	96,266
627,66	97,468
627,86	97,602
628,06	97,463
628,25	96,986
628,45	96,926
628,65	97,190
628,85	97,790
629,05	97,068
629,25	97,376
629,45	97,836
629,65	97,567
629,84	97,482
630,04	97,178
630,24	97,870
630,44	96,795
630,64	97,658
630,84	96,759
631,04	96,385
631,23	96,237
631,43	95,872
631,63	95,508
631,83	92,927
632,03	93,883
632,23	91,989
632,42	92,010
632,62	89,971
632,82	89,097
633,02	86,670
633,22	85,005
633,42	81,973
633,62	81,528
633,81	78,732
634,01	76,682
634,21	73,558
634,41	70,375
634,61	68,430
634,80	65,969
635,00	63,342
635,20	61,247
635,40	57,920
635,60	55,991
635,80	52,696
635,99	50,390
636,19	46,327
636,39	43,297
636,59	39,342
636,79	36,306
636,98	33,076
637,18	29,090
637,38	26,016
637,58	22,597
637,78	19,218
637,97	16,423
638,17	14,098
638,37	11,315
638,57	9,128
638,77	7,687
638,96	6,328
639,16	5,170
639,36	4,076
639,56	3,322
639,76	2,592
639,95	2,116
640,15	1,575
640,35	1,383
640,55	1,294
640,75	1,134
640,94	0,848
641,14	0,999
641,34	0,852
641,54	0,782
641,73	0,569
641,93	0,829
642,13	0,613
642,33	0,580
642,53	0,882
642,72	0,546
642,92	0,651
643,12	0,778
643,32	0,983
643,51	0,988
643,71	0,388
643,91	0,745
644,11	0,931
644,30	0,590
644,50	1,116
644,70	0,634
644,90	0,992
645,09	0,616
645,29	0,822
645,49	0,527
645,69	0,582
645,88	0,836
646,08	0,782
646,28	0,913
646,48	0,656
646,67	0,561
646,87	0,827
647,07	0,619
647,26	0,835
647,46	0,620
647,66	0,614
647,86	0,854
648,05	0,895
648,25	1,160
648,45	0,650
648,65	0,466
648,84	0,353
649,04	0,852
649,24	1,010
649,43	0,756
649,63	0,629
649,83	0,760
650,03	1,107
650,22	0,800
650,42	0,484
650,62	0,760
650,81	0,572
651,01	0,926
651,21	0,897
651,40	0,727
651,60	0,503
651,80	0,425
652,00	1,008
652,19	0,631
652,39	0,944
652,59	0,922
652,78	0,616
652,98	0,257
653,18	0,736
653,37	1,070
653,57	0,917
653,77	0,878
653,96	0,687
654,16	0,840
654,36	0,636
654,55	0,463
654,75	0,820
654,95	0,724
655,14	0,569
655,34	1,410
655,54	0,981
655,73	0,426
655,93	0,794
656,13	0,435
656,32	0,414
656,52	0,715
656,72	0,573
656,91	0,847
657,11	0,785
657,31	0,522
657,50	0,923
657,70	0,885
657,90	0,556
658,09	1,146
658,29	0,657
658,49	0,445
658,68	0,408
658,88	0,959
659,07	0,645
659,27	0,436
659,47	0,758
659,66	0,742
659,86	0,376
660,06	0,294
660,25	0,495
660,45	0,686
660,64	0,615
660,84	0,680
661,04	0,691
661,23	0,653
661,43	0,553
661,63	0,688
661,82	0,555
662,02	0,843
662,21	0,593
662,41	1,320
662,61	1,008
662,80	0,439
663,00	0,321
663,19	1,092
663,39	0,216
663,59	1,016
663,78	0,490
663,98	0,556
664,17	0,988
664,37	0,681
664,57	0,737
664,76	0,620
664,96	0,554
665,15	0,579
665,35	0,822
665,55	0,487
665,74	0,911
665,94	0,405
666,13	0,623
666,33	0,928
666,53	0,551
666,72	0,430
666,92	0,585
667,11	0,982
667,31	0,124
667,50	0,488
667,70	0,912
667,90	0,302
668,09	0,492
668,29	0,442
668,48	0,512
668,68	0,366
668,87	0,774
669,07	0,408
669,26	0,785
669,46	0,761
669,66	0,665
669,85	0,671
670,05	0,466
670,24	0,552
670,44	0,645
670,63	0,374
670,83	0,367
671,02	0,571
671,22	0,628
671,42	0,463
671,61	0,157
671,81	0,785
672,00	0,855
672,20	0,349
672,39	0,413
672,59	0,285
672,78	0,438
672,98	0,708
673,17	0,348
673,37	0,195
673,56	0,581
673,76	0,015
673,95	0,598
674,15	0,440
674,34	0,514
674,54	0,656
674,73	0,519
674,93	0,376
675,13	0,467
675,32	0,631
675,52	0,490
675,71	0,370
675,91	0,572
676,10	0,474
676,30	0,638
676,49	0,102
676,69	0,482
676,88	0,573
677,08	0,131
677,27	0,391
677,47	0,475
677,66	0,498
677,86	0,851
678,05	0,339
678,24	0,299
678,44	0,778
678,63	0,436
678,83	0,452
679,02	0,455
679,22	0,512
679,41	0,565
679,61	0,333
679,80	0,154
680,00	0,302
680,19	0,456
680,39	0,377
680,58	0,465
680,78	0,230
680,97	0,404
681,17	0,368
681,36	0,198
681,56	0,427
681,75	0,184
681,94	0,171
682,14	0,591
682,33	0,461
682,53	0,276
682,72	0,360
682,92	0,635
683,11	0,200
683,31	0,367
683,50	0,324
683,69	0,242
683,89	0,488
684,08	0,405
684,28	0,082
684,47	0,356
684,67	0,243
684,86	0,360
685,06	0,341
685,25	0,327
685,44	0,174
685,64	0,398
685,83	0,309
686,03	0,183
686,22	0,344
686,42	0,185
686,61	0,118
686,80	0,219
687,00	0,198
687,19	0,453
687,39	0,284
687,58	0,269
687,77	0,513
687,97	0,304
688,16	0,330
688,36	0,096
688,55	0,312
688,74	0,132
688,94	0,132
689,13	0,252
689,33	0,058
689,52	0,363
689,71	0,228
689,91	0,214
690,10	0,326
690,30	0,153
690,49	0,175
690,68	0,242
690,88	0,151
691,07	0,289
691,27	0,216
691,46	0,308
691,65	0,134
691,85	0,236
692,04	0,139
692,23	0,178
692,43	0,242
692,62	0,287
692,82	0,341
693,01	0,251
693,20	0,214
693,40	0,216
693,59	0,122
693,78	0,238
693,98	0,102
694,17	0,262
694,36	0,444
694,56	0,131
694,75	0,303
694,94	0,179
695,14	0,201
695,33	0,277
695,53	0,298
695,72	0,521
695,91	0,056
696,11	0,089
696,30	0,288
696,49	0,342
696,69	0,147
696,88	0,163
697,07	0,275
697,27	0,170
697,46	0,352
697,65	0,290
697,85	0,094
698,04	0,195
698,23	0,189
698,43	0,356
698,62	-0,013
698,81	0,526
699,01	0,670
699,20	0,512
699,39	0,317
699,58	0,173
699,78	0,329
699,97	0,479
700,16	0,234
700,36	0,526
700,55	0,880
700,74	0,622
700,94	0,260
701,13	0,341
701,32	0,282
701,52	0,219
701,71	0,512
701,90	0,662
702,09	0,726
702,29	0,919
702,48	0,034
702,67	1,094
702,87	1,232
703,06	0,664
703,25	1,259
703,44	0,712
703,64	0,760
703,83	0,716
704,02	0,966
704,22	1,107
704,41	0,588
704,60	0,872
704,79	1,170
704,99	1,787
705,18	1,694
705,37	1,724
705,56	1,231
705,76	1,319
705,95	1,160
706,14	1,335
706,33	0,394
706,53	1,500
706,72	0,963
706,91	2,060
707,11	1,032
707,30	1,145
707,49	1,779
707,68	1,659
707,88	1,116
708,07	0,219
708,26	0,721
708,45	1,168
708,64	1,013
708,84	1,132
709,03	2,433
709,22	1,505
709,41	3,271
709,61	0,725
709,80	2,907
709,99	2,073
710,18	2,929
710,38	1,636
710,57	1,684
710,76	1,213
710,95	1,724
711,14	2,317
711,34	1,893
711,53	3,185
711,72	4,069
711,91	2,804
712,11	3,791
712,30	0,308
712,49	1,646
712,68	0,673
712,87	1,673
713,07	3,493
713,26	3,998
713,45	1,998
713,64	2,226
713,83	2,287
714,03	0,940
714,22	1,855
714,41	2,933
714,60	1,139
714,79	-0,480
714,99	1,421
715,18	5,222
715,37	3,297
715,56	2,946
715,75	4,652
715,94	2,707
716,14	4,396
716,33	2,237
716,52	2,725
716,71	4,410
716,90	2,109
717,10	1,448
717,29	3,770
717,48	1,724
717,67	2,651
717,86	3,864
718,05	3,337
718,24	2,794
718,44	5,732
718,63	2,068
718,82	4,997
719,01	4,172
719,20	4,317
719,39	3,660
719,59	2,344
719,78	4,208
719,97	5,622
720,16	5,780
720,35	2,959
720,54	0,559
720,73	6,689
720,93	3,688
721,12	3,233
721,31	4,810
721,50	5,818
721,69	4,461
721,88	7,604
722,07	4,351
722,27	7,806
722,46	3,448
722,65	3,415
722,84	3,226
723,03	4,163
723,22	9,106
723,41	5,482
723,60	1,962
723,79	8,086
723,99	3,101
724,18	5,156
724,37	0,000
724,56	5,537
724,75	5,391
724,94	7,432
725,13	1,373
725,32	5,851
725,51	5,116
725,71	5,413
725,90	6,522
726,09	5,479
726,28	6,101
726,47	3,057
726,66	6,408
726,85	1,422
727,04	0,815
727,23	5,731
727,42	9,681
727,61	7,202
727,81	-0,432
728,00	5,717
728,19	9,209
728,38	2,183
728,57	5,938
728,76	5,794
728,95	12,917
729,14	6,926
729,33	8,495
729,52	4,499
729,71	5,098
729,90	9,560
730,09	4,098
730,28	8,733
730,48	5,530
730,67	8,259
730,86	7,447
731,05	1,400
731,24	-0,610
731,43	9,640
731,62	9,164
731,81	3,065
732,00	13,892
732,19	2,404
732,38	3,077
732,57	7,702
732,76	5,882
732,95	-0,644
733,14	6,456
733,33	-1,058
733,52	6,320
733,71	6,600
733,90	1,271
734,09	11,216
734,28	11,024
734,47	9,167
734,66	3,877
734,85	5,286
735,04	7,989
735,23	2,661
735,42	9,563
735,61	8,892
735,81	12,130
736,00	8,262
736,19	7,143
736,38	8,683
736,57	12,483
736,76	12,409
736,95	8,280
737,14	12,281
737,33	13,437
737,52	6,308
737,71	0,820
737,90	10,510
738,09	11,416
738,28	10,164
738,47	7,664
738,66	4,808
738,85	10,360
739,04	10,120
739,22	3,846
739,41	8,456
739,60	8,020
739,79	0,540
739,98	1,254
740,17	14,334
740,36	8,318
740,55	13,854
740,74	14,580
740,93	14,340
741,12	11,964
741,31	3,521
741,50	6,994
741,69	11,681
741,88	-2,174
742,07	16,486
742,26	7,619
742,45	18,238
742,64	0,548
742,83	13,274
743,02	4,000
743,21	10,289
743,40	3,313
743,59	13,971
743,78	12,720
743,97	12,500
744,16	10,236
744,34	7,226
744,53	14,845
744,72	16,910
744,91	4,412
745,10	14,046
745,29	13,710
745,48	11,591
745,67	12,528
745,86	12,804
746,05	12,322
746,24	15,876
746,43	5,139
746,62	14,871
746,81	15,955
747,00	21,225
747,18	18,301
747,37	22,947
747,56	17,882
747,75	5,665
747,94	18,689
748,13	19,911
748,32	8,333
748,51	14,975
748,70	7,709
748,89	12,881
749,08	-4,651
749,26	11,894
749,45	6,166
749,64	16,625
749,83	13,708
750,02	30,163
750,21	3,562
750,40	23,279
750,59	4,290
750,78	21,446
750,96	18,232
751,15	15,187
751,34	5,966
751,53	7,923
751,72	13,521
751,91	11,917
752,10	14,398
752,29	14,400
752,47	14,900
752,66	19,683
752,85	17,760
753,04	13,687
753,23	9,907
753,42	10,782
753,61	4,389
753,80	9,622
753,98	19,444
754,17	19,149
754,36	21,613
754,55	17,470
754,74	22,403
754,93	22,865
755,12	13,056
755,30	9,416
755,49	8,140
755,68	15,337
755,87	13,609
756,06	24,306
756,25	23,100
756,43	6,711
756,62	18,944
756,81	21,523
757,00	12,500
757,19	19,792
757,38	11,583
757,56	6,000
757,75	29,693
757,94	0,000
758,13	15,753
758,32	13,947
758,51	11,111
758,69	3,861
758,88	9,764
759,07	28,743
759,26	21,908
759,45	5,263
759,63	16,450
759,82	20,702
760,01	16,850
760,20	33,019
760,39	21,767
760,57	18,118
760,76	24,042
760,95	22,569
761,14	30,292
761,33	29,355
761,51	23,929
761,70	40,892
761,89	20,889
762,08	21,933
762,27	24,188
762,45	15,217
762,64	27,638
762,83	33,865
763,02	11,739
763,21	23,000
763,39	5,245
763,58	11,152
763,77	13,502
763,96	13,546
764,14	28,750
764,33	4,286
764,52	34,821
764,71	31,475
764,89	27,232
765,08	29,557
765,27	19,574
765,46	35,874
765,65	34,902
765,83	55,204
766,02	18,095
766,21	29,508
766,40	24,514
766,58	7,937
766,77	38,073
766,96	28,455
767,15	45,798
767,33	14,976
767,52	26,638
767,71	17,982
767,90	15,578
768,08	35,329
768,27	38,618
768,46	38,596
768,64	13,889
768,83	45,098
769,02	8,867
769,21	27,083
769,39	47,857
769,58	31,169
769,77	44,149
769,96	25,676
770,14	10,383
770,33	31,308
770,52	66,187
770,70	34,595
770,89	57,297
771,08	6,024
771,27	24,211
771,45	20,588
771,64	40,606
771,83	26,961
772,01	44,330
772,20	27,363
772,39	6,962
772,57	30,846
772,76	29,054
772,95	25,287
773,14	59,184
773,32	18,079
773,51	30,952
773,70	29,496
773,88	36,774
774,07	50,254
774,26	35,484
774,44	52,632
774,63	32,934
774,82	42,857
775,00	23,832
775,19	19,048
775,38	30,319
775,56	39,752
775,75	36,813
775,94	40,000
776,12	23,529
776,31	42,857
776,50	27,397
776,68	37,097
776,87	40,191
777,06	32,704
777,24	42,857
777,43	26,738
777,62	48,876
777,80	53,459
777,99	65,833
778,18	41,954
778,36	83,898
778,55	-3,390
778,74	35,938
778,92	54,321
779,11	67,273
779,29	9,929
779,48	50,355
779,67	53,153
779,85	14,035
780,04	36,957
780,23	44,048
780,41	44,915
780,60	51,007
780,79	24,194
780,97	49,020
781,16	35,106
781,34	49,324
781,53	35,714
781,72	29,730
781,90	60,479
782,09	56,977
782,28	53,061
782,46	53,571
782,65	44,366
782,83	31,447
783,02	70,175
783,21	50,376
783,39	76,471
783,58	49,565
783,76	49,660
783,95	60,563
784,14	57,895
784,32	15,294
784,51	71,622
784,69	3,906
784,88	43,925
785,06	39,073
785,25	70,213
785,44	50,000
785,62	37,857
785,81	59,259
785,99	48,872
786,18	58,559
786,37	45,055
786,55	32,639
786,74	36,364
786,92	54,545
787,11	20,833
787,29	32,143
787,48	104,301
787,67	38,679
787,85	102,532
788,04	31,532
788,22	45,545
788,41	49,606
788,59	48,026
788,78	48,352
788,96	55,372
789,15	70,000
789,34	50,000
789,52	80,645
789,71	64,748
789,89	42,857
790,08	112,500
790,26	57,325
790,45	125,000
790,63	13,793
790,82	44,615
791,00	65,487
791,19	51,200
791,38	22,857
791,56	65,455
791,75	48,611
791,93	64,000
792,12	69,565
792,30	63,504
792,49	56,566
792,67	47,794
792,86	52,000
793,04	67,593
793,23	62,105
793,41	41,304
793,60	63,194
793,78	53,333
793,97	59,028
794,15	99,248
794,34	76,000
794,52	58,065
794,71	39,535
794,89	57,576
795,08	68,000
795,26	49,333
795,45	59,722
795,63	59,677
795,82	70,330
796,00	42,000
796,19	54,472
796,37	53,435
796,56	4,854
796,74	17,895
796,93	6,061
797,11	40,964
797,30	58,333
797,48	63,281
797,67	51,220
797,85	45,385
798,04	27,119
798,22	116,667
798,41	55,769
798,59	75,238
798,77	9,639
798,96	54,938
799,14	74,194
799,33	72,477
799,51	83,333
799,70	96,923
799,88	77,064
800,07	90,840
800,25	59,036
800,44	131,481
800,62	105,556
800,80	42,254
800,99	158,904
801,17	72,414
801,36	64,286
801,54	66,000
801,73	91,579
801,91	87,603
802,10	40,000
802,28	70,400
802,46	61,842
802,65	76,259
802,83	38,667
803,02	53,226
803,20	127,711
803,39	63,218
803,57	59,843
803,75	57,724
803,94	61,905
804,12	80,000
804,31	65,217
804,49	57,600
804,67	30,882
804,86	67,257
805,04	27,711
805,23	72,566
805,41	34,167
805,59	78,767
805,78	94,400
805,96	25,301
806,15	74,257
806,33	61,842
806,51	68,000
806,70	60,150
806,88	116,279
807,07	88,288
807,25	102,198
807,43	67,857
807,62	72,566
807,80	91,429
807,99	77,692
808,17	29,921
808,35	68,000
808,54	65,942
808,72	37,838
808,90	36,301
809,09	34,783
809,27	62,667
809,46	112,088
809,64	53,659
809,82	55,629
810,01	66,406
810,19	66,667
810,37	74,219
810,56	97,778
810,74	75,325
810,92	33,333
811,11	29,825
811,29	99,057
811,48	38,462
811,66	62,921
811,84	56,044
812,03	78,689
812,21	59,649
812,39	43,478
812,58	73,684
812,76	67,626
812,94	79,518
813,13	88,298
813,31	51,000
813,49	49,074
813,68	60,909
813,86	46,067
814,04	42,149
814,23	45,181
814,41	49,438
814,59	70,874
814,78	44,853
814,96	55,346
815,14	107,477
815,33	44,961
815,51	55,906
815,69	41,905
815,87	59,406
816,06	74,783
816,24	55,280
816,42	56,618
816,61	55,975
816,79	77,586
816,97	86,364
817,16	43,195
817,34	39,683
817,52	55,372
817,70	73,267
817,89	37,778
818,07	16,438
818,25	25,510
818,44	58,974
818,62	28,682
818,80	47,368
818,98	40,127
819,17	56,303
819,35	28,191
819,53	62,687
819,72	48,734
819,90	72,093
820,08	47,863
820,26	71,552
820,45	34,228
820,63	104,464
820,81	52,800
820,99	59,574
821,18	48,980
821,36	45,570
821,54	55,172
821,73	47,222
821,91	51,754
822,09	42,742
822,27	42,581
822,46	44,118
822,64	37,600
822,82	41,436
823,00	11,050
823,19	36,813
823,37	49,091
823,55	19,886
823,73	60,000
823,91	62,319
824,10	53,763
824,28	63,317
824,46	-7,767
824,64	65,132
824,83	70,807
825,01	32,000
825,19	34,677
825,37	76,522
825,56	47,170
825,74	40,306
825,92	56,688
826,10	47,159
826,28	22,024
826,47	40,000
826,65	63,830
826,83	22,414
827,01	32,948
827,19	41,071
827,38	28,395
827,56	38,068
827,74	26,816
827,92	33,721
828,10	35,256
828,29	50,296
828,47	52,439
828,65	43,846
828,83	2,424
829,01	57,609
829,20	29,121
829,38	47,159
829,56	36,957
829,74	17,610
829,92	10,317
830,10	29,310
830,29	33,166
830,47	39,698
830,65	10,976
830,83	27,679
831,01	37,500
831,20	44,175
831,38	32,536
831,56	28,837
831,74	33,175
831,92	69,737
832,10	34,286
832,29	33,784
832,47	21,910
832,65	41,176
832,83	27,700
833,01	36,500
833,19	15,837
833,37	58,824
833,56	32,911
833,74	29,902
833,92	26,852
834,10	17,427
834,28	41,772
834,46	48,869
834,64	30,093
834,83	26,364
835,01	46,058
835,19	37,600
835,37	22,727
835,55	30,729
835,73	41,872
835,91	34,317
836,09	24,335
836,28	35,793
836,46	20,800
836,64	36,090
836,82	24,887
837,00	25,725
837,18	22,677
837,36	29,084
837,54	45,455
837,72	16,810
837,91	29,478
838,09	28,685
838,27	22,333
838,45	29,078
838,63	22,426
838,81	17,722
838,99	29,839
839,17	20,946
839,35	27,660
839,53	24,561
839,72	18,797
839,90	32,646
840,08	24,308
840,26	49,603
840,44	24,471
840,62	25,517
840,80	37,075
840,98	29,412
841,16	17,490
841,34	9,699
841,52	32,722
841,70	29,538
841,89	12,097
842,07	26,646
842,25	42,816
842,43	20,690
842,61	24,211
842,79	29,096
842,97	26,059
843,15	24,092
843,33	10,726
843,51	15,361
843,69	29,915
843,87	35,448
844,05	27,052
844,23	30,631
844,41	7,837
844,59	33,429
844,77	21,849
844,95	27,457
845,13	25,231
845,31	6,977
845,50	24,869
845,68	19,614
845,86	8,046
846,04	27,374
846,22	10,899
846,40	18,548
846,58	19,658
846,76	24,731
846,94	18,953
847,12	20,466
847,30	17,784
847,48	12,074
847,66	22,167
847,84	15,574
848,02	22,222
848,20	11,111
848,38	9,972
848,56	17,898
848,74	23,389
848,92	18,953
849,10	22,750
849,28	10,931
849,46	25,867
849,64	15,012
849,82	11,420
850,00	21,028
850,18	11,702
850,36	10,596
850,54	14,035
850,72	21,337
850,90	15,870
851,08	15,755
851,26	17,068
851,44	10,841
851,62	15,349
851,80	8,811
851,98	16,484
852,16	27,896
852,34	7,629
852,52	22,545
852,70	14,351
852,87	12,785
853,05	13,450
853,23	23,093
853,41	21,995
853,59	14,315
853,77	11,310
853,95	21,097
854,13	12,832
854,31	23,203
854,49	13,174
854,67	6,048
854,85	8,489
855,03	22,445
855,21	22,947
855,39	9,054
855,57	13,082
855,75	19,161
855,93	6,667
856,11	14,507
856,28	12,362
856,46	19,573
856,64	15,048
856,82	13,918
857,00	13,590
857,18	12,816
857,36	14,840
857,54	12,803
857,72	15,965
857,90	5,351
858,08	16,471
858,26	9,938
858,44	8,577
858,61	10,105
858,79	17,474
858,97	9,735
859,15	17,492
859,33	15,625
859,51	15,745
859,69	5,367
859,87	9,885
860,05	2,664
860,23	13,799
860,40	14,235
860,58	14,918
860,76	8,571
860,94	8,455
861,12	13,538
861,30	11,617
861,48	15,143
861,66	15,238
861,84	8,670
862,01	13,255
862,19	4,068
862,37	7,413
862,55	12,248
862,73	10,062
862,91	7,342
863,09	8,333
863,27	7,902
863,44	3,244
863,62	8,424
863,80	10,408
863,98	7,864
864,16	6,214
864,34	10,184
864,52	8,579
864,69	9,211
864,87	7,525
865,05	11,837
865,23	9,150
865,41	8,737
865,59	9,287
865,76	13,583
865,94	14,212
866,12	5,419
866,30	7,994
866,48	12,607
866,66	4,435
866,83	13,359
867,01	9,591
867,19	8,453
867,37	9,185
867,55	11,231
867,73	12,740
867,90	7,186
868,08	8,102
868,26	9,191
868,44	3,165
868,62	8,845
868,79	6,415
868,97	4,534
869,15	4,640
869,33	5,739
869,51	6,504
869,69	10,488
869,86	10,058
870,04	11,609
870,22	6,217
870,40	6,316
870,57	9,343
870,75	8,729
870,93	6,211
871,11	7,359
871,29	6,050
871,46	8,057
871,64	8,787
871,82	8,934
872,00	14,300
872,18	7,911
872,35	9,157
872,53	4,825
872,71	9,082
872,89	9,766
873,06	7,061
873,24	8,826
873,42	5,159
873,60	10,537
873,77	6,339
873,95	4,447
874,13	0,846
874,31	6,295
874,49	5,712
874,66	7,613
874,84	6,419
875,02	9,624
875,20	10,936
875,37	8,118
875,55	5,630
875,73	5,594
875,91	7,714
876,08	7,221
876,26	3,004
876,44	6,777
876,61	7,413
876,79	8,486
876,97	4,197
877,15	6,079
877,32	7,502
877,50	5,464
877,68	1,114
877,86	2,209
878,03	7,279
878,21	4,988
878,39	5,854
878,56	2,231
878,74	5,887
878,92	3,390
879,10	3,920
879,27	8,635
879,45	6,878
879,63	5,202
879,80	5,988
879,98	2,182
880,16	6,114
880,34	5,822
880,51	2,445
880,69	5,357
880,87	5,666
881,04	6,078
881,22	4,788
881,40	5,598
881,57	6,952
881,75	7,479
881,93	9,219
882,10	4,638
882,28	6,552
882,46	6,164
882,63	4,109
882,81	8,110
882,99	6,128
883,16	2,037
883,34	4,011
883,52	3,085
883,69	7,138
883,87	0,326
884,05	4,872
884,22	1,696
884,40	2,925
884,58	3,933
884,75	4,688
884,93	3,345
885,11	4,730
885,28	3,431
885,46	2,091
885,64	6,639
885,81	4,240
885,99	2,230
886,17	2,561
886,34	4,125
886,52	4,196
886,70	5,981
886,87	0,489
887,05	3,086
887,22	4,206
887,40	5,000
887,58	4,383
887,75	2,694
887,93	4,785
888,11	4,173
888,28	3,822
888,46	3,692
888,63	2,151
888,81	2,032
888,99	5,859
889,16	5,119
889,34	1,093
889,51	4,052
889,69	3,226
889,87	4,026
890,04	3,547
890,22	3,267
890,39	1,588
890,57	5,188
890,75	3,132
890,92	2,818
891,10	3,189
891,27	2,459
891,45	3,067
891,63	4,661
891,80	3,721
891,98	2,161
892,15	1,283
892,33	2,907
892,51	3,664
892,68	3,351
892,86	2,006
893,03	2,517
893,21	4,576
893,38	3,267
893,56	2,811
893,74	1,395
893,91	4,160
894,09	4,756
894,26	3,173
894,44	2,984
894,61	1,744
894,79	2,166
894,96	3,157
895,14	3,517
895,32	2,496
895,49	4,346
895,67	3,083
895,84	2,243
896,02	0,430
896,19	1,098
896,37	1,622
896,54	1,361
896,72	2,354
896,89	3,720
897,07	4,339
897,25	2,730
897,42	2,346
897,60	3,084
897,77	4,344
897,95	3,720
898,12	4,137
898,30	3,588
898,47	2,135
898,65	2,741
898,82	2,331
899,00	2,517
899,17	3,546
899,35	1,497
899,52	4,187
899,70	3,701
899,87	2,367
900,05	2,740
900,22	2,781
900,40	2,950
900,57	2,486
900,75	1,494
900,92	2,299
901,10	2,717
901,27	3,183
901,45	4,427
901,62	3,110
901,80	2,799
901,97	3,885
902,15	3,025
902,32	3,270
902,50	1,686
902,67	4,625
902,85	1,569
903,02	2,607
903,20	2,355
903,37	1,637
903,54	2,155
903,72	4,004
903,89	1,685
904,07	1,854
904,24	2,415
904,42	1,479
904,59	0,536
904,77	2,936
904,94	1,952
905,12	1,736
905,29	1,581
905,47	2,475
905,64	2,825
905,81	1,113
905,99	1,225
906,16	2,255
906,34	3,252
906,51	2,694
906,69	2,312
906,86	1,809
907,03	2,422
907,21	1,693
907,38	2,383
907,56	2,563
907,73	3,042
907,91	1,482
908,08	2,675
908,25	2,808
908,43	1,812
908,60	0,971
908,78	1,508
908,95	2,551
909,13	2,480
909,30	1,921
909,47	1,142
909,65	2,712
909,82	1,460
910,00	2,230
910,17	2,748
910,34	2,217
910,52	1,682
910,69	0,662
910,87	2,726
911,04	1,817
911,21	2,998
911,39	1,125
911,56	2,086
911,73	2,043
911,91	0,422
912,08	2,204
912,26	1,631
912,43	2,930
912,60	1,941
912,78	1,741
912,95	2,070
913,13	1,732
913,30	3,440
913,47	2,693
913,65	2,082
913,82	3,256
913,99	1,309
914,17	1,146
914,34	1,177
914,51	3,315
914,69	1,636
914,86	3,395
915,03	1,123
915,21	2,067
915,38	1,966
915,56	2,473
915,73	0,341
915,90	2,062
916,08	2,320
916,25	2,259
916,42	1,775
916,60	2,418
916,77	1,793
916,94	2,642
917,12	2,309
917,29	2,206
917,46	0,879
917,64	2,392
917,81	1,698
917,98	1,064
918,16	1,552
918,33	2,806
918,50	2,260
918,67	2,105
918,85	0,462
919,02	1,709
919,19	1,929
919,37	1,650
919,54	1,685
919,71	2,249
919,89	1,823
920,06	2,408
920,23	2,251
920,41	2,070
920,58	0,884
920,75	1,540
920,92	1,446
921,10	1,566
921,27	1,125
921,44	2,855
921,62	0,882
921,79	1,737
921,96	1,325
922,13	2,002
922,31	1,483
922,48	0,835
922,65	1,896
922,82	1,455
923,00	1,159
923,17	1,442
923,34	1,332
923,52	1,264
923,69	1,242
923,86	2,381
924,03	1,699
924,21	1,394
924,38	1,731
924,55	1,917
924,72	1,299
924,90	1,048
925,07	1,678
925,24	1,792
925,41	1,906
925,59	0,685
925,76	0,346
925,93	2,294
926,10	0,771
926,28	1,248
926,45	0,386
926,62	1,736
926,79	0,911
926,96	2,672
927,14	2,378
927,31	1,810
927,48	1,560
927,65	1,276
927,83	1,125
928,00	1,077
928,17	2,216
928,34	2,321
928,51	0,920
928,69	1,132
928,86	0,984
929,03	1,515
929,20	1,722
929,37	0,766
929,55	1,834
929,72	1,079
929,89	1,026
930,06	1,607
930,23	1,366
930,41	1,644
930,58	1,073
930,75	0,913
930,92	0,732
931,09	1,761
931,27	0,083
931,44	1,555
931,61	1,775
931,78	1,360
931,95	1,143
932,12	2,104
932,30	1,444
932,47	0,392
932,64	0,934
932,81	1,095
932,98	1,179
933,16	1,048
933,33	0,871
933,50	1,099
933,67	1,293
933,84	1,503
934,01	1,148
934,18	1,486
934,36	0,203
934,53	1,690
934,70	1,931
934,87	0,425
935,04	0,997
935,21	1,065
935,38	0,942
935,56	1,492
935,73	0,579
935,90	1,547
936,07	1,570
936,24	2,234
936,41	0,670
936,58	0,474
936,76	0,786
936,93	0,886
937,10	2,309
937,27	1,679
937,44	1,255
937,61	1,367
937,78	1,390
937,95	1,347
938,13	0,971
938,30	1,089
938,47	1,384
938,64	1,580
938,81	1,113
938,98	0,758
939,15	1,629
939,32	1,496
939,49	0,577
939,66	0,656
939,84	0,727
940,01	0,142
940,18	0,931
940,35	0,164
940,52	1,253
940,69	0,809
940,86	1,583
941,03	0,680
941,20	0,749
941,37	0,712
941,54	1,721
941,71	1,569
941,89	0,955
942,06	1,174
942,23	1,613
942,40	0,505
942,57	1,367
942,74	0,914
942,91	2,103
943,08	1,431
943,25	1,664
943,42	0,844
943,59	1,293
943,76	1,576
943,93	-0,067
944,10	0,225
944,27	0,023
944,44	1,406
944,61	1,541
944,79	1,831
944,96	1,086
945,13	0,890
945,30	1,333
945,47	1,762
945,64	1,140
945,81	1,072
945,98	1,787
946,15	1,494
946,32	2,150
946,49	1,460
946,66	2,880
946,83	1,534
947,00	1,933
947,17	0,842
947,34	0,945
947,51	0,837
947,68	2,579
947,85	1,295
948,02	2,740
948,19	0,812
948,36	2,823
948,53	-0,175
948,70	1,243
948,87	2,316
949,04	3,248
949,21	1,527
949,38	2,928
949,55	3,544
949,72	-0,065
949,89	2,330
950,06	2,526
950,23	2,489
950,40	2,984
950,57	1,567
950,74	2,535
950,91	1,247
951,08	3,202
951,25	2,384
951,42	1,809
951,59	0,570
951,76	0,796
951,93	1,641
952,10	0,766
952,27	3,042
952,44	2,850
952,61	1,888
952,77	4,758
952,94	2,806
953,11	2,192
953,28	2,961
953,45	5,965
953,62	4,588
953,79	3,556
953,96	4,169
954,13	2,869
954,30	5,922
954,47	6,126
954,64	0,858
954,81	2,688
954,98	3,708
955,15	1,270
955,32	0,638
955,49	2,760
955,65	4,728
955,82	4,984
955,99	3,503
956,16	5,942
956,33	-1,040
956,50	4,794
956,67	0,363
956,84	8,269
957,01	3,209
957,18	4,106
957,35	5,776
957,52	7,048
957,68	4,950
957,85	10,562
958,02	1,756
958,19	3,468
958,36	8,232
958,53	4,816
958,70	11,442
958,87	2,994
959,04	5,930
959,21	11,988
959,37	9,359
959,54	9,738
959,71	10,077
959,88	1,860
960,05	9,546
960,22	6,918
960,39	6,281
960,56	10,230
960,72	7,895
960,89	10,470
961,06	8,726
961,23	5,352
961,40	11,013
961,57	5,911
961,74	12,135
961,90	6,241
962,07	13,453
962,24	8,989
962,41	18,448
962,58	8,696
962,75	19,145
962,92	5,614
963,08	0,208
963,25	12,550
963,42	15,261
963,59	8,830
963,76	11,928
963,93	15,682
964,10	3,394
964,26	15,476
964,43	7,674
964,60	7,889
964,77	14,094
964,94	18,765
965,10	18,384
965,27	6,983
965,44	15,556
965,61	8,904
965,78	10,870
965,95	18,159
966,11	22,121
966,28	11,732
966,45	18,954
966,62	15,679
966,79	21,160
966,95	20,641
967,12	36,825
967,29	21,914
967,46	27,046
967,63	43,137
967,79	33,221
967,96	36,697
968,13	36,190
968,30	53,498
968,47	28,462
968,63	30,882
968,80	38,314
968,97	37,572
969,14	41,808
969,31	21,429
969,47	34,783
969,64	3,297
969,81	49,032
969,98	24,737
970,14	41,398
970,31	38,994
970,48	59,732
970,65	24,793
970,81	25,874
970,98	52,604
971,15	61,212
971,32	65,909
971,48	73,810
971,65	31,126
971,82	62,727
971,99	50,000
972,15	13,953
972,32	52,778
972,49	62,295
972,66	28,099
972,82	58,219
972,99	68,750
973,16	69,536
973,33	57,778
973,49	121,951
973,66	41,905
973,83	44,444
974,00	72,152
974,16	83,636
974,33	126,667
974,50	74,747
974,67	76,190
974,83	80,612
975,00	94,545
975,17	119,355
975,33	83,908
975,50	118,033
975,67	71,154
975,84	75,610
976,00	102,632
976,17	106,522
976,34	114,118
976,50	86,813
976,67	89,286
976,84	177,083
977,00	50,000
977,17	100,000
977,34	232,692
977,50	146,429
977,67	128,235
977,84	105,085
978,01	75,676
978,17	81,034
978,34	114,815
978,51	156,000
978,67	138,776
978,84	154,545
979,01	113,158
979,17	57,143
979,34	210,870
979,51	118,182
979,67	433,333
979,84	122,034
980,01	84,615
980,17	100,000
980,34	87,671
980,51	777,778
980,67	100,000
980,84	107,143
981,01	279,412
981,17	136,765
981,34	84,286
981,50	111,579
981,67	207,143
981,84	100,000
982,00	6800,000
982,17	135,938
982,34	209,756
982,50	0,000
982,67	-728,571
982,84	345,000
983,00	122,222
983,17	-442,857
983,33	833,333
983,50	139,024
983,67	115,942
983,83	438,095
984,00	269,565
984,17	1188,889
984,33	-235,714
984,50	154,054
984,66	375,000
984,83	537,500
985,00	100,000
985,16	193,548
985,33	3200,000
985,49	110,465
985,66	192,500
985,83	-2833,333
985,99	566,667
986,16	431,579
986,32	135,616
986,49	-1420,000
986,66	660,000
986,82	178,788
986,99	-840,000
987,15	266,667
987,32	458,824
987,49	267,857
987,65	-126,087
987,82	-355,000
987,98	116,667
988,15	928,571
988,31	145,714
988,48	198,039
988,65	600,000
988,81	116,364
988,98	251,351
989,14	500,000
989,31	181,356
989,47	-117,857
989,64	466,667
989,80	123,404
989,97	183,636
990,14	421,429
990,30	-662,500
990,47	-275,000
990,63	281,579
990,80	1233,333
990,96	708,333
991,13	266,667
991,29	207,843
991,46	164,583
991,62	0,000
991,79	-590,000
991,95	364,706
992,12	1500,000
992,29	-261,905
992,45	264,286
992,62	-142,857
992,78	-350,000
992,95	306,452
993,11	675,000
993,28	-3500,000
993,44	-227,586
993,61	205,263
993,77	0,000
993,94	276,923
994,10	614,286
994,27	-71,053
994,43	325,000
994,60	892,857
994,76	260,606
994,93	-680,000
995,09	-393,750
995,26	387,500
995,42	675,000
995,59	156,667
995,75	-650,000
995,92	-1457,143
996,08	-760,000
996,25	221,212
996,41	1480,000
996,58	320,000
996,74	-510,000
996,91	166,129
997,07	424,000
997,23	111,765
997,40	1266,667
997,56	-3433,333
997,73	539,130
997,89	1020,000
998,06	136,842
998,22	238,298
998,39	191,837
998,55	710,526
998,72	-7500,000
998,88	138,000
999,05	686,667
999,21	417,647
999,37	281,395
999,54	374,194
999,70	342,857
999,87	1333,333
1000,03	216,667
1000,20	285,714
1000,36	-1112,500
1000,52	2450,000
1000,69	572,000
1000,85	-550,000
1001,02	395,238
1001,18	1360,000
1001,35	0,000
1001,51	428,571
1001,67	170,000
1001,84	134,146
1002,00	-672,727
1002,17	1450,000
1002,33	-700,000
1002,50	800,000
1002,66	1050,000
1002,82	246,341
1002,99	-227,273
1003,15	-8000,000
1003,32	-392,857
1003,48	-2766,667
1003,64	213,043
1003,81	-73,684
1003,97	184,058
1004,14	-132,727
1004,30	472,727
1004,46	-7500,000
1004,63	-669,231
1004,79	227,027
1004,95	-1640,000
1005,12	-253,846
1005,28	341,667
1005,45	-1133,333
1005,61	400,000
1005,77	-657,143
1005,94	239,130
1006,10	-530,000
1006,26	-166,667
1006,43	233,333
1006,59	367,742
1006,76	-284,000
1006,92	347,826
1007,08	184,848
1007,25	180,556
1007,41	240,909
1007,57	-447,059
1007,74	260,870
1007,90	-264,286
1008,06	-293,333
1008,23	-278,947
1008,39	302,778
1008,55	124,706
1008,72	-762,500
1008,88	-194,286
1009,04	-800,000
1009,21	178,125
1009,37	370,968
1009,53	-515,000
1009,70	-31,818
1009,86	331,579
1010,02	261,364
1010,19	766,667
1010,35	8600,000
1010,51	225,714
1010,68	522,727
1010,84	360,000
1011,00	471,429
1011,17	3800,000
1011,33	219,231
1011,49	500,000
1011,66	428,125
1011,82	-916,667
1011,98	633,333
1012,14	676,923
1012,31	272,727
1012,47	-857,143
1012,63	8000,000
1012,80	472,222
1012,96	155,556
1013,12	-162,963
1013,29	295,833
1013,45	-141,176
1013,61	-1180,000
1013,77	-755,556
1013,94	254,167
1014,10	3800,000
1014,26	-20,588
1014,43	268,421
1014,59	0,000
1014,75	520,000
1014,91	354,286
1015,08	392,308
1015,24	620,000
1015,40	653,333
1015,56	452,941
1015,73	214,286
1015,89	288,889
1016,05	221,622
1016,21	159,259
1016,38	178,947
1016,54	-388,000
1016,70	484,211
1016,86	-338,462
1017,03	0,000
1017,19	637,500
1017,35	300,000
1017,51	600,000
1017,68	1100,000
1017,84	384,211
1018,00	252,381
1018,16	-543,750
1018,33	281,818
1018,49	442,857
1018,65	-340,909
1018,81	-36,585
1018,97	723,077
1019,14	-685,714
1019,30	466,667
1019,46	330,769
1019,62	4050,000
1019,79	-771,429
1019,95	-1400,000
1020,11	600,000
1020,27	235,000
1020,43	-812,500
1020,60	0,000
1020,76	145,588
1020,92	6800,000
1021,08	-120,000
1021,24	-4250,000
1021,41	336,364
1021,57	-387,500
1021,73	0,000
1021,89	-459,091
1022,05	288,571
1022,21	-269,231
1022,38	352,632
1022,54	1800,000
1022,70	259,259
1022,86	-2750,000
1023,02	877,778
1023,19	-490,000
1023,35	181,132
1023,51	274,194
1023,67	157,895
1023,83	936,364
1023,99	322,857
1024,16	-56,923
1024,32	350,000
1024,48	291,837
1024,64	-920,000
1024,80	475,000
1024,96	792,308
1025,12	3000,000
1025,29	-250,000
1025,45	250,000
1025,61	3333,333
1025,77	442,857
1025,93	-0,000
1026,09	4400,000
1026,26	-942,857
1026,42	-1125,000
1026,58	236,538
1026,74	942,857
1026,90	552,632
1027,06	-810,000
1027,22	-516,667
1027,38	844,444
1027,55	-460,000
1027,71	500,000
1027,87	180,000
1028,03	115,152
1028,19	-187,879
1028,35	87,838
1028,51	-79,032
1028,67	-820,000
1028,83	200,000
1029,00	500,000
1029,16	-746,667
1029,32	441,176
1029,48	4600,000
1029,64	885,714
1029,80	1516,667
1029,96	200,000
1030,12	-337,500
1030,28	2625,000
1030,44	-3300,000
1030,61	331,250
1030,77	-260,870
1030,93	179,070
1031,09	-328,571
1031,25	-944,444
1031,41	-2900,000
1031,57	-131,579
1031,73	645,455
1031,89	-245,455
1032,05	1371,429
1032,21	1000,000
1032,37	-194,118
1032,53	-310,000
1032,69	-2800,000
1032,86	1333,333
1033,02	431,250
1033,18	-900,000
1033,34	-107,692
1033,50	283,871
1033,66	-500,000
1033,82	446,429
1033,98	-358,824
1034,14	888,889
1034,30	-22,727
1034,46	270,833
1034,62	438,889
1034,78	161,905
1034,94	-67,742
1035,10	-468,182
1035,26	-955,556
1035,42	240,000
1035,58	1920,000
1035,74	-140,000
1035,90	-683,333
1036,06	198,113
1036,22	-280,000
1036,38	773,333
1036,54	650,000
1036,70	-2900,000
1036,86	-364,286
1037,02	-1950,000
1037,18	-228,571
1037,34	347,826
1037,50	-466,667
1037,66	-2866,667
1037,82	-229,412
1037,98	385,714
1038,14	-241,379
1038,30	1,923
1038,46	108,333
1038,62	161,290
1038,78	166,667
1038,94	-163,158
1039,10	-383,333
1039,26	-336,842
1039,42	-828,571
1039,58	126,415
1039,74	209,375
1039,90	-74,359
1040,06	388,235
>>>>>End Processed Spectral Data<<<<<
