SpectraSuite Data File
++++++++++++++++++++++++++++++++++++
Date: Thu Feb 02 18:01:00 EET 2017
User: optolab
Dark Spectrum Present: Yes
Reference Spectrum Present: Yes
Number of Sampled Component Spectra: 1
Spectrometers: USB4C02475
Integration Time (usec): 100000 (USB4C02475)
Spectra Averaged: 1 (USB4C02475)
Boxcar Smoothing: 0 (USB4C02475)
Correct for Electrical Dark: No (USB4C02475)
Strobe/Lamp Enabled: No (USB4C02475)
Correct for Detector Non-linearity: No (USB4C02475)
Correct for Stray Light: No (USB4C02475)
Number of Pixels in Processed Spectrum: 3648
>>>>>Begin Processed Spectral Data<<<<<
344,91	-1000,000
345,13	-1000,000
345,35	-1000,000
345,57	-335,294
345,79	-21,739
346,00	-108,824
346,22	-1128,571
346,44	-106,061
346,66	327,660
346,87	304,348
347,09	669,231
347,31	9300,000
347,53	-1200,000
347,74	-225,581
347,96	-1228,571
348,18	338,235
348,40	476,471
348,61	-251,282
348,83	8000,000
349,05	217,949
349,27	476,471
349,48	-4250,000
349,70	764,286
349,92	342,857
350,14	237,838
350,35	-653,846
350,57	-616,667
350,79	-107,692
351,01	-566,667
351,22	520,000
351,44	750,000
351,66	177,778
351,87	1566,667
352,09	144,737
352,31	285,714
352,53	354,286
352,74	-957,143
352,96	247,368
353,18	215,625
353,40	-950,000
353,61	480,000
353,83	218,750
354,05	331,250
354,26	450,000
354,48	-1580,000
354,70	304,762
354,92	300,000
355,13	-144,186
355,35	238,889
355,57	206,250
355,78	364,286
356,00	195,745
356,22	90,909
356,44	260,465
356,65	407,143
356,87	333,333
357,09	285,714
357,30	147,727
357,52	-1483,333
357,74	296,774
357,95	200,000
358,17	115,942
358,39	236,000
358,60	263,889
358,82	327,273
359,04	233,333
359,26	163,636
359,47	-784,615
359,69	339,286
359,91	328,000
360,12	340,000
360,34	75,000
360,56	-2000,000
360,77	755,556
360,99	404,167
361,21	230,435
361,42	-2850,000
361,64	-151,852
361,86	155,224
362,07	880,000
362,29	265,000
362,51	321,622
362,72	-1500,000
362,94	303,704
363,16	151,429
363,37	1381,818
363,59	-4900,000
363,81	1062,500
364,02	133,333
364,24	168,182
364,46	371,429
364,67	204,762
364,89	405,882
365,11	305,405
365,32	385,185
365,54	568,750
365,76	184,091
365,97	231,707
366,19	154,386
366,41	630,000
366,62	104,000
366,84	558,333
367,05	141,176
367,27	1580,000
367,49	379,487
367,70	688,889
367,92	147,917
368,14	-430,769
368,35	164,706
368,57	242,424
368,79	126,923
369,00	135,897
369,22	533,333
369,43	515,789
369,65	-248,276
369,87	-382,353
370,08	485,000
370,30	457,143
370,51	609,091
370,73	216,667
370,95	270,000
371,16	157,895
371,38	243,396
371,60	270,000
371,81	138,043
372,03	-900,000
372,24	-206,250
372,46	2400,000
372,68	197,059
372,89	91,743
373,11	200,000
373,32	137,815
373,54	809,091
373,76	527,778
373,97	330,303
374,19	-78,947
374,40	174,286
374,62	647,059
374,84	454,167
375,05	213,462
375,27	364,865
375,48	137,037
375,70	458,824
375,92	182,143
376,13	363,158
376,35	291,667
376,56	115,000
376,78	151,020
376,99	221,212
377,21	237,500
377,43	154,545
377,64	110,000
377,86	506,250
378,07	179,545
378,29	272,222
378,51	130,952
378,72	-377,273
378,94	156,522
379,15	229,545
379,37	468,750
379,58	140,000
379,80	125,000
380,01	194,000
380,23	321,739
380,45	233,333
380,66	162,500
380,88	289,189
381,09	439,130
381,31	305,128
381,52	291,304
381,74	173,214
381,95	342,857
382,17	408,000
382,39	198,387
382,60	605,882
382,82	317,241
383,03	2200,000
383,25	85,185
383,46	800,000
383,68	195,745
383,89	563,636
384,11	138,356
384,32	286,842
384,54	-1142,857
384,76	282,353
384,97	470,000
385,19	400,000
385,40	328,125
385,62	280,645
385,83	182,979
386,05	1300,000
386,26	511,538
386,48	446,154
386,69	355,556
386,91	120,000
387,12	230,769
387,34	184,746
387,55	222,857
387,77	240,000
387,98	191,837
388,20	136,620
388,41	106,349
388,63	184,286
388,84	215,000
389,06	220,930
389,27	118,750
389,49	137,349
389,70	162,712
389,92	120,455
390,13	205,128
390,35	94,792
390,56	184,375
390,78	277,273
390,99	157,778
391,21	136,364
391,42	130,435
391,64	-350,000
391,85	131,034
392,07	-157,143
392,28	300,000
392,50	1100,000
392,71	5600,000
392,93	129,032
393,14	143,478
393,36	137,179
393,57	354,167
393,79	182,540
394,00	90,411
394,22	132,000
394,43	310,714
394,65	300,000
394,86	259,375
395,08	-1275,000
395,29	93,617
395,50	-5500,000
395,72	757,143
395,93	280,000
396,15	-214,286
396,36	166,667
396,58	-357,143
396,79	241,860
397,01	333,333
397,22	131,884
397,44	200,000
397,65	137,838
397,87	158,571
398,08	138,462
398,29	466,667
398,51	229,268
398,72	215,217
398,94	223,256
399,15	120,000
399,37	186,957
399,58	176,190
399,80	300,000
400,01	297,059
400,22	371,429
400,44	423,810
400,65	143,836
400,87	5000,000
401,08	96,629
401,30	157,333
401,51	121,818
401,72	183,871
401,94	187,805
402,15	114,286
402,37	202,273
402,58	179,070
402,80	550,000
403,01	152,778
403,22	142,169
403,44	252,778
403,65	67,347
403,87	160,000
404,08	163,462
404,30	128,125
404,51	101,429
404,72	854,545
404,94	102,410
405,15	192,537
405,37	117,582
405,58	212,903
405,79	428,571
406,01	78,519
406,22	98,810
406,44	92,982
406,65	73,810
406,86	113,000
407,08	45,679
407,29	104,000
407,51	32,692
407,72	56,436
407,93	78,481
408,15	94,318
408,36	211,429
408,58	70,833
408,79	90,698
409,00	56,738
409,22	76,471
409,43	55,856
409,64	57,692
409,86	69,318
410,07	64,348
410,29	50,667
410,50	40,476
410,71	78,226
410,93	-1,980
411,14	68,224
411,35	59,722
411,57	31,250
411,78	52,941
412,00	39,333
412,21	40,708
412,42	23,902
412,64	57,778
412,85	45,596
413,06	34,375
413,28	46,667
413,49	47,442
413,70	59,657
413,92	28,095
414,13	20,949
414,34	34,944
414,56	44,681
414,77	36,900
414,98	44,523
415,20	36,918
415,41	19,805
415,63	23,647
415,84	34,903
416,05	18,976
416,27	27,577
416,48	20,616
416,69	6,395
416,91	16,267
417,12	12,217
417,33	18,736
417,55	24,000
417,76	30,021
417,97	19,663
418,19	6,067
418,40	4,264
418,61	15,094
418,83	16,197
419,04	19,535
419,25	11,005
419,46	13,002
419,68	13,422
419,89	10,804
420,10	12,097
420,32	17,748
420,53	10,740
420,74	13,142
420,96	8,649
421,17	4,219
421,38	5,216
421,60	7,503
421,81	6,306
422,02	7,655
422,23	5,804
422,45	5,837
422,66	8,528
422,87	6,616
423,09	5,923
423,30	5,963
423,51	6,914
423,73	7,208
423,94	4,621
424,15	2,587
424,36	8,226
424,58	5,182
424,79	3,383
425,00	3,660
425,22	4,941
425,43	5,520
425,64	3,025
425,85	4,340
426,07	2,683
426,28	5,926
426,49	3,917
426,71	3,571
426,92	3,535
427,13	3,342
427,34	3,671
427,56	3,345
427,77	2,277
427,98	3,649
428,19	0,737
428,41	2,670
428,62	3,173
428,83	1,643
429,04	3,048
429,26	1,323
429,47	4,330
429,68	1,026
429,89	1,039
430,11	2,546
430,32	3,513
430,53	1,888
430,74	3,738
430,96	1,429
431,17	2,059
431,38	2,315
431,59	1,903
431,81	2,774
432,02	1,911
432,23	3,196
432,44	1,368
432,66	1,749
432,87	1,458
433,08	1,865
433,29	1,577
433,51	2,040
433,72	2,164
433,93	1,065
434,14	1,780
434,35	1,049
434,57	1,130
434,78	2,056
434,99	1,382
435,20	1,709
435,42	1,238
435,63	0,507
435,84	1,528
436,05	1,146
436,26	0,720
436,48	1,643
436,69	1,686
436,90	0,494
437,11	1,626
437,32	1,129
437,54	1,019
437,75	1,351
437,96	1,157
438,17	1,228
438,38	1,197
438,60	1,500
438,81	0,780
439,02	1,224
439,23	1,042
439,44	0,780
439,66	0,933
439,87	0,802
440,08	0,676
440,29	0,996
440,50	1,197
440,72	0,983
440,93	1,081
441,14	0,919
441,35	0,268
441,56	0,874
441,77	0,641
441,99	0,815
442,20	0,715
442,41	0,601
442,62	0,529
442,83	0,655
443,04	0,488
443,26	0,951
443,47	1,061
443,68	0,536
443,89	0,961
444,10	0,788
444,31	0,888
444,53	1,002
444,74	0,702
444,95	0,581
445,16	0,563
445,37	0,873
445,58	0,619
445,80	0,700
446,01	0,878
446,22	0,967
446,43	0,778
446,64	0,618
446,85	0,613
447,06	0,565
447,28	0,763
447,49	0,792
447,70	0,967
447,91	0,700
448,12	0,417
448,33	0,545
448,54	0,500
448,76	0,609
448,97	0,663
449,18	0,659
449,39	0,889
449,60	0,467
449,81	0,848
450,02	0,971
450,23	0,810
450,45	1,008
450,66	0,820
450,87	0,883
451,08	0,689
451,29	1,181
451,50	1,087
451,71	0,983
451,92	0,686
452,13	1,110
452,35	0,986
452,56	0,796
452,77	1,185
452,98	1,096
453,19	1,050
453,40	1,329
453,61	1,503
453,82	0,993
454,03	1,479
454,25	1,054
454,46	1,441
454,67	1,601
454,88	1,547
455,09	1,701
455,30	1,915
455,51	2,370
455,72	3,399
455,93	3,809
456,14	4,970
456,35	6,457
456,56	7,652
456,78	9,928
456,99	12,707
457,20	14,433
457,41	16,969
457,62	20,499
457,83	24,105
458,04	27,976
458,25	30,635
458,46	34,803
458,67	38,429
458,88	43,216
459,09	45,341
459,30	49,351
459,51	52,977
459,73	55,400
459,94	59,772
460,15	63,271
460,36	66,320
460,57	71,354
460,78	76,068
460,99	79,875
461,20	82,993
461,41	85,988
461,62	89,666
461,83	92,620
462,04	92,938
462,25	95,821
462,46	95,666
462,67	96,787
462,88	97,204
463,09	98,347
463,30	96,591
463,51	98,418
463,72	98,130
463,93	97,669
464,15	96,519
464,36	96,057
464,57	96,761
464,78	96,434
464,99	96,465
465,20	97,066
465,41	96,660
465,62	95,522
465,83	96,387
466,04	96,179
466,25	96,456
466,46	95,830
466,67	97,161
466,88	97,885
467,09	96,975
467,30	97,882
467,51	97,082
467,72	97,228
467,93	98,428
468,14	96,950
468,35	95,292
468,56	95,722
468,77	96,829
468,98	95,336
469,19	96,595
469,40	95,955
469,61	95,429
469,82	96,132
470,03	97,079
470,24	97,804
470,45	98,710
470,66	97,791
470,87	97,880
471,08	98,622
471,29	100,041
471,50	99,330
471,71	98,965
471,92	99,138
472,13	99,315
472,34	99,062
472,55	99,759
472,76	98,681
472,97	98,889
473,18	99,452
473,39	98,858
473,60	98,311
473,81	96,971
474,01	98,151
474,22	97,571
474,43	97,674
474,64	96,648
474,85	97,183
475,06	94,794
475,27	96,270
475,48	94,828
475,69	94,172
475,90	93,199
476,11	92,626
476,32	91,220
476,53	90,480
476,74	88,057
476,95	85,505
477,16	84,346
477,37	82,392
477,58	79,035
477,79	78,335
478,00	74,743
478,21	71,412
478,41	67,979
478,62	65,247
478,83	59,890
479,04	54,539
479,25	50,435
479,46	47,004
479,67	42,325
479,88	37,620
480,09	32,875
480,30	28,816
480,51	25,026
480,72	20,854
480,93	17,751
481,14	14,430
481,34	11,507
481,55	9,082
481,76	7,265
481,97	5,450
482,18	4,319
482,39	3,287
482,60	2,460
482,81	1,540
483,02	1,451
483,23	1,009
483,44	0,969
483,65	0,882
483,85	0,541
484,06	0,863
484,27	0,491
484,48	0,500
484,69	0,692
484,90	0,548
485,11	0,683
485,32	0,670
485,53	0,425
485,73	0,703
485,94	0,534
486,15	0,505
486,36	0,545
486,57	0,552
486,78	0,668
486,99	0,531
487,20	0,594
487,41	0,576
487,61	0,352
487,82	0,287
488,03	0,395
488,24	0,434
488,45	0,580
488,66	0,647
488,87	0,600
489,08	0,616
489,28	0,373
489,49	0,500
489,70	0,447
489,91	0,523
490,12	0,363
490,33	0,315
490,54	0,325
490,74	0,470
490,95	0,493
491,16	0,500
491,37	0,624
491,58	0,327
491,79	0,452
492,00	0,315
492,20	0,477
492,41	0,426
492,62	0,385
492,83	0,319
493,04	0,478
493,25	0,469
493,45	0,436
493,66	0,620
493,87	0,303
494,08	0,325
494,29	0,341
494,50	0,288
494,70	0,413
494,91	0,432
495,12	0,325
495,33	0,506
495,54	0,377
495,75	0,458
495,95	0,422
496,16	0,361
496,37	0,272
496,58	0,251
496,79	0,471
496,99	0,161
497,20	0,332
497,41	0,323
497,62	0,433
497,83	0,392
498,04	0,380
498,24	0,316
498,45	0,317
498,66	0,372
498,87	0,407
499,08	0,322
499,28	0,290
499,49	0,442
499,70	0,362
499,91	0,230
500,12	0,395
500,32	0,432
500,53	0,369
500,74	0,610
500,95	0,178
501,15	0,441
501,36	0,432
501,57	0,428
501,78	0,408
501,99	0,364
502,19	0,293
502,40	0,477
502,61	0,346
502,82	0,379
503,02	0,349
503,23	0,219
503,44	0,463
503,65	0,490
503,86	0,255
504,06	0,465
504,27	0,611
504,48	0,275
504,69	0,407
504,89	0,399
505,10	0,317
505,31	0,459
505,52	0,248
505,72	0,618
505,93	0,368
506,14	0,505
506,35	0,460
506,55	0,313
506,76	0,338
506,97	0,513
507,18	0,333
507,38	0,340
507,59	0,421
507,80	0,300
508,01	0,258
508,21	0,455
508,42	0,203
508,63	0,394
508,84	0,442
509,04	0,327
509,25	0,480
509,46	0,356
509,67	0,613
509,87	0,530
510,08	0,494
510,29	0,463
510,49	0,397
510,70	0,409
510,91	0,493
511,12	0,477
511,32	0,609
511,53	0,464
511,74	0,424
511,94	0,334
512,15	0,570
512,36	0,230
512,57	0,465
512,77	0,458
512,98	0,385
513,19	0,393
513,39	0,598
513,60	0,344
513,81	0,600
514,01	0,569
514,22	0,442
514,43	0,494
514,64	0,367
514,84	0,591
515,05	0,557
515,26	0,314
515,46	0,440
515,67	0,326
515,88	0,334
516,08	0,478
516,29	0,395
516,50	0,324
516,70	0,399
516,91	0,511
517,12	0,430
517,32	0,328
517,53	0,387
517,74	0,419
517,95	0,464
518,15	0,465
518,36	0,515
518,57	0,248
518,77	0,637
518,98	0,463
519,19	0,468
519,39	0,438
519,60	0,331
519,80	0,404
520,01	0,479
520,22	0,638
520,42	0,433
520,63	0,534
520,84	0,290
521,04	0,496
521,25	0,506
521,46	0,385
521,66	0,344
521,87	0,435
522,08	0,621
522,28	0,598
522,49	0,487
522,70	0,466
522,90	0,433
523,11	0,433
523,31	0,517
523,52	0,386
523,73	0,367
523,93	0,576
524,14	0,394
524,35	0,628
524,55	0,699
524,76	0,494
524,97	0,435
525,17	0,539
525,38	0,443
525,58	0,386
525,79	0,544
526,00	0,443
526,20	0,439
526,41	0,638
526,61	0,523
526,82	0,458
527,03	0,557
527,23	0,471
527,44	0,450
527,64	0,541
527,85	0,350
528,06	0,667
528,26	0,480
528,47	0,400
528,68	0,497
528,88	0,502
529,09	0,495
529,29	0,514
529,50	0,494
529,70	0,597
529,91	0,368
530,12	0,472
530,32	0,439
530,53	0,546
530,73	0,578
530,94	0,558
531,15	0,573
531,35	0,734
531,56	0,796
531,76	0,632
531,97	0,489
532,17	0,590
532,38	0,702
532,59	0,526
532,79	0,579
533,00	0,415
533,20	0,551
533,41	0,518
533,61	0,478
533,82	0,447
534,03	0,586
534,23	0,690
534,44	0,730
534,64	0,732
534,85	0,932
535,05	0,833
535,26	0,894
535,46	1,219
535,67	1,181
535,88	1,417
536,08	1,719
536,29	1,991
536,49	2,646
536,70	3,402
536,90	4,142
537,11	5,136
537,31	6,106
537,52	7,494
537,72	9,018
537,93	10,831
538,13	12,848
538,34	14,882
538,55	17,700
538,75	19,294
538,96	22,258
539,16	25,377
539,37	27,835
539,57	30,518
539,78	32,842
539,98	34,682
540,19	37,301
540,39	39,095
540,60	40,080
540,80	41,960
541,01	43,539
541,21	44,608
541,42	46,640
541,62	47,824
541,83	49,586
542,03	50,992
542,24	53,440
542,44	55,083
542,65	58,989
542,85	60,514
543,06	64,307
543,26	67,259
543,47	70,068
543,67	74,553
543,88	77,685
544,08	80,410
544,29	82,825
544,49	83,778
544,70	86,302
544,90	88,013
545,11	89,712
545,31	90,322
545,52	91,477
545,72	91,623
545,93	92,604
546,13	92,570
546,34	92,964
546,54	93,319
546,75	93,149
546,95	94,057
547,15	94,097
547,36	93,271
547,56	93,412
547,77	91,895
547,97	91,826
548,18	91,000
548,38	89,630
548,59	89,643
548,79	88,101
549,00	86,920
549,20	84,180
549,41	81,574
549,61	79,422
549,81	76,658
550,02	75,119
550,22	72,108
550,43	70,287
550,63	66,965
550,84	64,353
551,04	63,333
551,25	59,161
551,45	56,797
551,65	54,159
551,86	51,854
552,06	49,416
552,27	47,746
552,47	45,210
552,68	43,219
552,88	41,457
553,08	39,044
553,29	36,784
553,49	34,211
553,70	32,242
553,90	30,250
554,11	27,832
554,31	24,659
554,51	22,086
554,72	19,950
554,92	17,327
555,13	15,227
555,33	12,973
555,53	10,558
555,74	9,095
555,94	7,055
556,15	5,449
556,35	4,477
556,56	3,497
556,76	2,699
556,96	2,244
557,17	2,038
557,37	1,568
557,58	1,056
557,78	0,996
557,98	0,675
558,19	0,539
558,39	0,771
558,59	0,544
558,80	0,485
559,00	0,676
559,21	0,603
559,41	0,531
559,61	0,531
559,82	0,637
560,02	0,507
560,23	0,406
560,43	0,470
560,63	0,260
560,84	0,386
561,04	0,420
561,24	0,439
561,45	0,618
561,65	0,343
561,85	0,263
562,06	0,346
562,26	0,448
562,47	0,657
562,67	0,491
562,87	0,341
563,08	0,402
563,28	0,439
563,48	0,449
563,69	0,235
563,89	0,500
564,09	0,389
564,30	0,399
564,50	0,379
564,70	0,326
564,91	0,361
565,11	0,472
565,31	0,364
565,52	0,296
565,72	0,422
565,92	0,210
566,13	0,277
566,33	0,422
566,53	0,382
566,74	0,337
566,94	0,371
567,14	0,352
567,35	0,327
567,55	0,286
567,75	0,551
567,96	0,341
568,16	0,237
568,36	0,297
568,57	0,328
568,77	0,183
568,97	0,556
569,18	0,447
569,38	0,238
569,58	0,385
569,79	0,302
569,99	0,437
570,19	0,250
570,39	0,427
570,60	0,317
570,80	0,255
571,00	0,216
571,21	0,328
571,41	0,346
571,61	0,374
571,82	0,410
572,02	0,259
572,22	0,159
572,42	0,355
572,63	0,375
572,83	0,376
573,03	0,217
573,24	0,182
573,44	0,413
573,64	0,415
573,84	0,138
574,05	0,306
574,25	0,289
574,45	0,350
574,66	0,425
574,86	0,311
575,06	0,374
575,26	0,393
575,47	0,366
575,67	0,300
575,87	0,440
576,07	0,284
576,28	0,273
576,48	0,318
576,68	0,480
576,88	0,340
577,09	0,302
577,29	0,375
577,49	0,313
577,69	0,085
577,90	0,314
578,10	0,221
578,30	0,379
578,50	0,274
578,71	0,262
578,91	0,325
579,11	0,283
579,31	0,398
579,52	0,360
579,72	0,424
579,92	0,420
580,12	0,438
580,33	0,344
580,53	0,186
580,73	0,345
580,93	0,255
581,13	0,442
581,34	0,205
581,54	0,425
581,74	0,263
581,94	0,357
582,15	0,443
582,35	0,285
582,55	0,334
582,75	0,329
582,95	0,349
583,16	0,320
583,36	0,255
583,56	0,473
583,76	0,195
583,96	0,449
584,17	0,344
584,37	0,297
584,57	0,282
584,77	0,214
584,97	0,183
585,18	0,269
585,38	0,100
585,58	0,379
585,78	0,429
585,98	0,307
586,19	0,274
586,39	0,517
586,59	0,384
586,79	0,440
586,99	0,165
587,20	0,234
587,40	0,447
587,60	0,188
587,80	0,306
588,00	0,410
588,20	0,376
588,41	0,300
588,61	0,395
588,81	0,357
589,01	0,332
589,21	0,439
589,41	0,265
589,62	0,446
589,82	0,212
590,02	0,445
590,22	0,439
590,42	0,412
590,62	0,432
590,83	0,300
591,03	0,269
591,23	0,490
591,43	0,517
591,63	0,361
591,83	0,463
592,03	0,347
592,24	0,539
592,44	0,306
592,64	0,396
592,84	0,393
593,04	0,271
593,24	0,312
593,44	0,381
593,65	0,393
593,85	0,393
594,05	0,450
594,25	0,382
594,45	0,317
594,65	0,295
594,85	0,299
595,06	0,342
595,26	0,541
595,46	0,327
595,66	0,180
595,86	0,165
596,06	0,390
596,26	0,384
596,46	0,417
596,66	0,301
596,87	0,510
597,07	0,358
597,27	0,377
597,47	0,354
597,67	0,420
597,87	0,373
598,07	0,293
598,27	0,425
598,47	0,485
598,67	0,304
598,88	0,458
599,08	0,432
599,28	0,605
599,48	0,311
599,68	0,421
599,88	0,304
600,08	0,404
600,28	0,583
600,48	0,374
600,68	0,280
600,88	0,470
601,09	0,518
601,29	0,553
601,49	0,301
601,69	0,519
601,89	0,429
602,09	0,468
602,29	0,561
602,49	0,269
602,69	0,460
602,89	0,446
603,09	0,458
603,29	0,425
603,49	0,445
603,69	0,518
603,90	0,276
604,10	0,516
604,30	0,588
604,50	0,589
604,70	0,385
604,90	0,571
605,10	0,464
605,30	0,483
605,50	0,640
605,70	0,812
605,90	0,522
606,10	0,801
606,30	0,814
606,50	1,129
606,70	1,111
606,90	1,220
607,10	1,744
607,30	2,107
607,50	2,290
607,70	2,965
607,90	3,686
608,10	4,428
608,30	5,444
608,50	6,496
608,70	8,299
608,90	9,709
609,11	11,446
609,31	13,719
609,51	16,258
609,71	18,835
609,91	21,900
610,11	25,333
610,31	28,958
610,51	32,345
610,71	36,136
610,91	40,296
611,11	43,930
611,31	47,632
611,51	51,514
611,71	55,968
611,91	59,035
612,11	62,582
612,31	65,939
612,51	69,256
612,71	71,658
612,91	74,345
613,11	76,079
613,31	78,921
613,51	81,064
613,71	82,113
613,91	83,820
614,11	85,287
614,31	86,828
614,50	88,068
614,70	87,966
614,90	89,165
615,10	89,526
615,30	90,523
615,50	90,892
615,70	91,729
615,90	92,575
616,10	93,413
616,30	92,599
616,50	92,013
616,70	94,053
616,90	91,552
617,10	94,085
617,30	94,174
617,50	94,376
617,70	94,793
617,90	94,412
618,10	94,980
618,30	95,566
618,50	95,136
618,70	95,220
618,90	96,865
619,10	95,664
619,30	97,220
619,49	96,381
619,69	97,725
619,89	97,324
620,09	98,408
620,29	98,502
620,49	98,604
620,69	97,349
620,89	98,784
621,09	97,365
621,29	97,648
621,49	97,158
621,69	97,267
621,89	98,255
622,09	97,317
622,29	96,368
622,48	96,881
622,68	96,522
622,88	95,973
623,08	94,597
623,28	94,693
623,48	93,996
623,68	92,742
623,88	92,503
624,08	90,685
624,28	89,752
624,48	88,316
624,67	86,653
624,87	84,778
625,07	82,484
625,27	81,684
625,47	79,183
625,67	77,627
625,87	74,964
626,07	72,502
626,27	69,618
626,47	68,054
626,66	65,405
626,86	64,496
627,06	61,977
627,26	60,819
627,46	58,521
627,66	57,627
627,86	55,638
628,06	54,272
628,25	52,772
628,45	51,249
628,65	50,151
628,85	47,945
629,05	47,230
629,25	45,360
629,45	44,313
629,65	42,149
629,84	40,607
630,04	38,708
630,24	36,718
630,44	34,695
630,64	32,473
630,84	29,556
631,04	26,829
631,23	25,109
631,43	21,865
631,63	19,743
631,83	16,955
632,03	15,299
632,23	12,791
632,42	11,089
632,62	9,121
632,82	7,707
633,02	6,669
633,22	5,297
633,42	4,391
633,62	3,432
633,81	2,813
634,01	2,604
634,21	1,950
634,41	1,798
634,61	1,327
634,80	1,153
635,00	1,154
635,20	0,996
635,40	0,563
635,60	0,916
635,80	0,674
635,99	0,689
636,19	0,658
636,39	0,660
636,59	0,493
636,79	0,649
636,98	0,799
637,18	0,491
637,38	0,536
637,58	0,409
637,78	0,708
637,97	0,451
638,17	0,653
638,37	0,670
638,57	0,533
638,77	0,636
638,96	0,481
639,16	0,739
639,36	0,682
639,56	0,628
639,76	0,318
639,95	0,638
640,15	0,400
640,35	0,449
640,55	0,641
640,75	0,585
640,94	0,394
641,14	0,654
641,34	0,574
641,54	0,359
641,73	0,419
641,93	0,525
642,13	0,535
642,33	0,567
642,53	0,227
642,72	0,610
642,92	0,670
643,12	0,419
643,32	0,640
643,51	0,541
643,71	0,548
643,91	0,704
644,11	0,794
644,30	0,816
644,50	0,809
644,70	0,474
644,90	0,506
645,09	0,779
645,29	0,532
645,49	0,962
645,69	0,309
645,88	0,879
646,08	0,449
646,28	0,825
646,48	0,575
646,67	0,430
646,87	0,502
647,07	0,626
647,26	0,716
647,46	0,454
647,66	0,751
647,86	0,605
648,05	0,895
648,25	0,977
648,45	0,665
648,65	0,520
648,84	0,376
649,04	0,774
649,24	0,917
649,43	0,528
649,63	0,707
649,83	0,446
650,03	0,699
650,22	0,690
650,42	0,778
650,62	0,894
650,81	0,459
651,01	0,583
651,21	0,794
651,40	0,476
651,60	0,438
651,80	0,629
652,00	0,764
652,19	0,836
652,39	0,667
652,59	0,848
652,78	0,328
652,98	0,116
653,18	0,418
653,37	0,844
653,57	0,942
653,77	1,012
653,96	0,551
654,16	0,773
654,36	0,772
654,55	0,758
654,75	0,699
654,95	0,596
655,14	0,699
655,34	1,059
655,54	1,007
655,73	0,313
655,93	0,445
656,13	0,443
656,32	0,291
656,52	0,441
656,72	0,530
656,91	0,741
657,11	0,612
657,31	0,531
657,50	0,768
657,70	0,694
657,90	0,669
658,09	0,581
658,29	0,588
658,49	0,716
658,68	0,574
658,88	0,889
659,07	0,845
659,27	0,192
659,47	0,566
659,66	0,442
659,86	0,236
660,06	0,779
660,25	0,619
660,45	0,677
660,64	0,290
660,84	0,654
661,04	0,525
661,23	0,704
661,43	0,799
661,63	0,671
661,82	0,355
662,02	0,677
662,21	0,558
662,41	0,813
662,61	0,888
662,80	0,623
663,00	0,312
663,19	1,048
663,39	0,311
663,59	0,852
663,78	0,799
663,98	0,701
664,17	0,801
664,37	0,594
664,57	0,609
664,76	0,688
664,96	0,434
665,15	0,272
665,35	0,584
665,55	0,427
665,74	0,683
665,94	0,464
666,13	0,707
666,33	0,810
666,53	0,743
666,72	0,700
666,92	0,519
667,11	0,674
667,31	0,264
667,50	0,563
667,70	0,723
667,90	0,458
668,09	0,459
668,29	0,556
668,48	0,431
668,68	0,138
668,87	0,637
669,07	0,312
669,26	0,721
669,46	0,961
669,66	0,372
669,85	0,726
670,05	0,497
670,24	0,576
670,44	0,488
670,63	0,460
670,83	0,499
671,02	0,438
671,22	0,550
671,42	0,517
671,61	0,416
671,81	0,477
672,00	0,621
672,20	0,456
672,39	0,450
672,59	0,165
672,78	0,294
672,98	0,369
673,17	0,385
673,37	0,307
673,56	0,464
673,76	0,007
673,95	0,416
674,15	0,462
674,34	0,407
674,54	0,613
674,73	0,412
674,93	0,560
675,13	0,537
675,32	0,638
675,52	0,539
675,71	0,494
675,91	0,429
676,10	0,508
676,30	0,247
676,49	0,258
676,69	0,341
676,88	0,224
677,08	0,269
677,27	0,085
677,47	0,462
677,66	0,375
677,86	0,749
678,05	0,326
678,24	0,172
678,44	0,667
678,63	0,504
678,83	0,328
679,02	0,320
679,22	0,333
679,41	0,464
679,61	0,267
679,80	0,479
680,00	0,184
680,19	0,538
680,39	0,482
680,58	0,186
680,78	0,459
680,97	0,455
681,17	0,362
681,36	0,141
681,56	0,213
681,75	0,514
681,94	0,479
682,14	0,454
682,33	0,363
682,53	0,352
682,72	0,263
682,92	0,400
683,11	0,163
683,31	0,199
683,50	0,183
683,69	0,417
683,89	0,421
684,08	0,208
684,28	0,031
684,47	0,311
684,67	0,292
684,86	0,365
685,06	0,212
685,25	0,342
685,44	0,140
685,64	0,441
685,83	0,370
686,03	0,136
686,22	0,251
686,42	0,157
686,61	0,368
686,80	0,123
687,00	0,059
687,19	0,231
687,39	0,178
687,58	0,243
687,77	0,217
687,97	0,282
688,16	0,387
688,36	0,278
688,55	0,069
688,74	0,106
688,94	0,333
689,13	0,177
689,33	0,079
689,52	0,330
689,71	0,302
689,91	0,222
690,10	0,277
690,30	0,004
690,49	0,044
690,68	0,397
690,88	0,238
691,07	0,206
691,27	0,216
691,46	0,217
691,65	0,296
691,85	0,263
692,04	0,103
692,23	0,146
692,43	0,364
692,62	0,283
692,82	0,192
693,01	0,279
693,20	0,145
693,40	0,176
693,59	0,049
693,78	0,119
693,98	0,102
694,17	0,279
694,36	0,398
694,56	0,320
694,75	0,367
694,94	0,175
695,14	0,293
695,33	0,369
695,53	0,338
695,72	0,311
695,91	0,088
696,11	0,301
696,30	0,312
696,49	0,333
696,69	0,142
696,88	0,315
697,07	0,520
697,27	0,335
697,46	0,341
697,65	0,204
697,85	0,269
698,04	0,590
698,23	0,505
698,43	0,462
698,62	-0,084
698,81	0,552
699,01	0,609
699,20	0,344
699,39	0,317
699,58	0,285
699,78	0,138
699,97	0,550
700,16	0,533
700,36	0,585
700,55	0,449
700,74	0,683
700,94	0,045
701,13	0,730
701,32	0,223
701,52	0,588
701,71	0,399
701,90	0,598
702,09	0,900
702,29	0,560
702,48	0,433
702,67	0,928
702,87	1,170
703,06	1,102
703,25	1,000
703,44	0,712
703,64	1,064
703,83	0,960
704,02	0,908
704,22	0,974
704,41	0,944
704,60	0,966
704,79	1,042
704,99	1,357
705,18	1,406
705,37	1,345
705,56	1,050
705,76	1,897
705,95	1,889
706,14	0,677
706,33	0,592
706,53	1,926
706,72	0,711
706,91	1,598
707,11	0,516
707,30	0,988
707,49	2,464
707,68	1,228
707,88	2,330
708,07	0,488
708,26	1,293
708,45	0,441
708,64	1,740
708,84	0,863
709,03	1,595
709,22	1,198
709,41	2,488
709,61	0,928
709,80	1,483
709,99	2,975
710,18	1,295
710,38	0,912
710,57	0,953
710,76	1,475
710,95	1,859
711,14	2,450
711,34	2,581
711,53	2,765
711,72	1,142
711,91	1,476
712,11	2,383
712,30	1,693
712,49	2,335
712,68	1,543
712,87	2,163
713,07	4,215
713,26	2,416
713,45	0,499
713,64	1,528
713,83	2,067
714,03	2,596
714,22	3,846
714,41	3,352
714,60	2,421
714,79	0,432
714,99	0,853
715,18	5,076
715,37	3,774
715,56	0,749
715,75	2,651
715,94	4,429
716,14	4,548
716,33	3,434
716,52	4,927
716,71	5,526
716,90	1,498
717,10	0,724
717,29	2,532
717,48	1,613
717,67	4,399
717,86	3,518
718,05	4,391
718,24	3,270
718,44	4,611
718,63	0,973
718,82	5,184
719,01	3,985
719,20	3,492
719,39	3,856
719,59	0,456
719,78	4,542
719,97	4,418
720,16	3,293
720,35	2,478
720,54	1,607
720,73	5,051
720,93	5,061
721,12	1,437
721,31	2,697
721,50	4,727
721,69	4,610
721,88	8,065
722,07	4,801
722,27	4,450
722,46	4,048
722,65	0,953
722,84	2,903
723,03	5,320
723,22	5,641
723,41	2,076
723,60	3,761
723,79	8,663
723,99	5,197
724,18	4,734
724,37	0,182
724,56	6,985
724,75	2,696
724,94	7,855
725,13	5,751
725,32	7,021
725,51	2,977
725,71	3,549
725,90	6,711
726,09	4,840
726,28	7,722
726,47	2,268
726,66	6,859
726,85	5,592
727,04	3,670
727,23	7,450
727,42	5,870
727,61	6,893
727,81	1,946
728,00	5,301
728,19	7,042
728,38	5,131
728,57	6,563
728,76	9,227
728,95	9,375
729,14	2,056
729,33	8,602
729,52	4,274
729,71	6,616
729,90	8,132
730,09	8,899
730,28	10,224
730,48	5,869
730,67	7,031
730,86	9,338
731,05	4,551
731,24	1,707
731,43	3,717
731,62	8,591
731,81	5,562
732,00	7,545
732,19	7,572
732,38	11,923
732,57	5,868
732,76	3,283
732,95	0,901
733,14	3,300
733,33	3,307
733,52	6,882
733,71	-0,574
733,90	8,192
734,09	10,135
734,28	6,037
734,47	7,361
734,66	9,759
734,85	3,571
735,04	11,270
735,23	11,345
735,42	14,891
735,61	12,245
735,81	6,509
736,00	9,829
736,19	5,927
736,38	4,641
736,57	9,465
736,76	12,263
736,95	8,439
737,14	10,048
737,33	14,993
737,52	9,077
737,71	7,869
737,90	16,538
738,09	8,219
738,28	8,072
738,47	1,277
738,66	6,731
738,85	9,760
739,04	10,806
739,22	9,030
739,41	4,412
739,60	4,096
739,79	5,216
739,98	9,677
740,17	10,239
740,36	19,711
740,55	17,516
740,74	17,839
740,93	11,281
741,12	4,821
741,31	10,035
741,50	4,159
741,69	12,920
741,88	4,150
742,07	15,761
742,26	9,143
742,45	5,123
742,64	10,786
742,83	15,044
743,02	7,368
743,21	14,440
743,40	-2,484
743,59	13,051
743,78	14,090
743,97	8,846
744,16	12,402
744,34	10,256
744,53	14,845
744,72	13,152
744,91	7,773
745,10	20,126
745,29	14,315
745,48	12,273
745,67	7,517
745,86	15,894
746,05	11,374
746,24	12,371
746,43	10,493
746,62	16,810
746,81	11,011
747,00	16,630
747,18	10,458
747,37	28,842
747,56	20,471
747,75	7,635
747,94	14,806
748,13	16,107
748,32	15,476
748,51	8,883
748,70	7,489
748,89	10,773
749,08	5,814
749,26	10,573
749,45	6,971
749,64	19,647
749,83	20,225
750,02	32,065
750,21	12,977
750,40	21,862
750,59	25,469
750,78	11,721
750,96	16,022
751,15	16,822
751,34	13,068
751,53	6,011
751,72	26,197
751,91	8,549
752,10	17,801
752,29	10,133
752,47	8,309
752,66	14,603
752,85	23,770
753,04	15,922
753,23	10,526
753,42	36,927
753,61	21,317
753,80	9,966
753,98	25,000
754,17	13,070
754,36	7,097
754,55	21,988
754,74	16,234
754,93	21,212
755,12	19,288
755,30	21,104
755,49	7,849
755,68	19,939
755,87	26,036
756,06	7,986
756,25	24,924
756,43	18,792
756,62	29,503
756,81	19,868
757,00	17,763
757,19	10,069
757,38	23,938
757,56	7,600
757,75	20,137
757,94	7,224
758,13	13,014
758,32	15,134
758,51	1,010
758,69	-2,703
758,88	15,152
759,07	15,269
759,26	17,668
759,45	6,667
759,63	29,870
759,82	19,298
760,01	15,018
760,20	30,818
760,39	19,558
760,57	18,118
760,76	13,937
760,95	29,167
761,14	29,562
761,33	23,226
761,51	27,143
761,70	23,420
761,89	2,667
762,08	41,636
762,27	21,661
762,45	21,377
762,64	14,573
762,83	16,733
763,02	18,696
763,21	3,500
763,39	20,280
763,58	19,703
763,77	37,553
763,96	19,124
764,14	10,833
764,33	22,381
764,52	29,464
764,71	28,525
764,89	24,554
765,08	24,138
765,27	21,702
765,46	22,870
765,65	20,392
765,83	33,484
766,02	-7,143
766,21	2,732
766,40	44,358
766,58	22,751
766,77	44,037
766,96	32,520
767,15	31,092
767,33	23,188
767,52	49,345
767,71	21,491
767,90	17,588
768,08	47,904
768,27	28,049
768,46	31,579
768,64	20,833
768,83	35,784
769,02	16,256
769,21	38,542
769,39	20,000
769,58	12,554
769,77	36,702
769,96	28,829
770,14	41,530
770,33	39,720
770,52	35,252
770,70	16,216
770,89	38,378
771,08	20,482
771,27	23,158
771,45	23,529
771,64	46,667
771,83	32,843
772,01	54,639
772,20	41,791
772,39	31,013
772,57	32,836
772,76	37,838
772,95	18,966
773,14	27,891
773,32	25,424
773,51	31,548
773,70	29,496
773,88	15,484
774,07	34,010
774,26	44,355
774,44	55,639
774,63	41,317
774,82	25,974
775,00	42,056
775,19	13,095
775,38	25,000
775,56	43,478
775,75	49,451
775,94	35,833
776,12	28,105
776,31	35,338
776,50	13,014
776,68	38,172
776,87	41,148
777,06	34,591
777,24	47,059
777,43	50,267
777,62	38,764
777,80	65,409
777,99	66,667
778,18	40,805
778,36	39,831
778,55	7,627
778,74	71,875
778,92	53,704
779,11	72,727
779,29	23,404
779,48	37,589
779,67	57,658
779,85	14,035
780,04	75,362
780,23	34,524
780,41	49,153
780,60	56,376
780,79	44,355
780,97	20,261
781,16	35,106
781,34	39,189
781,53	88,393
781,72	5,405
781,90	40,719
782,09	45,349
782,28	58,503
782,46	65,714
782,65	51,408
782,83	32,704
783,02	52,632
783,21	48,872
783,39	77,311
783,58	92,174
783,76	58,503
783,95	63,380
784,14	72,368
784,32	38,824
784,51	70,946
784,69	9,375
784,88	86,916
785,06	52,318
785,25	63,121
785,44	53,226
785,62	45,000
785,81	32,407
785,99	45,865
786,18	48,649
786,37	46,154
786,55	52,083
786,74	67,273
786,92	32,168
787,11	45,139
787,29	38,393
787,48	65,591
787,67	55,660
787,85	107,595
788,04	91,892
788,22	8,911
788,41	74,016
788,59	48,684
788,78	73,626
788,96	67,769
789,15	75,833
789,34	58,654
789,52	12,903
789,71	61,151
789,89	68,831
790,08	98,750
790,26	50,955
790,45	166,667
790,63	19,540
790,82	38,462
791,00	25,664
791,19	50,400
791,38	57,143
791,56	43,636
791,75	51,389
791,93	101,000
792,12	64,348
792,30	59,854
792,49	30,303
792,67	55,147
792,86	52,000
793,04	38,889
793,23	57,895
793,41	59,420
793,60	61,111
793,78	44,762
793,97	61,806
794,15	93,985
794,34	30,667
794,52	47,312
794,71	36,434
794,89	60,606
795,08	36,800
795,26	54,667
795,45	25,000
795,63	58,065
795,82	57,143
796,00	87,000
796,19	60,163
796,37	48,855
796,56	18,447
796,74	49,474
796,93	81,818
797,11	27,711
797,30	62,778
797,48	42,969
797,67	34,959
797,85	56,154
798,04	30,508
798,22	129,487
798,41	25,962
798,59	79,048
798,77	54,217
798,96	44,444
799,14	44,355
799,33	73,394
799,51	83,333
799,70	64,615
799,88	93,578
800,07	66,412
800,25	68,675
800,44	129,630
800,62	93,056
800,80	42,254
800,99	169,863
801,17	60,345
801,36	71,429
801,54	74,000
801,73	46,316
801,91	81,818
802,10	71,765
802,28	26,400
802,46	36,842
802,65	87,050
802,83	156,000
803,02	70,161
803,20	104,819
803,39	73,563
803,57	70,079
803,75	66,667
803,94	69,048
804,12	69,655
804,31	0,000
804,49	36,800
804,67	45,588
804,86	40,708
805,04	2,410
805,23	76,106
805,41	51,667
805,59	79,452
805,78	84,000
805,96	85,542
806,15	79,208
806,33	105,263
806,51	64,000
806,70	57,143
806,88	87,209
807,07	47,748
807,25	90,110
807,43	54,464
807,62	92,920
807,80	14,286
807,99	83,846
808,17	43,307
808,35	63,000
808,54	65,217
808,72	78,378
808,90	33,562
809,09	67,391
809,27	44,000
809,46	83,516
809,64	79,268
809,82	13,245
810,01	64,063
810,19	73,737
810,37	67,969
810,56	111,111
810,74	87,013
810,92	46,000
811,11	22,807
811,29	80,189
811,48	51,538
811,66	34,831
811,84	45,055
812,03	34,426
812,21	47,368
812,39	43,478
812,58	31,579
812,76	71,942
812,94	61,446
813,13	68,085
813,31	71,000
813,49	50,926
813,68	30,000
813,86	59,551
814,04	89,256
814,23	60,843
814,41	65,169
814,59	29,126
814,78	58,824
814,96	51,572
815,14	41,121
815,33	32,558
815,51	77,165
815,69	41,905
815,87	61,386
816,06	52,174
816,24	53,416
816,42	50,000
816,61	50,943
816,79	47,414
816,97	31,818
817,16	36,686
817,34	69,841
817,52	60,331
817,70	49,505
817,89	57,778
818,07	50,685
818,25	36,735
818,44	74,359
818,62	41,085
818,80	23,308
818,98	51,592
819,17	30,252
819,35	56,915
819,53	49,254
819,72	76,582
819,90	37,984
820,08	18,803
820,26	41,379
820,45	22,819
820,63	84,821
820,81	66,400
820,99	50,355
821,18	48,980
821,36	31,013
821,54	53,103
821,73	65,000
821,91	59,649
822,09	67,742
822,27	56,129
822,46	48,529
822,64	50,400
822,82	41,436
823,00	12,155
823,19	33,516
823,37	43,636
823,55	44,318
823,73	53,103
823,91	73,188
824,10	30,645
824,28	45,729
824,46	33,981
824,64	41,447
824,83	31,677
825,01	26,000
825,19	84,677
825,37	64,348
825,56	41,038
825,74	42,857
825,92	52,866
826,10	76,705
826,28	51,190
826,47	44,737
826,65	67,376
826,83	43,103
827,01	49,711
827,19	51,786
827,38	43,210
827,56	31,818
827,74	44,693
827,92	36,047
828,10	25,641
828,29	34,320
828,47	37,398
828,65	61,538
828,83	45,455
829,01	14,130
829,20	40,110
829,38	50,000
829,56	47,826
829,74	59,748
829,92	30,556
830,10	52,874
830,29	33,668
830,47	30,653
830,65	30,488
830,83	16,071
831,01	32,143
831,20	60,680
831,38	26,316
831,56	55,349
831,74	35,545
831,92	50,000
832,10	33,333
832,29	47,297
832,47	16,854
832,65	42,157
832,83	25,352
833,01	38,000
833,19	36,652
833,37	30,769
833,56	22,785
833,74	39,706
833,92	37,500
834,10	24,066
834,28	33,333
834,46	34,389
834,64	33,796
834,83	47,727
835,01	50,622
835,19	23,200
835,37	33,884
835,55	18,229
835,73	46,798
835,91	35,055
836,09	33,080
836,28	36,162
836,46	6,000
836,64	45,865
836,82	41,176
837,00	15,580
837,18	20,818
837,36	29,084
837,54	13,182
837,72	14,224
837,91	18,657
838,09	28,685
838,27	28,000
838,45	13,121
838,63	20,588
838,81	19,409
838,99	27,419
839,17	19,932
839,35	36,170
839,53	28,070
839,72	31,579
839,90	23,711
840,08	31,692
840,26	19,444
840,44	24,169
840,62	21,379
840,80	30,952
840,98	10,196
841,16	4,943
841,34	6,689
841,52	22,018
841,70	24,308
841,89	11,290
842,07	14,734
842,25	30,460
842,43	25,862
842,61	25,263
842,79	29,661
842,97	15,309
843,15	20,462
843,33	19,874
843,51	22,892
843,69	28,490
843,87	16,418
844,05	12,766
844,23	20,420
844,41	14,420
844,59	12,968
844,77	20,168
844,95	15,896
845,13	12,923
845,31	17,442
845,50	26,963
845,68	17,042
845,86	26,437
846,04	27,374
846,22	11,172
846,40	26,344
846,58	16,239
846,76	25,538
846,94	14,713
847,12	19,430
847,30	18,041
847,48	20,124
847,66	12,808
847,84	15,027
848,02	22,947
848,20	10,853
848,38	18,234
848,56	32,955
848,74	22,434
848,92	12,718
849,10	19,000
849,28	17,004
849,46	24,267
849,64	20,092
849,82	8,951
850,00	29,907
850,18	15,745
850,36	12,583
850,54	10,025
850,72	21,594
850,90	27,174
851,08	15,317
851,26	24,508
851,44	14,823
851,62	18,605
851,80	8,590
851,98	22,198
852,16	20,567
852,34	13,814
852,52	8,259
852,70	3,189
852,87	12,785
853,05	4,678
853,23	12,784
853,41	14,512
853,59	15,768
853,77	11,310
853,95	22,996
854,13	6,637
854,31	11,910
854,49	7,784
854,67	9,071
854,85	12,836
855,03	21,042
855,21	14,105
855,39	11,871
855,57	9,857
855,75	17,701
855,93	11,569
856,11	20,116
856,28	11,439
856,46	21,708
856,64	18,095
856,82	17,869
857,00	15,822
857,18	18,953
857,36	9,781
857,54	18,166
857,72	12,456
857,90	14,391
858,08	19,804
858,26	3,313
858,44	7,797
858,61	7,317
858,79	17,128
858,97	10,088
859,15	10,217
859,33	13,750
859,51	16,248
859,69	2,683
859,87	8,567
860,05	1,776
860,23	9,578
860,40	12,456
860,58	12,951
860,76	3,016
860,94	7,967
861,12	15,692
861,30	7,849
861,48	11,857
861,66	12,063
861,84	10,463
862,01	9,867
862,19	9,831
862,37	10,590
862,55	16,571
862,73	9,907
862,91	6,314
863,09	12,946
863,27	6,897
863,44	3,244
863,62	5,707
863,80	9,283
863,98	6,528
864,16	4,624
864,34	10,184
864,52	11,260
864,69	7,749
864,87	3,907
865,05	5,034
865,23	9,804
865,41	7,527
865,59	11,036
865,76	12,678
865,94	12,403
866,12	15,097
866,30	7,994
866,48	13,709
866,66	4,973
866,83	11,196
867,01	6,266
867,19	9,883
867,37	6,468
867,55	5,615
867,73	10,216
867,90	11,377
868,08	9,069
868,26	12,623
868,44	6,331
868,62	2,580
868,79	6,987
868,97	6,297
869,15	2,436
869,33	8,669
869,51	8,943
869,69	5,366
869,86	10,643
870,04	9,195
870,22	7,903
870,40	8,655
870,57	6,574
870,75	10,166
870,93	4,842
871,11	4,978
871,29	7,877
871,46	10,155
871,64	10,669
871,82	4,629
872,00	10,597
872,18	2,532
872,35	10,406
872,53	8,443
872,71	10,000
872,89	11,890
873,06	7,580
873,24	8,729
873,42	7,540
873,60	7,376
873,77	4,192
873,95	7,032
874,13	4,545
874,31	5,882
874,49	3,098
874,66	4,135
874,84	10,331
875,02	8,616
875,20	3,842
875,37	9,188
875,55	7,634
875,73	5,944
875,91	5,669
876,08	5,484
876,26	4,594
876,44	7,298
876,61	8,058
876,79	7,962
876,97	2,646
877,15	7,841
877,32	6,650
877,50	5,712
877,68	3,856
877,86	0,680
878,03	9,429
878,21	6,255
878,39	7,859
878,56	1,240
878,74	6,651
878,92	4,278
879,10	5,227
879,27	6,014
879,45	5,100
879,63	6,677
879,80	6,737
879,98	2,408
880,16	7,278
880,34	9,580
880,51	1,420
880,69	3,423
880,87	2,479
881,04	8,249
881,22	5,335
881,40	6,018
881,57	4,494
881,75	6,717
881,93	8,008
882,10	5,411
882,28	6,897
882,46	5,822
882,63	4,307
882,81	6,606
882,99	2,934
883,16	5,322
883,34	1,070
883,52	5,231
883,69	3,900
883,87	3,125
884,05	4,019
884,22	4,240
884,40	5,241
884,58	0,967
884,75	4,627
884,93	4,075
885,11	7,035
885,28	2,932
885,46	1,599
885,64	2,430
885,81	2,886
885,99	4,337
886,17	4,657
886,34	3,512
886,52	3,730
886,70	4,762
886,87	3,154
887,05	5,275
887,22	1,992
887,40	3,571
887,58	4,062
887,75	2,301
887,93	4,620
888,11	6,550
888,28	4,193
888,46	5,063
888,63	1,792
888,81	3,804
888,99	5,051
889,16	3,548
889,34	1,093
889,51	4,152
889,69	2,520
889,87	4,871
890,04	3,202
890,22	4,583
890,39	3,375
890,57	2,839
890,75	1,823
890,92	3,391
891,10	1,689
891,27	2,411
891,45	3,492
891,63	4,661
891,80	4,961
891,98	2,529
892,15	2,657
892,33	2,215
892,51	4,180
892,68	4,846
892,86	1,459
893,03	2,334
893,21	2,039
893,38	0,907
893,56	2,595
893,74	3,465
893,91	3,130
894,09	4,021
894,26	3,658
894,44	2,249
894,61	2,425
894,79	2,972
894,96	1,323
895,14	3,475
895,32	3,494
895,49	3,664
895,67	3,125
895,84	2,370
896,02	1,718
896,19	3,505
896,37	4,033
896,54	2,515
896,72	1,502
896,89	2,911
897,07	4,011
897,25	3,097
897,42	3,817
897,60	3,765
897,77	4,586
897,95	2,249
898,12	3,123
898,30	3,312
898,47	1,902
898,65	2,388
898,82	3,147
899,00	1,494
899,17	2,955
899,35	1,615
899,52	5,656
899,70	1,831
899,87	0,305
900,05	1,941
900,22	2,590
900,40	1,853
900,57	2,709
900,75	2,092
900,92	2,670
901,10	3,052
901,27	1,850
901,45	4,106
901,62	2,248
901,80	2,575
901,97	2,626
902,15	3,201
902,32	1,689
902,50	1,902
902,67	3,908
902,85	4,385
903,02	4,722
903,20	2,105
903,37	0,854
903,54	2,407
903,72	3,072
903,89	2,142
904,07	2,246
904,24	2,001
904,42	2,183
904,59	0,357
904,77	2,688
904,94	0,890
905,12	1,914
905,29	1,616
905,47	2,161
905,64	2,616
905,81	1,949
905,99	2,065
906,16	1,422
906,34	2,533
906,51	1,969
906,69	4,210
906,86	2,010
907,03	2,153
907,21	2,191
907,38	2,893
907,56	1,972
907,73	2,675
907,91	1,965
908,08	1,939
908,25	3,002
908,43	3,423
908,60	1,748
908,78	2,033
908,95	2,325
909,13	3,833
909,30	2,049
909,47	2,121
909,65	2,999
909,82	1,111
910,00	1,827
910,17	2,525
910,34	1,755
910,52	1,744
910,69	1,230
910,87	0,752
911,04	2,211
911,21	4,088
911,39	0,729
911,56	3,020
911,73	1,653
911,91	1,901
912,08	1,727
912,26	1,661
912,43	2,782
912,60	0,657
912,78	1,277
912,95	2,100
913,13	0,837
913,30	3,440
913,47	3,041
913,65	2,024
913,82	2,420
913,99	1,746
914,17	1,482
914,34	0,144
914,51	3,201
914,69	1,865
914,86	4,080
915,03	1,815
915,21	0,057
915,38	2,486
915,56	0,667
915,73	1,848
915,90	1,839
916,08	2,716
916,25	1,952
916,42	2,423
916,60	1,501
916,77	1,682
916,94	2,002
917,12	1,014
917,29	2,481
917,46	1,126
917,64	2,364
917,81	1,424
917,98	-0,027
918,16	1,472
918,33	2,224
918,50	1,668
918,67	1,646
918,85	0,299
919,02	2,227
919,19	1,433
919,37	0,707
919,54	2,053
919,71	2,805
919,89	1,433
920,06	2,382
920,23	1,305
920,41	1,646
920,58	1,560
920,75	2,626
920,92	1,598
921,10	1,437
921,27	1,525
921,44	3,003
921,62	2,377
921,79	2,159
921,96	1,055
922,13	3,053
922,31	0,754
922,48	0,761
922,65	2,067
922,82	0,617
923,00	1,497
923,17	0,929
923,34	1,213
923,52	1,662
923,69	1,360
923,86	2,333
924,03	2,052
924,21	0,520
924,38	2,395
924,55	1,613
924,72	1,370
924,90	0,932
925,07	1,962
925,24	0,896
925,41	1,059
925,59	1,462
925,76	0,854
925,93	1,749
926,10	2,019
926,28	1,044
926,45	1,543
926,62	0,338
926,79	1,048
926,96	2,164
927,14	1,959
927,31	1,655
927,48	1,625
927,65	1,795
927,83	1,192
928,00	1,680
928,17	1,369
928,34	1,171
928,51	0,855
928,69	1,560
928,86	1,508
929,03	1,383
929,20	0,237
929,37	1,468
929,55	2,043
929,72	0,846
929,89	1,445
930,06	1,920
930,23	1,531
930,41	0,770
930,58	0,274
930,75	0,540
930,92	2,459
931,09	1,475
931,27	0,846
931,44	0,859
931,61	1,533
931,78	1,197
931,95	0,878
932,12	2,024
932,30	0,691
932,47	0,083
932,64	1,157
932,81	0,690
932,98	1,261
933,16	1,209
933,33	1,560
933,50	0,916
933,67	1,960
933,84	2,044
934,01	1,208
934,18	1,526
934,36	0,750
934,53	2,233
934,70	1,126
934,87	0,344
935,04	1,535
935,21	1,144
935,38	0,361
935,56	2,015
935,73	-0,020
935,90	1,071
936,07	1,021
936,24	1,998
936,41	1,144
936,58	1,305
936,76	0,845
936,93	1,024
937,10	1,957
937,27	1,894
937,44	1,693
937,61	1,427
937,78	1,488
937,95	1,704
938,13	0,019
938,30	1,010
938,47	1,966
938,64	0,460
938,81	0,557
938,98	0,718
939,15	1,046
939,32	1,477
939,49	0,637
939,66	1,014
939,84	0,242
940,01	1,925
940,18	0,547
940,35	0,596
940,52	1,027
940,69	0,223
940,86	2,253
941,03	0,804
941,20	0,263
941,37	0,251
941,54	2,551
941,71	2,050
941,89	1,465
942,06	1,279
942,23	1,334
942,40	0,884
942,57	1,556
942,74	1,084
942,91	2,467
943,08	2,072
943,25	1,398
943,42	0,489
943,59	2,877
943,76	1,688
943,93	1,099
944,10	0,675
944,27	0,756
944,44	1,636
944,61	1,495
944,79	2,225
944,96	2,573
945,13	1,007
945,30	1,170
945,47	1,689
945,64	1,116
945,81	1,828
945,98	1,514
946,15	2,067
946,32	2,496
946,49	1,178
946,66	2,549
946,83	1,508
947,00	1,598
947,17	0,516
947,34	1,621
947,51	1,431
947,68	1,289
947,85	0,827
948,02	2,329
948,19	1,101
948,36	2,477
948,53	0,349
948,70	1,124
948,87	2,377
949,04	2,226
949,21	0,397
949,38	2,613
949,55	2,586
949,72	1,822
949,89	3,398
950,06	2,227
950,23	1,345
950,40	1,322
950,57	2,078
950,74	1,775
950,91	2,091
951,08	2,613
951,25	3,203
951,42	0,226
951,59	1,596
951,76	2,507
951,93	2,657
952,10	2,096
952,27	3,000
952,44	2,557
952,61	3,336
952,77	3,841
952,94	2,162
953,11	3,685
953,28	5,376
953,45	4,613
953,62	2,669
953,79	4,790
953,96	5,826
954,13	3,422
954,30	3,302
954,47	4,890
954,64	1,487
954,81	5,263
954,98	3,989
955,15	2,721
955,32	2,902
955,49	4,942
955,65	4,473
955,82	4,984
955,99	5,420
956,16	5,334
956,33	3,953
956,50	4,720
956,67	4,503
956,84	5,371
957,01	4,030
957,18	6,692
957,35	3,465
957,52	4,146
957,68	5,776
957,85	7,496
958,02	5,004
958,19	2,718
958,36	5,459
958,53	5,288
958,70	7,907
958,87	6,287
959,04	5,624
959,21	8,492
959,37	11,902
959,54	2,723
959,71	8,324
959,88	0,930
960,05	12,689
960,22	7,170
960,39	6,658
960,56	2,046
960,72	5,540
960,89	11,812
961,06	6,371
961,23	3,211
961,40	5,433
961,57	13,738
961,74	5,530
961,90	8,128
962,07	12,407
962,24	11,717
962,41	10,000
962,58	12,207
962,75	11,795
962,92	11,754
963,08	13,333
963,25	9,960
963,42	11,847
963,59	4,107
963,76	20,278
963,93	17,515
964,10	18,326
964,26	13,333
964,43	2,791
964,60	20,186
964,77	14,765
964,94	7,407
965,10	13,370
965,27	6,704
965,44	8,571
965,61	16,438
965,78	27,640
965,95	23,881
966,11	16,061
966,28	10,056
966,45	25,490
966,62	6,272
966,79	0,683
966,95	7,829
967,12	26,349
967,29	29,012
967,46	30,249
967,63	33,725
967,79	42,282
967,96	16,972
968,13	43,333
968,30	29,218
968,47	11,538
968,63	30,392
968,80	42,146
968,97	32,370
969,14	42,938
969,31	44,898
969,47	43,478
969,64	28,022
969,81	47,097
969,98	25,789
970,14	12,366
970,31	27,673
970,48	29,530
970,65	36,364
970,81	35,664
970,98	43,229
971,15	81,818
971,32	37,879
971,48	73,810
971,65	37,748
971,82	62,727
971,99	63,291
972,15	54,651
972,32	68,056
972,49	69,672
972,66	41,322
972,82	65,068
972,99	68,750
973,16	78,808
973,33	59,259
973,49	69,512
973,66	85,714
973,83	88,889
974,00	73,418
974,16	67,273
974,33	130,667
974,50	64,646
974,67	78,571
974,83	102,041
975,00	130,909
975,17	43,548
975,33	97,701
975,50	122,951
975,67	63,462
975,84	65,854
976,00	85,526
976,17	171,739
976,34	74,118
976,50	54,945
976,67	103,571
976,84	162,500
977,00	88,462
977,17	148,889
977,34	165,385
977,50	114,286
977,67	150,588
977,84	91,525
978,01	118,919
978,17	106,897
978,34	122,222
978,51	252,000
978,67	126,531
978,84	87,273
979,01	181,579
979,17	95,714
979,34	191,304
979,51	138,636
979,67	291,667
979,84	161,017
980,01	134,615
980,17	111,765
980,34	127,397
980,51	811,111
980,67	55,556
980,84	115,714
981,01	347,059
981,17	183,824
981,34	132,857
981,50	130,526
981,67	209,524
981,84	228,571
982,00	3700,000
982,17	140,625
982,34	280,488
982,50	0,000
982,67	-657,143
982,84	455,000
983,00	135,185
983,17	-457,143
983,33	611,111
983,50	214,634
983,67	62,319
983,83	376,190
984,00	308,696
984,17	777,778
984,33	-242,857
984,50	167,568
984,66	431,250
984,83	512,500
985,00	284,615
985,16	290,323
985,33	2800,000
985,49	100,000
985,66	47,500
985,83	-2100,000
985,99	633,333
986,16	389,474
986,32	141,096
986,49	-760,000
986,66	1200,000
986,82	118,182
986,99	-420,000
987,15	327,273
987,32	511,765
987,49	253,571
987,65	-182,609
987,82	-215,000
987,98	112,121
988,15	257,143
988,31	228,571
988,48	217,647
988,65	360,000
988,81	130,909
988,98	324,324
989,14	460,000
989,31	154,237
989,47	39,286
989,64	105,556
989,80	147,872
989,97	185,455
990,14	642,857
990,30	-1400,000
990,47	-179,167
990,63	223,684
990,80	1416,667
990,96	908,333
991,13	346,667
991,29	196,078
991,46	133,333
991,62	0,000
991,79	-360,000
991,95	523,529
992,12	1366,667
992,29	-342,857
992,45	154,762
992,62	-250,000
992,78	-683,333
992,95	206,452
993,11	1037,500
993,28	-8200,000
993,44	-110,345
993,61	184,211
993,77	0,000
993,94	161,538
994,10	1014,286
994,27	-139,474
994,43	293,750
994,60	700,000
994,76	303,030
994,93	-870,000
995,09	-531,250
995,26	370,833
995,42	825,000
995,59	276,667
995,75	-900,000
995,92	-885,714
996,08	-800,000
996,25	342,424
996,41	1660,000
996,58	392,000
996,74	-630,000
996,91	137,097
997,07	264,000
997,23	117,647
997,40	1616,667
997,56	-2833,333
997,73	330,435
997,89	1320,000
998,06	136,842
998,22	272,340
998,39	220,408
998,55	678,947
998,72	-9600,000
998,88	180,000
999,05	620,000
999,21	358,824
999,37	381,395
999,54	367,742
999,70	357,143
999,87	1300,000
1000,03	350,000
1000,20	471,429
1000,36	-650,000
1000,52	1150,000
1000,69	480,000
1000,85	-441,667
1001,02	500,000
1001,18	1780,000
1001,35	0,000
1001,51	778,571
1001,67	465,000
1001,84	173,171
1002,00	-390,909
1002,17	1650,000
1002,33	-812,500
1002,50	650,000
1002,66	950,000
1002,82	324,390
1002,99	-231,818
1003,15	-4600,000
1003,32	-78,571
1003,48	-1966,667
1003,64	326,087
1003,81	-163,158
1003,97	218,841
1004,14	-98,182
1004,30	427,273
1004,46	-9900,000
1004,63	-653,846
1004,79	229,730
1004,95	-1180,000
1005,12	-238,462
1005,28	255,556
1005,45	-683,333
1005,61	569,231
1005,77	-1042,857
1005,94	204,348
1006,10	-700,000
1006,26	-88,889
1006,43	233,333
1006,59	341,935
1006,76	-316,000
1006,92	139,130
1007,08	107,576
1007,25	213,889
1007,41	331,818
1007,57	-376,471
1007,74	421,739
1007,90	-428,571
1008,06	-606,667
1008,23	-389,474
1008,39	269,444
1008,55	110,588
1008,72	-750,000
1008,88	-140,000
1009,04	-1255,556
1009,21	221,875
1009,37	264,516
1009,53	-325,000
1009,70	-37,879
1009,86	336,842
1010,02	270,455
1010,19	820,000
1010,35	9500,000
1010,51	288,571
1010,68	468,182
1010,84	395,000
1011,00	350,000
1011,17	3133,333
1011,33	242,308
1011,49	268,750
1011,66	343,750
1011,82	-783,333
1011,98	760,000
1012,14	492,308
1012,31	263,636
1012,47	-671,429
1012,63	8500,000
1012,80	466,667
1012,96	200,000
1013,12	-177,778
1013,29	462,500
1013,45	-114,706
1013,61	-1140,000
1013,77	-588,889
1013,94	341,667
1014,10	4700,000
1014,26	-29,412
1014,43	284,211
1014,59	0,000
1014,75	430,000
1014,91	302,857
1015,08	307,692
1015,24	733,333
1015,40	606,667
1015,56	464,706
1015,73	169,388
1015,89	333,333
1016,05	289,189
1016,21	303,704
1016,38	297,368
1016,54	-312,000
1016,70	389,474
1016,86	-561,538
1017,03	0,000
1017,19	1100,000
1017,35	296,667
1017,51	200,000
1017,68	1285,714
1017,84	510,526
1018,00	285,714
1018,16	-468,750
1018,33	236,364
1018,49	492,857
1018,65	-368,182
1018,81	-63,415
1018,97	453,846
1019,14	-1257,143
1019,30	390,476
1019,46	258,974
1019,62	3500,000
1019,79	-842,857
1019,95	-2025,000
1020,11	1320,000
1020,27	132,500
1020,43	-1000,000
1020,60	0,000
1020,76	208,824
1020,92	11400,000
1021,08	-95,556
1021,24	-2800,000
1021,41	290,909
1021,57	-400,000
1021,73	0,000
1021,89	-263,636
1022,05	322,857
1022,21	-653,846
1022,38	378,947
1022,54	1020,000
1022,70	314,815
1022,86	-3500,000
1023,02	1122,222
1023,19	-400,000
1023,35	200,000
1023,51	309,677
1023,67	176,316
1023,83	800,000
1023,99	342,857
1024,16	-18,462
1024,32	443,750
1024,48	273,469
1024,64	-1700,000
1024,80	508,333
1024,96	261,538
1025,12	3533,333
1025,29	-1500,000
1025,45	266,667
1025,61	3133,333
1025,77	419,048
1025,93	-184,615
1026,09	4300,000
1026,26	-1300,000
1026,42	-1850,000
1026,58	219,231
1026,74	1085,714
1026,90	300,000
1027,06	-500,000
1027,22	-591,667
1027,38	722,222
1027,55	-184,000
1027,71	1050,000
1027,87	157,500
1028,03	153,030
1028,19	-275,758
1028,35	117,568
1028,51	-27,419
1028,67	-1000,000
1028,83	235,714
1029,00	614,286
1029,16	-526,667
1029,32	464,706
1029,48	4750,000
1029,64	1242,857
1029,80	1516,667
1029,96	215,686
1030,12	-537,500
1030,28	1200,000
1030,44	-1450,000
1030,61	303,125
1030,77	-421,739
1030,93	223,256
1031,09	-507,143
1031,25	-844,444
1031,41	-3800,000
1031,57	-215,789
1031,73	854,545
1031,89	-115,152
1032,05	1214,286
1032,21	840,000
1032,37	-120,588
1032,53	-365,000
1032,69	-7500,000
1032,86	1783,333
1033,02	387,500
1033,18	-830,769
1033,34	-561,538
1033,50	209,677
1033,66	-488,889
1033,82	332,143
1033,98	-641,176
1034,14	977,778
1034,30	-290,909
1034,46	187,500
1034,62	550,000
1034,78	100,000
1034,94	-103,226
1035,10	-359,091
1035,26	-633,333
1035,42	248,571
1035,58	1520,000
1035,74	-126,667
1035,90	-333,333
1036,06	181,132
1036,22	-312,000
1036,38	546,667
1036,54	970,000
1036,70	-3150,000
1036,86	-421,429
1037,02	50,000
1037,18	-107,143
1037,34	295,652
1037,50	-593,333
1037,66	-3400,000
1037,82	-252,941
1037,98	295,238
1038,14	-200,000
1038,30	-61,538
1038,46	170,833
1038,62	170,968
1038,78	245,238
1038,94	-121,053
1039,10	-237,500
1039,26	-147,368
1039,42	-1014,286
1039,58	184,906
1039,74	131,250
1039,90	-105,128
1040,06	482,353
>>>>>End Processed Spectral Data<<<<<
