SpectraSuite Data File
++++++++++++++++++++++++++++++++++++
Date: Thu Feb 02 18:02:10 EET 2017
User: optolab
Dark Spectrum Present: Yes
Reference Spectrum Present: Yes
Number of Sampled Component Spectra: 1
Spectrometers: USB4C02475
Integration Time (usec): 100000 (USB4C02475)
Spectra Averaged: 1 (USB4C02475)
Boxcar Smoothing: 0 (USB4C02475)
Correct for Electrical Dark: No (USB4C02475)
Strobe/Lamp Enabled: No (USB4C02475)
Correct for Detector Non-linearity: No (USB4C02475)
Correct for Stray Light: No (USB4C02475)
Number of Pixels in Processed Spectrum: 3648
>>>>>Begin Processed Spectral Data<<<<<
344,91	-800,000
345,13	-800,000
345,35	-800,000
345,57	-188,235
345,79	-84,783
346,00	-126,471
346,22	-971,429
346,44	-230,303
346,66	223,404
346,87	317,391
347,09	853,846
347,31	9300,000
347,53	-1725,000
347,74	-167,442
347,96	-1114,286
348,18	323,529
348,40	405,882
348,61	-302,564
348,83	6300,000
349,05	282,051
349,27	388,235
349,48	-3850,000
349,70	671,429
349,92	390,476
350,14	172,973
350,35	-376,923
350,57	-383,333
350,79	-38,462
351,01	-573,333
351,22	330,000
351,44	766,667
351,66	350,000
351,87	1650,000
352,09	157,895
352,31	244,643
352,53	265,714
352,74	-671,429
352,96	347,368
353,18	221,875
353,40	-1162,500
353,61	440,000
353,83	183,333
354,05	262,500
354,26	307,143
354,48	-1440,000
354,70	466,667
354,92	319,444
355,13	-65,116
355,35	142,593
355,57	240,625
355,78	250,000
356,00	165,957
356,22	413,636
356,44	253,488
356,65	571,429
356,87	236,111
357,09	300,000
357,30	122,727
357,52	-1583,333
357,74	329,032
357,95	254,286
358,17	100,000
358,39	260,000
358,60	291,667
358,82	481,818
359,04	274,359
359,26	161,364
359,47	-515,385
359,69	485,714
359,91	484,000
360,12	365,000
360,34	86,111
360,56	-2100,000
360,77	1044,444
360,99	616,667
361,21	243,478
361,42	-1450,000
361,64	-155,556
361,86	180,597
362,07	880,000
362,29	195,000
362,51	224,324
362,72	-1800,000
362,94	437,037
363,16	170,000
363,37	781,818
363,59	-4100,000
363,81	1125,000
364,02	161,333
364,24	225,000
364,46	414,286
364,67	192,857
364,89	235,294
365,11	154,054
365,32	277,778
365,54	543,750
365,76	172,727
365,97	109,756
366,19	161,404
366,41	750,000
366,62	109,000
366,84	616,667
367,05	130,392
367,27	1260,000
367,49	212,821
367,70	511,111
367,92	218,750
368,14	-253,846
368,35	117,647
368,57	215,152
368,79	361,538
369,00	144,872
369,22	100,000
369,43	357,895
369,65	-203,448
369,87	-635,294
370,08	320,000
370,30	514,286
370,51	372,727
370,73	188,889
370,95	355,000
371,16	110,526
371,38	292,453
371,60	186,667
371,81	164,130
372,03	-2000,000
372,24	-240,625
372,46	2166,667
372,68	197,059
372,89	94,495
373,11	169,767
373,32	131,933
373,54	790,909
373,76	272,222
373,97	351,515
374,19	-331,579
374,40	127,143
374,62	505,882
374,84	354,167
375,05	236,538
375,27	324,324
375,48	135,802
375,70	358,824
375,92	167,857
376,13	600,000
376,35	354,167
376,56	205,000
376,78	130,612
376,99	196,970
377,21	290,625
377,43	193,939
377,64	164,000
377,86	600,000
378,07	125,000
378,29	152,778
378,51	120,238
378,72	-218,182
378,94	223,913
379,15	159,091
379,37	387,500
379,58	316,667
379,80	200,000
380,01	172,000
380,23	365,217
380,45	231,250
380,66	113,889
380,88	248,649
381,09	478,261
381,31	284,615
381,52	265,217
381,74	187,500
381,95	407,143
382,17	400,000
382,39	164,516
382,60	729,412
382,82	286,207
383,03	1400,000
383,25	91,358
383,46	625,000
383,68	227,660
383,89	172,727
384,11	163,014
384,32	289,474
384,54	-1085,714
384,76	205,882
384,97	240,000
385,19	242,105
385,40	378,125
385,62	341,935
385,83	285,106
386,05	1214,286
386,26	419,231
386,48	346,154
386,69	302,778
386,91	380,000
387,12	235,897
387,34	162,712
387,55	291,429
387,77	400,000
387,98	151,020
388,20	161,972
388,41	142,857
388,63	201,429
388,84	307,500
389,06	262,791
389,27	293,750
389,49	61,446
389,70	218,644
389,92	202,273
390,13	269,231
390,35	90,625
390,56	210,937
390,78	413,636
390,99	251,111
391,21	94,318
391,42	91,304
391,64	-560,000
391,85	181,034
392,07	-164,286
392,28	219,231
392,50	1740,000
392,71	8600,000
392,93	119,355
393,14	239,130
393,36	117,949
393,57	400,000
393,79	107,937
394,00	153,425
394,22	192,000
394,43	282,143
394,65	117,857
394,86	178,125
395,08	-900,000
395,29	78,723
395,50	-2700,000
395,72	1185,714
395,93	416,000
396,15	-35,714
396,36	250,000
396,58	-419,048
396,79	200,000
397,01	323,810
397,22	131,884
397,44	157,447
397,65	90,541
397,87	150,000
398,08	269,231
398,29	425,000
398,51	192,683
398,72	191,304
398,94	202,326
399,15	116,667
399,37	156,522
399,58	146,032
399,80	466,667
400,01	270,588
400,22	600,000
400,44	395,238
400,65	138,356
400,87	6300,000
401,08	111,236
401,30	125,333
401,51	110,909
401,72	109,677
401,94	214,634
402,15	167,347
402,37	186,364
402,58	325,581
402,80	262,500
403,01	138,889
403,22	74,699
403,44	163,889
403,65	171,429
403,87	102,667
404,08	128,846
404,30	171,875
404,51	88,571
404,72	909,091
404,94	138,554
405,15	165,672
405,37	119,780
405,58	190,323
405,79	392,857
406,01	78,519
406,22	85,714
406,44	131,579
406,65	128,571
406,86	94,000
407,08	54,321
407,29	90,667
407,51	65,385
407,72	88,119
407,93	54,430
408,15	87,500
408,36	197,143
408,58	71,667
408,79	51,163
409,00	53,901
409,22	49,020
409,43	73,874
409,64	57,692
409,86	55,682
410,07	40,000
410,29	34,000
410,50	55,556
410,71	55,645
410,93	58,416
411,14	69,159
411,35	39,583
411,57	16,667
411,78	55,882
412,00	9,333
412,21	46,018
412,42	40,488
412,64	54,444
412,85	44,041
413,06	43,304
413,28	35,686
413,49	42,326
413,70	38,627
413,92	45,714
414,13	21,739
414,34	13,755
414,56	40,426
414,77	21,033
414,98	40,636
415,20	29,749
415,41	31,818
415,63	36,182
415,84	22,438
416,05	27,108
416,27	21,448
416,48	26,303
416,69	28,198
416,91	14,667
417,12	11,991
417,33	18,284
417,55	25,000
417,76	15,856
417,97	14,607
418,19	10,042
418,40	6,823
418,61	14,237
418,83	11,620
419,04	8,372
419,25	10,686
419,46	14,125
419,68	8,112
419,89	11,594
420,10	5,108
420,32	9,139
420,53	14,200
420,74	14,217
420,96	12,441
421,17	10,148
421,38	7,880
421,60	8,360
421,81	6,707
422,02	5,103
422,23	6,851
422,45	5,550
422,66	9,114
422,87	5,598
423,09	7,468
423,30	6,930
423,51	3,941
423,73	4,552
423,94	6,715
424,15	4,336
424,36	4,419
424,58	5,585
424,79	7,157
425,00	2,854
425,22	4,824
425,43	4,881
425,64	1,512
425,85	4,002
426,07	4,892
426,28	2,830
426,49	4,527
426,71	3,711
426,92	3,311
427,13	4,100
427,34	2,774
427,56	5,758
427,77	1,615
427,98	2,221
428,19	0,465
428,41	2,709
428,62	1,678
428,83	1,712
429,04	2,774
429,26	2,098
429,47	3,166
429,68	1,524
429,89	1,712
430,11	3,154
430,32	2,893
430,53	1,583
430,74	3,599
430,96	2,779
431,17	2,193
431,38	1,621
431,59	2,171
431,81	2,440
432,02	2,210
432,23	2,436
432,44	2,891
432,66	1,791
432,87	0,486
433,08	2,644
433,29	1,617
433,51	1,982
433,72	2,110
433,93	0,666
434,14	1,531
434,35	1,276
434,57	1,518
434,78	1,893
434,99	1,173
435,20	1,677
435,42	2,174
435,63	1,103
435,84	1,572
436,05	0,960
436,26	0,055
436,48	1,428
436,69	1,076
436,90	0,862
437,11	1,455
437,32	0,961
437,54	1,351
437,75	1,067
437,96	1,493
438,17	1,065
438,38	0,996
438,60	1,348
438,81	0,790
439,02	0,891
439,23	0,868
439,44	0,882
439,66	1,092
439,87	1,121
440,08	0,720
440,29	1,172
440,50	1,145
440,72	0,999
440,93	1,229
441,14	0,634
441,35	0,583
441,56	0,983
441,77	0,838
441,99	0,910
442,20	0,635
442,41	0,775
442,62	0,508
442,83	0,934
443,04	0,591
443,26	0,666
443,47	0,940
443,68	0,702
443,89	0,778
444,10	0,575
444,31	1,164
444,53	0,988
444,74	0,809
444,95	0,319
445,16	0,675
445,37	0,672
445,58	0,390
445,80	0,413
446,01	0,974
446,22	1,063
446,43	0,917
446,64	0,605
446,85	0,498
447,06	0,746
447,28	0,775
447,49	0,841
447,70	1,010
447,91	0,749
448,12	0,585
448,33	0,593
448,54	0,701
448,76	0,905
448,97	0,982
449,18	1,103
449,39	1,038
449,60	1,230
449,81	1,488
450,02	2,030
450,23	2,072
450,45	3,063
450,66	3,684
450,87	4,720
451,08	6,217
451,29	7,835
451,50	9,489
451,71	11,272
451,92	14,225
452,13	17,041
452,35	19,258
452,56	23,241
452,77	25,686
452,98	29,353
453,19	32,443
453,40	34,717
453,61	37,481
453,82	39,255
454,03	42,389
454,25	44,202
454,46	45,438
454,67	48,275
454,88	49,716
455,09	52,545
455,30	54,241
455,51	56,692
455,72	60,021
455,93	60,647
456,14	66,319
456,35	67,429
456,56	70,744
456,78	74,992
456,99	77,016
457,20	79,904
457,41	83,203
457,62	85,722
457,83	88,282
458,04	90,309
458,25	91,115
458,46	91,364
458,67	92,619
458,88	92,281
459,09	93,124
459,30	92,634
459,51	92,222
459,73	92,117
459,94	92,673
460,15	91,849
460,36	91,503
460,57	91,169
460,78	92,046
460,99	90,964
461,20	90,805
461,41	90,273
461,62	90,054
461,83	90,509
462,04	88,966
462,25	90,604
462,46	89,568
462,67	89,717
462,88	89,322
463,09	89,308
463,30	88,426
463,51	87,386
463,72	88,510
463,93	87,323
464,15	86,981
464,36	87,318
464,57	86,027
464,78	86,968
464,99	87,333
465,20	87,993
465,41	87,986
465,62	88,171
465,83	90,101
466,04	90,011
466,25	90,091
466,46	90,240
466,67	91,779
466,88	93,628
467,09	92,899
467,30	93,707
467,51	93,174
467,72	93,503
467,93	93,352
468,14	92,304
468,35	92,024
468,56	91,519
468,77	91,083
468,98	91,378
469,19	91,376
469,40	90,521
469,61	89,830
469,82	89,930
470,03	88,956
470,24	88,040
470,45	86,829
470,66	84,978
470,87	83,132
471,08	82,692
471,29	81,026
471,50	78,147
471,71	75,861
471,92	74,060
472,13	71,376
472,34	68,987
472,55	66,171
472,76	63,394
472,97	60,616
473,18	57,047
473,39	53,172
473,60	48,789
473,81	44,556
474,01	41,300
474,22	37,844
474,43	33,503
474,64	29,546
474,85	26,125
475,06	22,422
475,27	19,499
475,48	16,585
475,69	14,278
475,90	11,734
476,11	10,150
476,32	8,126
476,53	6,419
476,74	5,512
476,95	4,459
477,16	3,438
477,37	2,715
477,58	2,175
477,79	1,852
478,00	1,441
478,21	1,542
478,41	1,055
478,62	1,011
478,83	0,997
479,04	0,810
479,25	0,554
479,46	0,554
479,67	0,528
479,88	0,463
480,09	0,502
480,30	0,605
480,51	0,779
480,72	0,440
480,93	0,809
481,14	0,644
481,34	0,535
481,55	0,617
481,76	0,567
481,97	0,547
482,18	0,698
482,39	0,516
482,60	0,567
482,81	0,479
483,02	0,459
483,23	0,450
483,44	0,601
483,65	0,311
483,85	0,426
484,06	0,545
484,27	0,429
484,48	0,350
484,69	0,571
484,90	0,319
485,11	0,430
485,32	0,487
485,53	0,403
485,73	0,557
485,94	0,245
486,15	0,443
486,36	0,558
486,57	0,337
486,78	0,568
486,99	0,410
487,20	0,271
487,41	0,602
487,61	0,360
487,82	0,253
488,03	0,527
488,24	0,468
488,45	0,415
488,66	0,496
488,87	0,592
489,08	0,553
489,28	0,138
489,49	0,479
489,70	0,194
489,91	0,354
490,12	0,351
490,33	0,229
490,54	0,370
490,74	0,474
490,95	0,263
491,16	0,452
491,37	0,524
491,58	0,319
491,79	0,543
492,00	0,211
492,20	0,589
492,41	0,422
492,62	0,389
492,83	0,311
493,04	0,442
493,25	0,344
493,45	0,307
493,66	0,531
493,87	0,381
494,08	0,286
494,29	0,140
494,50	0,167
494,70	0,413
494,91	0,494
495,12	0,391
495,33	0,586
495,54	0,427
495,75	0,301
495,95	0,327
496,16	0,464
496,37	0,242
496,58	0,239
496,79	0,268
496,99	0,318
497,20	0,377
497,41	0,486
497,62	0,339
497,83	0,403
498,04	0,564
498,24	0,304
498,45	0,313
498,66	0,372
498,87	0,351
499,08	0,367
499,28	0,358
499,49	0,442
499,70	0,328
499,91	0,313
500,12	0,297
500,32	0,511
500,53	0,267
500,74	0,379
500,95	0,204
501,15	0,392
501,36	0,387
501,57	0,542
501,78	0,333
501,99	0,291
502,19	0,274
502,40	0,443
502,61	0,257
502,82	0,330
503,02	0,215
503,23	0,361
503,44	0,501
503,65	0,264
503,86	0,317
504,06	0,443
504,27	0,502
504,48	0,405
504,69	0,368
504,89	0,284
505,10	0,367
505,31	0,467
505,52	0,422
505,72	0,560
505,93	0,415
506,14	0,268
506,35	0,358
506,55	0,282
506,76	0,173
506,97	0,363
507,18	0,333
507,38	0,261
507,59	0,401
507,80	0,272
508,01	0,365
508,21	0,380
508,42	0,358
508,63	0,378
508,84	0,521
509,04	0,375
509,25	0,508
509,46	0,226
509,67	0,485
509,87	0,325
510,08	0,486
510,29	0,326
510,49	0,470
510,70	0,409
510,91	0,619
511,12	0,417
511,32	0,264
511,53	0,244
511,74	0,273
511,94	0,212
512,15	0,277
512,36	0,275
512,57	0,554
512,77	0,343
512,98	0,284
513,19	0,585
513,39	0,432
513,60	0,106
513,81	0,426
514,01	0,541
514,22	0,389
514,43	0,396
514,64	0,342
514,84	0,546
515,05	0,447
515,26	0,368
515,46	0,341
515,67	0,393
515,88	0,530
516,08	0,543
516,29	0,314
516,50	0,189
516,70	0,395
516,91	0,486
517,12	0,360
517,32	0,320
517,53	0,269
517,74	0,480
517,95	0,521
518,15	0,338
518,36	0,556
518,57	0,321
518,77	0,509
518,98	0,378
519,19	0,335
519,39	0,503
519,60	0,245
519,80	0,542
520,01	0,409
520,22	0,358
520,42	0,401
520,63	0,261
520,84	0,380
521,04	0,455
521,25	0,355
521,46	0,304
521,66	0,352
521,87	0,350
522,08	0,482
522,28	0,577
522,49	0,503
522,70	0,581
522,90	0,461
523,11	0,367
523,31	0,501
523,52	0,390
523,73	0,330
523,93	0,465
524,14	0,480
524,35	0,596
524,55	0,489
524,76	0,391
524,97	0,500
525,17	0,374
525,38	0,452
525,58	0,357
525,79	0,348
526,00	0,431
526,20	0,402
526,41	0,374
526,61	0,503
526,82	0,396
527,03	0,712
527,23	0,374
527,44	0,792
527,64	0,672
527,85	0,531
528,06	0,846
528,26	0,931
528,47	1,079
528,68	1,333
528,88	1,413
529,09	1,631
529,29	2,100
529,50	2,669
529,70	2,971
529,91	3,461
530,12	4,297
530,32	5,037
530,53	6,102
530,73	6,777
530,94	8,402
531,15	9,997
531,35	11,292
531,56	13,317
531,76	14,752
531,97	16,447
532,17	18,238
532,38	20,379
532,59	22,468
532,79	24,793
533,00	26,781
533,20	28,446
533,41	30,068
533,61	32,242
533,82	33,227
534,03	35,057
534,23	36,249
534,44	37,927
534,64	38,991
534,85	39,983
535,05	41,465
535,26	42,148
535,46	43,245
535,67	44,963
535,88	45,256
536,08	46,718
536,29	47,964
536,49	49,938
536,70	52,085
536,90	52,984
537,11	54,609
537,31	57,030
537,52	59,483
537,72	61,697
537,93	62,962
538,13	65,158
538,34	67,611
538,55	69,938
538,75	71,815
538,96	73,130
539,16	75,124
539,37	74,834
539,57	76,043
539,78	75,824
539,98	76,582
540,19	76,202
540,39	75,636
540,60	75,784
540,80	76,095
541,01	73,975
541,21	73,194
541,42	71,255
541,62	70,625
541,83	70,359
542,03	68,073
542,24	67,602
542,44	65,330
542,65	63,912
542,85	61,222
543,06	60,650
543,26	59,532
543,47	57,160
543,67	56,725
543,88	54,830
544,08	53,145
544,29	51,986
544,49	49,000
544,70	48,593
544,90	47,238
545,11	45,378
545,31	44,585
545,52	43,244
545,72	41,701
545,93	39,489
546,13	38,223
546,34	36,808
546,54	35,200
546,75	33,291
546,95	31,170
547,15	29,654
547,36	27,385
547,56	25,849
547,77	23,330
547,97	21,129
548,18	19,530
548,38	17,379
548,59	15,379
548,79	13,468
549,00	11,496
549,20	9,593
549,41	8,599
549,61	7,327
549,81	6,004
550,02	4,982
550,22	4,024
550,43	3,319
550,63	2,535
550,84	1,971
551,04	1,488
551,25	1,359
551,45	1,260
551,65	0,828
551,86	0,677
552,06	0,793
552,27	0,547
552,47	0,384
552,68	0,622
552,88	0,551
553,08	0,584
553,29	0,577
553,49	0,364
553,70	0,495
553,90	0,468
554,11	0,636
554,31	0,340
554,51	0,504
554,72	0,392
554,92	0,319
555,13	0,501
555,33	0,232
555,53	0,502
555,74	0,448
555,94	0,439
556,15	0,394
556,35	0,238
556,56	0,220
556,76	0,391
556,96	0,325
557,17	0,493
557,37	0,493
557,58	0,218
557,78	0,402
557,98	0,312
558,19	0,254
558,39	0,528
558,59	0,432
558,80	0,419
559,00	0,480
559,21	0,336
559,41	0,467
559,61	0,318
559,82	0,499
560,02	0,343
560,23	0,456
560,43	0,367
560,63	0,245
560,84	0,371
561,04	0,305
561,24	0,260
561,45	0,426
561,65	0,275
561,85	0,141
562,06	0,335
562,26	0,201
562,47	0,503
562,67	0,416
562,87	0,159
563,08	0,414
563,28	0,524
563,48	0,376
563,69	0,307
563,89	0,347
564,09	0,290
564,30	0,277
564,50	0,220
564,70	0,235
564,91	0,251
565,11	0,266
565,31	0,360
565,52	0,201
565,72	0,392
565,92	0,263
566,13	0,262
566,33	0,350
566,53	0,268
566,74	0,131
566,94	0,284
567,14	0,393
567,35	0,297
567,55	0,399
567,75	0,440
567,96	0,352
568,16	0,353
568,36	0,067
568,57	0,369
568,77	0,239
568,97	0,362
569,18	0,380
569,38	0,320
569,58	0,367
569,79	0,239
569,99	0,089
570,19	0,175
570,39	0,323
570,60	0,179
570,80	0,277
571,00	0,156
571,21	0,317
571,41	0,409
571,61	0,337
571,82	0,594
572,02	0,133
572,22	0,185
572,42	0,178
572,63	0,228
572,83	0,258
573,03	0,246
573,24	0,197
573,44	0,323
573,64	0,401
573,84	0,071
574,05	0,177
574,25	0,315
574,45	0,258
574,66	0,351
574,86	0,363
575,06	0,434
575,26	0,325
575,47	0,336
575,67	0,248
575,87	0,311
576,07	0,214
576,28	0,184
576,48	0,318
576,68	0,307
576,88	0,254
577,09	0,294
577,29	0,445
577,49	0,212
577,69	0,070
577,90	0,284
578,10	0,173
578,30	0,390
578,50	0,095
578,71	0,262
578,91	0,211
579,11	0,298
579,31	0,483
579,52	0,338
579,72	0,258
579,92	0,258
580,12	0,353
580,33	0,355
580,53	0,270
580,73	0,345
580,93	0,347
581,13	0,290
581,34	0,158
581,54	0,410
581,74	0,425
581,94	0,412
582,15	0,462
582,35	0,184
582,55	0,301
582,75	0,435
582,95	0,408
583,16	0,298
583,36	0,384
583,56	0,321
583,76	0,240
583,96	0,368
584,17	0,248
584,37	0,213
584,57	0,212
584,77	0,214
584,97	0,382
585,18	0,369
585,38	0,159
585,58	0,404
585,78	0,363
585,98	0,233
586,19	0,193
586,39	0,418
586,59	0,284
586,79	0,242
586,99	0,176
587,20	0,296
587,40	0,388
587,60	0,291
587,80	0,339
588,00	0,425
588,20	0,401
588,41	0,340
588,61	0,505
588,81	0,303
589,01	0,409
589,21	0,465
589,41	0,207
589,62	0,274
589,82	0,457
590,02	0,369
590,22	0,504
590,42	0,358
590,62	0,414
590,83	0,365
591,03	0,167
591,23	0,363
591,43	0,466
591,63	0,500
591,83	0,438
592,03	0,358
592,24	0,434
592,44	0,386
592,64	0,407
592,84	0,342
593,04	0,231
593,24	0,421
593,44	0,210
593,65	0,339
593,85	0,332
594,05	0,335
594,25	0,367
594,45	0,331
594,65	0,374
594,85	0,105
595,06	0,287
595,26	0,509
595,46	0,450
595,66	0,518
595,86	0,233
596,06	0,393
596,26	0,323
596,46	0,655
596,66	0,334
596,87	0,441
597,07	0,459
597,27	0,551
597,47	0,631
597,67	0,579
597,87	0,514
598,07	0,724
598,27	0,844
598,47	1,035
598,67	1,089
598,88	1,322
599,08	1,658
599,28	2,058
599,48	2,330
599,68	3,038
599,88	3,488
600,08	4,002
600,28	4,971
600,48	5,885
600,68	6,918
600,88	8,248
601,09	9,702
601,29	11,025
601,49	13,084
601,69	14,882
601,89	17,019
602,09	19,193
602,29	21,366
602,49	23,883
602,69	26,995
602,89	29,244
603,09	32,187
603,29	34,496
603,49	37,909
603,69	39,734
603,90	42,681
604,10	45,068
604,30	47,955
604,50	50,431
604,70	53,132
604,90	55,038
605,10	58,091
605,30	59,981
605,50	62,221
605,70	65,323
605,90	67,037
606,10	70,522
606,30	72,268
606,50	74,677
606,70	76,768
606,90	78,140
607,10	79,305
607,30	81,587
607,50	82,552
607,70	85,248
607,90	85,316
608,10	86,433
608,30	87,781
608,50	87,232
608,70	88,014
608,90	89,049
609,11	90,385
609,31	89,906
609,51	89,381
609,71	91,298
609,91	92,047
610,11	92,193
610,31	93,061
610,51	92,003
610,71	93,528
610,91	94,133
611,11	93,515
611,31	93,566
611,51	94,218
611,71	95,223
611,91	96,086
612,11	95,668
612,31	96,101
612,51	95,523
612,71	96,543
612,91	95,630
613,11	96,013
613,31	94,666
613,51	95,254
613,71	93,848
613,91	93,776
614,11	93,627
614,31	92,265
614,50	90,663
614,70	89,203
614,90	88,371
615,10	86,344
615,30	85,595
615,50	83,432
615,70	81,397
615,90	80,463
616,10	77,751
616,30	75,670
616,50	72,468
616,70	71,325
616,90	68,997
617,10	67,298
617,30	65,766
617,50	63,895
617,70	61,935
617,90	59,714
618,10	58,843
618,30	57,030
618,50	56,091
618,70	54,167
618,90	53,057
619,10	52,353
619,30	51,340
619,49	50,680
619,69	49,806
619,89	49,539
620,09	48,706
620,29	48,542
620,49	47,018
620,69	45,699
620,89	45,440
621,09	43,718
621,29	42,941
621,49	42,333
621,69	41,211
621,89	40,350
622,09	38,532
622,29	38,103
622,48	35,967
622,68	34,166
622,88	32,793
623,08	30,481
623,28	28,489
623,48	25,932
623,68	24,691
623,88	22,343
624,08	19,956
624,28	18,142
624,48	15,736
624,67	13,765
624,87	12,317
625,07	10,574
625,27	8,968
625,47	7,631
625,67	6,517
625,87	5,548
626,07	4,579
626,27	3,595
626,47	3,147
626,66	2,488
626,86	2,168
627,06	1,724
627,26	1,443
627,46	1,155
627,66	1,045
627,86	1,010
628,06	0,776
628,25	0,695
628,45	0,761
628,65	0,602
628,85	0,555
629,05	0,557
629,25	0,338
629,45	0,454
629,65	0,495
629,84	0,326
630,04	0,307
630,24	0,497
630,44	0,381
630,64	0,352
630,84	0,421
631,04	0,526
631,23	0,403
631,43	0,238
631,63	0,265
631,83	0,294
632,03	0,330
632,23	0,458
632,42	0,310
632,62	0,511
632,82	0,494
633,02	0,442
633,22	0,372
633,42	0,282
633,62	0,286
633,81	0,202
634,01	0,500
634,21	0,394
634,41	0,387
634,61	0,394
634,80	0,502
635,00	0,563
635,20	0,606
635,40	0,140
635,60	0,397
635,80	0,457
635,99	0,543
636,19	0,266
636,39	0,438
636,59	0,591
636,79	0,335
636,98	0,324
637,18	0,354
637,38	0,404
637,58	0,317
637,78	0,470
637,97	0,308
638,17	0,587
638,37	0,482
638,57	0,337
638,77	0,579
638,96	0,458
639,16	0,479
639,36	0,413
639,56	0,396
639,76	0,206
639,95	0,485
640,15	0,245
640,35	0,273
640,55	0,459
640,75	0,469
640,94	0,394
641,14	0,604
641,34	0,593
641,54	0,347
641,73	0,356
641,93	0,513
642,13	0,619
642,33	0,280
642,53	0,363
642,72	0,507
642,92	0,547
643,12	0,885
643,32	0,528
643,51	0,567
643,71	0,187
643,91	0,460
644,11	0,527
644,30	0,165
644,50	0,593
644,70	0,077
644,90	0,422
645,09	0,468
645,29	0,255
645,49	0,570
645,69	0,201
645,88	0,562
646,08	0,593
646,28	0,672
646,48	0,177
646,67	0,415
646,87	0,598
647,07	0,634
647,26	0,708
647,46	0,726
647,66	0,501
647,86	0,779
648,05	0,660
648,25	1,076
648,45	0,255
648,65	0,428
648,84	0,268
649,04	0,664
649,24	0,809
649,43	0,614
649,63	0,629
649,83	0,360
650,03	0,558
650,22	0,863
650,42	0,643
650,62	0,704
650,81	0,330
651,01	0,647
651,21	0,714
651,40	0,605
651,60	0,308
651,80	0,629
652,00	0,732
652,19	0,311
652,39	0,846
652,59	0,798
652,78	0,493
652,98	0,207
653,18	0,468
653,37	0,786
653,57	0,775
653,77	0,677
653,96	0,288
654,16	0,765
654,36	0,170
654,55	0,640
654,75	0,526
654,95	0,366
655,14	0,345
655,34	0,795
655,54	0,749
655,73	0,365
655,93	0,497
656,13	0,426
656,32	0,167
656,52	0,636
656,72	0,878
656,91	1,200
657,11	0,440
657,31	0,705
657,50	0,742
657,70	0,720
657,90	0,947
658,09	0,729
658,29	0,346
658,49	0,803
658,68	1,043
658,88	0,323
659,07	0,540
659,27	0,305
659,47	0,357
659,66	0,442
659,86	0,419
660,06	0,303
660,25	0,522
660,45	0,747
660,64	0,755
660,84	0,671
661,04	0,656
661,23	0,318
661,43	0,597
661,63	0,550
661,82	0,078
662,02	0,651
662,21	0,541
662,41	0,778
662,61	0,871
662,80	0,255
663,00	0,165
663,19	0,541
663,39	0,449
663,59	0,939
663,78	0,490
663,98	0,641
664,17	0,631
664,37	0,405
664,57	0,557
664,76	0,688
664,96	0,673
665,15	0,145
665,35	0,652
665,55	0,376
665,74	0,422
665,94	0,481
666,13	0,374
666,33	0,911
666,53	0,743
666,72	0,565
666,92	0,726
667,11	0,823
667,31	0,173
667,50	0,464
667,70	0,698
667,90	0,507
668,09	0,681
668,29	0,589
668,48	0,439
668,68	0,699
668,87	0,427
669,07	0,096
669,26	0,232
669,46	0,529
669,66	0,372
669,85	0,607
670,05	0,702
670,24	0,232
670,44	0,582
670,63	0,413
670,83	0,437
671,02	0,235
671,22	0,488
671,42	0,417
671,61	0,189
671,81	0,431
672,00	0,515
672,20	0,357
672,39	0,413
672,59	0,495
672,78	0,392
672,98	0,497
673,17	0,259
673,37	0,300
673,56	0,261
673,76	0,029
673,95	0,467
674,15	0,534
674,34	0,350
674,54	0,806
674,73	0,441
674,93	0,745
675,13	0,453
675,32	0,624
675,52	0,371
675,71	0,357
675,91	0,286
676,10	0,529
676,30	0,535
676,49	0,244
676,69	0,234
676,88	0,349
677,08	0,275
677,27	0,619
677,47	0,371
677,66	0,394
677,86	0,595
678,05	0,217
678,24	0,261
678,44	0,630
678,63	0,436
678,83	0,279
679,02	0,461
679,22	0,395
679,41	0,720
679,61	0,236
679,80	0,414
680,00	0,053
680,19	0,234
680,39	0,354
680,58	0,447
680,78	0,304
680,97	0,347
681,17	0,334
681,36	0,158
681,56	0,376
681,75	0,268
681,94	0,121
682,14	0,465
682,33	0,515
682,53	0,303
682,72	0,124
682,92	0,395
683,11	0,200
683,31	0,283
683,50	0,313
683,69	0,206
683,89	0,175
684,08	0,218
684,28	0,061
684,47	0,296
684,67	-0,050
684,86	0,143
685,06	0,242
685,25	0,385
685,44	0,218
685,64	0,356
685,83	0,332
686,03	0,075
686,22	0,274
686,42	0,259
686,61	0,250
686,80	0,137
687,00	0,131
687,19	0,222
687,39	0,191
687,58	0,203
687,77	0,430
687,97	0,248
688,16	0,270
688,36	0,239
688,55	0,256
688,74	0,170
688,94	0,243
689,13	0,307
689,33	0,192
689,52	0,334
689,71	0,232
689,91	0,251
690,10	0,134
690,30	0,044
690,49	0,095
690,68	0,385
690,88	0,155
691,07	0,147
691,27	0,255
691,46	0,185
691,65	0,265
691,85	0,173
692,04	0,146
692,23	-0,044
692,43	0,285
692,62	0,108
692,82	0,313
693,01	0,207
693,20	0,202
693,40	0,228
693,59	0,243
693,78	0,263
693,98	0,082
694,17	0,241
694,36	0,461
694,56	0,185
694,75	0,136
694,94	0,196
695,14	0,205
695,33	0,215
695,53	0,248
695,72	0,265
695,91	0,074
696,11	0,292
696,30	0,216
696,49	0,215
696,69	0,259
696,88	0,117
697,07	0,286
697,27	0,303
697,46	0,308
697,65	0,204
697,85	0,012
698,04	0,224
698,23	0,407
698,43	0,387
698,62	-0,084
698,81	0,388
699,01	0,465
699,20	0,414
699,39	0,173
699,58	0,383
699,78	0,390
699,97	0,236
700,16	0,194
700,36	0,484
700,55	0,466
700,74	0,727
700,94	0,422
701,13	0,313
701,32	0,194
701,52	0,179
701,71	0,737
701,90	0,502
702,09	1,030
702,29	0,728
702,48	0,319
702,67	0,833
702,87	1,170
703,06	0,588
703,25	1,000
703,44	0,457
703,64	0,608
703,83	0,688
704,02	1,211
704,22	0,871
704,41	0,820
704,60	1,526
704,79	1,218
704,99	1,655
705,18	1,220
705,37	1,483
705,56	0,706
705,76	0,668
705,95	1,852
706,14	1,296
706,33	0,730
706,53	1,561
706,72	0,293
706,91	1,661
707,11	1,483
707,30	0,921
707,49	1,620
707,68	1,569
707,88	1,917
708,07	0,171
708,26	0,597
708,45	1,142
708,64	1,896
708,84	0,997
709,03	2,244
709,22	1,310
709,41	2,376
709,61	0,841
709,80	3,411
709,99	2,314
710,18	1,696
710,38	0,315
710,57	0,699
710,76	0,098
710,95	1,927
711,14	2,251
711,34	1,136
711,53	2,625
711,72	2,819
711,91	2,804
712,11	2,708
712,30	1,039
712,49	0,766
712,68	-0,277
712,87	1,633
713,07	3,613
713,26	2,249
713,45	1,415
713,64	2,139
713,83	1,451
714,03	3,536
714,22	2,579
714,41	3,399
714,60	2,848
714,79	1,200
714,99	4,263
715,18	4,051
715,37	4,300
715,56	3,245
715,75	2,801
715,94	5,955
716,14	4,548
716,33	4,579
716,52	4,245
716,71	4,410
716,90	2,220
717,10	1,392
717,29	2,026
717,48	3,448
717,67	3,779
717,86	1,788
718,05	4,625
718,24	3,448
718,44	3,302
718,63	2,311
718,82	3,623
719,01	2,428
719,20	1,524
719,39	2,941
719,59	1,628
719,78	1,336
719,97	3,748
720,16	5,914
720,35	3,441
720,54	4,123
720,73	3,618
720,93	3,254
721,12	2,371
721,31	3,790
721,50	7,491
721,69	3,346
721,88	3,303
722,07	5,551
722,27	3,279
722,46	4,723
722,65	3,574
722,84	3,952
723,03	5,937
723,22	6,608
723,41	6,811
723,60	2,289
723,79	6,518
723,99	7,460
724,18	6,171
724,37	0,363
724,56	7,666
724,75	4,000
724,94	8,193
725,13	3,433
725,32	6,841
725,51	3,442
725,71	6,566
725,90	8,507
726,09	4,566
726,28	3,718
726,47	0,493
726,66	5,596
726,85	7,773
727,04	3,874
727,23	2,101
727,42	5,767
727,61	5,350
727,81	1,405
728,00	5,509
728,19	9,209
728,38	4,148
728,57	8,229
728,76	7,833
728,95	11,667
729,14	5,628
729,33	3,978
729,52	1,575
729,71	4,338
729,90	8,022
730,09	10,422
730,28	10,437
730,48	6,433
730,67	6,696
730,86	8,629
731,05	3,734
731,24	-0,854
731,43	5,459
731,62	7,904
731,81	3,632
732,00	11,617
732,19	5,168
732,38	5,000
732,57	3,545
732,76	1,505
732,95	4,505
733,14	0,574
733,33	-2,513
733,52	8,989
733,71	12,769
733,90	0,424
734,09	9,865
734,28	5,774
734,47	11,667
734,66	8,556
734,85	7,000
735,04	6,705
735,23	5,462
735,42	7,923
735,61	9,038
735,81	13,757
736,00	6,838
736,19	12,918
736,38	6,737
736,57	13,032
736,76	8,759
736,95	11,783
737,14	7,177
737,33	8,911
737,52	5,692
737,71	8,033
737,90	10,665
738,09	13,090
738,28	10,613
738,47	5,657
738,66	8,333
738,85	6,607
739,04	4,460
739,22	14,381
739,41	8,640
739,60	4,437
739,79	-1,799
739,98	1,971
740,17	10,580
740,36	11,754
740,55	13,854
740,74	16,123
740,93	13,576
741,12	8,393
741,31	5,282
741,50	5,671
741,69	10,265
741,88	6,522
742,07	5,978
742,26	12,952
742,45	16,598
742,64	10,786
742,83	6,195
743,02	-1,053
743,21	20,939
743,40	4,141
743,59	15,074
743,78	4,697
743,97	3,846
744,16	7,874
744,34	4,895
744,53	14,639
744,72	14,405
744,91	3,782
745,10	18,658
745,29	17,137
745,48	7,955
745,67	7,973
745,86	12,804
746,05	8,294
746,24	7,010
746,43	4,711
746,62	12,069
746,81	22,921
747,00	14,661
747,18	9,586
747,37	13,474
747,56	22,353
747,75	3,941
747,94	19,660
748,13	19,687
748,32	9,048
748,51	18,782
748,70	20,485
748,89	7,494
749,08	-6,395
749,26	20,044
749,45	13,405
749,64	9,824
749,83	15,506
750,02	27,174
750,21	8,142
750,40	22,065
750,59	10,724
750,78	22,195
750,96	9,392
751,15	8,411
751,34	10,511
751,53	8,743
751,72	12,394
751,91	9,067
752,10	5,236
752,29	9,333
752,47	5,158
752,66	20,317
752,85	22,678
753,04	17,598
753,23	15,480
753,42	22,372
753,61	26,646
753,80	6,186
753,98	24,242
754,17	17,933
754,36	5,806
754,55	18,976
754,74	22,078
754,93	30,579
755,12	14,243
755,30	12,338
755,49	15,988
755,68	14,724
755,87	13,609
756,06	26,042
756,25	15,805
756,43	8,389
756,62	22,671
756,81	10,927
757,00	11,184
757,19	23,958
757,38	16,216
757,56	16,400
757,75	20,137
757,94	20,152
758,13	20,548
758,32	21,365
758,51	10,774
758,69	10,811
758,88	11,785
759,07	25,449
759,26	32,155
759,45	5,263
759,63	22,078
759,82	15,088
760,01	16,484
760,20	35,535
760,39	32,808
760,57	25,087
760,76	26,829
760,95	25,694
761,14	22,628
761,33	25,806
761,51	27,143
761,70	20,074
761,89	6,667
762,08	45,353
762,27	21,300
762,45	10,870
762,64	6,533
762,83	29,880
763,02	21,304
763,21	18,000
763,39	34,965
763,58	18,587
763,77	34,599
763,96	17,530
764,14	21,667
764,33	22,857
764,52	36,607
764,71	20,984
764,89	33,036
765,08	23,153
765,27	6,809
765,46	28,251
765,65	38,039
765,83	54,751
766,02	2,857
766,21	19,672
766,40	34,630
766,58	50,265
766,77	30,734
766,96	26,423
767,15	28,571
767,33	44,928
767,52	30,568
767,71	23,246
767,90	22,613
768,08	41,916
768,27	24,797
768,46	43,860
768,64	22,685
768,83	17,647
769,02	29,064
769,21	33,854
769,39	40,000
769,58	44,156
769,77	38,830
769,96	28,378
770,14	39,891
770,33	41,121
770,52	27,338
770,70	21,081
770,89	46,486
771,08	15,060
771,27	23,158
771,45	21,765
771,64	50,303
771,83	28,922
772,01	41,753
772,20	36,816
772,39	11,392
772,57	35,821
772,76	17,568
772,95	37,356
773,14	58,503
773,32	40,678
773,51	30,952
773,70	31,655
773,88	34,839
774,07	37,563
774,26	9,677
774,44	54,887
774,63	58,084
774,82	6,494
775,00	29,907
775,19	27,381
775,38	35,106
775,56	52,174
775,75	46,703
775,94	20,000
776,12	31,373
776,31	32,331
776,50	26,027
776,68	19,892
776,87	57,895
777,06	28,302
777,24	21,008
777,43	52,941
777,62	41,573
777,80	52,830
777,99	65,000
778,18	45,402
778,36	32,203
778,55	27,119
778,74	23,437
778,92	48,148
779,11	71,818
779,29	12,057
779,48	58,865
779,67	51,351
779,85	35,088
780,04	41,304
780,23	51,786
780,41	60,169
780,60	30,872
780,79	52,419
780,97	15,686
781,16	25,000
781,34	62,162
781,53	66,071
781,72	14,414
781,90	42,515
782,09	33,721
782,28	38,776
782,46	62,857
782,65	23,239
782,83	27,044
783,02	22,807
783,21	36,842
783,39	46,218
783,58	40,870
783,76	37,415
783,95	46,479
784,14	60,526
784,32	23,529
784,51	66,216
784,69	12,500
784,88	59,813
785,06	54,305
785,25	40,426
785,44	32,258
785,62	5,000
785,81	58,333
785,99	54,887
786,18	65,766
786,37	71,429
786,55	40,278
786,74	25,455
786,92	48,252
787,11	47,917
787,29	64,286
787,48	67,742
787,67	25,472
787,85	120,253
788,04	36,937
788,22	-4,950
788,41	73,228
788,59	67,763
788,78	80,220
788,96	53,719
789,15	50,833
789,34	61,538
789,52	33,871
789,71	64,748
789,89	70,130
790,08	61,250
790,26	61,783
790,45	186,111
790,63	14,943
790,82	60,769
791,00	46,903
791,19	35,200
791,38	42,857
791,56	48,182
791,75	44,444
791,93	95,000
792,12	53,043
792,30	45,255
792,49	24,242
792,67	38,235
792,86	54,400
793,04	11,111
793,23	51,579
793,41	73,913
793,60	54,861
793,78	96,190
793,97	73,611
794,15	92,481
794,34	52,000
794,52	7,527
794,71	75,194
794,89	52,273
795,08	60,000
795,26	44,000
795,45	130,556
795,63	57,258
795,82	69,231
796,00	36,000
796,19	52,033
796,37	55,725
796,56	16,505
796,74	5,263
796,93	77,273
797,11	21,687
797,30	43,889
797,48	70,312
797,67	54,472
797,85	73,846
798,04	22,034
798,22	73,077
798,41	50,962
798,59	83,810
798,77	68,675
798,96	23,457
799,14	66,129
799,33	65,138
799,51	88,889
799,70	88,462
799,88	83,486
800,07	33,588
800,25	44,578
800,44	-25,926
800,62	61,111
800,80	68,310
800,99	147,945
801,17	78,448
801,36	83,571
801,54	82,000
801,73	76,842
801,91	67,769
802,10	62,353
802,28	38,400
802,46	77,632
802,65	58,273
802,83	133,333
803,02	70,968
803,20	90,361
803,39	82,759
803,57	43,307
803,75	80,488
803,94	59,524
804,12	65,517
804,31	0,000
804,49	51,200
804,67	21,324
804,86	41,593
805,04	66,265
805,23	67,257
805,41	37,500
805,59	60,274
805,78	93,600
805,96	113,253
806,15	74,257
806,33	84,211
806,51	12,000
806,70	60,902
806,88	124,419
807,07	77,477
807,25	42,857
807,43	50,893
807,62	55,752
807,80	80,000
807,99	70,769
808,17	28,346
808,35	48,000
808,54	63,768
808,72	112,613
808,90	50,685
809,09	52,174
809,27	80,000
809,46	108,791
809,64	114,634
809,82	57,616
810,01	46,875
810,19	59,596
810,37	42,188
810,56	127,778
810,74	62,338
810,92	68,667
811,11	26,316
811,29	97,170
811,48	60,769
811,66	51,685
811,84	5,495
812,03	34,426
812,21	54,386
812,39	56,522
812,58	64,211
812,76	75,540
812,94	57,831
813,13	38,298
813,31	80,000
813,49	56,481
813,68	37,273
813,86	78,652
814,04	58,678
814,23	62,651
814,41	71,910
814,59	59,223
814,78	35,294
814,96	44,025
815,14	44,860
815,33	41,085
815,51	84,252
815,69	69,524
815,87	79,208
816,06	75,652
816,24	90,062
816,42	70,588
816,61	38,994
816,79	21,552
816,97	105,682
817,16	24,852
817,34	45,238
817,52	71,074
817,70	48,515
817,89	57,778
818,07	56,164
818,25	32,653
818,44	58,974
818,62	34,109
818,80	23,308
818,98	57,325
819,17	100,000
819,35	33,511
819,53	58,955
819,72	48,101
819,90	53,488
820,08	-2,564
820,26	42,241
820,45	35,570
820,63	95,536
820,81	66,400
820,99	55,319
821,18	31,293
821,36	44,937
821,54	73,103
821,73	52,778
821,91	42,105
822,09	29,839
822,27	57,419
822,46	41,176
822,64	50,400
822,82	35,912
823,00	13,812
823,19	41,209
823,37	50,303
823,55	30,114
823,73	41,379
823,91	42,029
824,10	30,645
824,28	46,734
824,46	28,155
824,64	55,263
824,83	59,006
825,01	54,000
825,19	49,194
825,37	34,783
825,56	52,830
825,74	31,122
825,92	42,675
826,10	68,750
826,28	34,524
826,47	48,947
826,65	51,064
826,83	48,276
827,01	38,150
827,19	54,762
827,38	62,963
827,56	45,455
827,74	13,408
827,92	48,256
828,10	45,513
828,29	1,775
828,47	47,967
828,65	26,923
828,83	-13,939
829,01	62,500
829,20	48,901
829,38	38,068
829,56	69,565
829,74	23,270
829,92	42,063
830,10	33,908
830,29	28,141
830,47	36,683
830,65	15,244
830,83	32,589
831,01	38,690
831,20	42,233
831,38	18,182
831,56	38,605
831,74	46,445
831,92	43,421
832,10	33,810
832,29	12,838
832,47	0,562
832,65	42,647
832,83	13,615
833,01	47,000
833,19	28,507
833,37	49,321
833,56	38,397
833,74	39,216
833,92	30,093
834,10	14,523
834,28	38,397
834,46	30,769
834,64	45,833
834,83	35,455
835,01	37,344
835,19	33,600
835,37	38,430
835,55	21,354
835,73	50,246
835,91	33,948
836,09	30,038
836,28	24,354
836,46	14,000
836,64	35,714
836,82	23,077
837,00	35,507
837,18	15,242
837,36	19,522
837,54	15,000
837,72	29,310
837,91	30,224
838,09	26,693
838,27	24,333
838,45	17,376
838,63	25,000
838,81	2,954
838,99	27,016
839,17	31,419
839,35	19,149
839,53	36,491
839,72	19,925
839,90	33,333
840,08	16,923
840,26	25,000
840,44	21,752
840,62	26,897
840,80	34,694
840,98	34,902
841,16	23,954
841,34	9,365
841,52	25,382
841,70	28,308
841,89	16,129
842,07	15,361
842,25	28,736
842,43	11,207
842,61	32,632
842,79	14,689
842,97	23,127
843,15	31,023
843,33	8,202
843,51	7,530
843,69	38,746
843,87	19,030
844,05	7,903
844,23	39,640
844,41	9,718
844,59	19,597
844,77	26,050
844,95	30,636
845,13	20,615
845,31	7,849
845,50	21,990
845,68	30,868
845,86	20,977
846,04	29,330
846,22	15,259
846,40	25,000
846,58	22,507
846,76	15,054
846,94	27,182
847,12	20,984
847,30	13,660
847,48	13,622
847,66	27,586
847,84	15,301
848,02	21,498
848,20	21,705
848,38	14,245
848,56	14,773
848,74	20,286
848,92	8,728
849,10	14,750
849,28	19,028
849,46	11,467
849,64	20,554
849,82	5,864
850,00	25,000
850,18	22,553
850,36	8,389
850,54	14,536
850,72	20,823
850,90	18,478
851,08	21,663
851,26	17,505
851,44	16,150
851,62	12,326
851,80	18,943
851,98	19,780
852,16	26,005
852,34	14,227
852,52	16,518
852,70	7,745
852,87	14,612
853,05	9,747
853,23	14,433
853,41	13,379
853,59	11,826
853,77	13,095
853,95	24,051
854,13	10,619
854,31	7,187
854,49	9,780
854,67	11,879
854,85	26,087
855,03	23,447
855,21	17,684
855,39	2,414
855,57	7,348
855,75	14,781
855,93	11,765
856,11	23,598
856,28	18,081
856,46	16,726
856,64	14,286
856,82	10,137
857,00	5,274
857,18	15,523
857,36	16,863
857,54	14,533
857,72	20,351
857,90	6,273
858,08	15,294
858,26	6,625
858,44	7,992
858,61	7,143
858,79	12,630
858,97	12,035
859,15	21,207
859,33	17,969
859,51	10,720
859,69	4,472
859,87	16,310
860,05	6,217
860,23	12,013
860,40	6,050
860,58	10,328
860,76	9,365
860,94	13,008
861,12	13,385
861,30	12,245
861,48	11,429
861,66	11,587
861,84	14,948
862,01	13,844
862,19	15,085
862,37	11,800
862,55	8,790
862,73	8,359
862,91	4,405
863,09	5,655
863,27	9,339
863,44	8,322
863,62	12,092
863,80	5,063
863,98	15,282
864,16	6,792
864,34	11,740
864,52	9,115
864,69	6,140
864,87	8,249
865,05	7,483
865,23	8,889
865,41	11,425
865,59	11,171
865,76	12,419
865,94	8,269
866,12	14,194
866,30	6,031
866,48	10,282
866,66	4,570
866,83	13,868
867,01	10,230
867,19	7,802
867,37	7,374
867,55	10,036
867,73	6,851
867,90	6,228
868,08	6,892
868,26	6,373
868,44	7,034
868,62	13,022
868,79	9,507
868,97	9,068
869,15	2,668
869,33	7,204
869,51	5,226
869,69	9,756
869,86	7,251
870,04	11,954
870,22	10,327
870,40	3,509
870,57	5,998
870,75	5,304
870,93	8,526
871,11	11,580
871,29	5,822
871,46	5,850
871,64	5,858
871,82	8,934
872,00	10,802
872,18	3,376
872,35	9,469
872,53	5,044
872,71	7,245
872,89	12,633
873,06	8,307
873,24	8,923
873,42	4,067
873,60	9,694
873,77	6,748
873,95	4,240
874,13	1,057
874,31	5,676
874,49	6,583
874,66	8,647
874,84	5,918
875,02	7,883
875,20	9,557
875,37	8,653
875,55	8,683
875,73	6,556
875,91	4,461
876,08	7,130
876,26	4,947
876,44	5,734
876,61	9,428
876,79	6,649
876,97	4,015
877,15	2,731
877,32	6,223
877,50	6,788
877,68	3,856
877,86	0,935
878,03	8,271
878,21	6,888
878,39	6,335
878,56	4,215
878,74	8,180
878,92	0,888
879,10	3,382
879,27	7,247
879,45	6,646
879,63	4,348
879,80	4,641
879,98	1,956
880,16	4,585
880,34	6,559
880,51	0,394
880,69	3,199
880,87	3,399
881,04	5,282
881,22	4,036
881,40	9,447
881,57	5,267
881,75	2,839
881,93	7,604
882,10	3,443
882,28	5,379
882,46	8,973
882,63	4,639
882,81	9,810
882,99	4,172
883,16	6,636
883,34	4,345
883,52	3,823
883,69	7,072
883,87	0,911
884,05	4,446
884,22	3,979
884,40	4,449
884,58	2,708
884,75	4,507
884,93	4,562
885,11	6,367
885,28	3,930
885,46	0,123
885,64	4,268
885,81	5,183
885,99	2,416
886,17	3,318
886,34	3,735
886,52	4,196
886,70	7,724
886,87	4,078
887,05	4,938
887,22	2,656
887,40	4,341
887,58	3,848
887,75	4,321
887,93	6,821
888,11	3,856
888,28	2,389
888,46	4,852
888,63	3,175
888,81	3,283
888,99	4,495
889,16	5,474
889,34	3,032
889,51	0,950
889,69	1,462
889,87	4,573
890,04	2,956
890,22	3,413
890,39	1,737
890,57	5,188
890,75	1,917
890,92	2,579
891,10	2,767
891,27	2,979
891,45	3,209
891,63	3,369
891,80	3,767
891,98	1,333
892,15	2,611
892,33	3,000
892,51	4,744
892,68	2,672
892,86	4,195
893,03	2,288
893,21	4,758
893,38	3,040
893,56	3,157
893,74	3,420
893,91	4,331
894,09	3,761
894,26	2,380
894,44	2,984
894,61	3,020
894,79	1,359
894,96	2,773
895,14	3,983
895,32	2,537
895,49	3,281
895,67	2,914
895,84	1,397
896,02	0,043
896,19	1,731
896,37	3,243
896,54	3,010
896,72	2,516
896,89	3,801
897,07	4,216
897,25	3,219
897,42	2,107
897,60	3,324
897,77	4,023
897,95	1,676
898,12	3,005
898,30	2,760
898,47	2,640
898,65	0,783
898,82	1,321
899,00	2,674
899,17	1,970
899,35	1,064
899,52	5,325
899,70	2,442
899,87	1,985
900,05	2,245
900,22	4,000
900,40	2,648
900,57	1,929
900,75	1,569
900,92	2,707
901,10	2,568
901,27	1,665
901,45	4,284
901,62	2,698
901,80	2,873
901,97	2,950
902,15	2,744
902,32	3,414
902,50	1,148
902,67	4,410
902,85	2,995
903,02	3,312
903,20	2,355
903,37	1,459
903,54	1,976
903,72	2,347
903,89	2,353
904,07	0,963
904,24	2,243
904,42	2,746
904,59	1,500
904,77	2,193
904,94	1,952
905,12	1,843
905,29	1,616
905,47	3,067
905,64	2,337
905,81	2,401
905,99	1,820
906,16	1,665
906,34	2,054
906,51	1,693
906,69	2,174
906,86	2,479
907,03	2,994
907,21	1,129
907,38	2,519
907,56	2,990
907,73	2,006
907,91	1,836
908,08	2,273
908,25	3,680
908,43	2,450
908,60	1,327
908,78	1,443
908,95	2,874
909,13	4,316
909,30	2,978
909,47	1,044
909,65	2,010
909,82	2,095
910,00	1,456
910,17	3,452
910,34	3,080
910,52	1,339
910,69	0,347
910,87	1,441
911,04	2,695
911,21	3,483
911,39	1,064
911,56	1,463
911,73	1,412
911,91	1,841
912,08	2,710
912,26	0,695
912,43	2,486
912,60	1,673
912,78	2,031
912,95	2,280
913,13	1,992
913,30	2,432
913,47	1,882
913,65	1,966
913,82	1,498
913,99	0,495
914,17	1,873
914,34	1,952
914,51	1,543
914,69	1,951
914,86	3,310
915,03	2,362
915,21	1,894
915,38	1,388
915,56	2,640
915,73	0,767
915,90	1,477
916,08	3,055
916,25	2,036
916,42	1,155
916,60	2,362
916,77	1,737
916,94	1,752
917,12	2,083
917,29	1,820
917,46	2,197
917,64	2,670
917,81	0,958
917,98	0,983
918,16	1,980
918,33	1,747
918,50	1,318
918,67	2,024
918,85	1,984
919,02	1,088
919,19	1,955
919,37	2,174
919,54	1,895
919,71	2,628
919,89	1,433
920,06	3,202
920,23	1,791
920,41	2,419
920,58	1,950
920,75	2,298
920,92	1,598
921,10	1,181
921,27	1,550
921,44	1,575
921,62	1,642
921,79	1,390
921,96	2,060
922,13	1,527
922,31	1,483
922,48	0,147
922,65	1,799
922,82	0,345
923,00	2,052
923,17	0,489
923,34	1,999
923,52	1,123
923,69	1,992
923,86	1,515
924,03	0,991
924,21	1,961
924,38	2,442
924,55	1,613
924,72	1,441
924,90	1,374
925,07	1,465
925,24	1,391
925,41	1,341
925,59	1,370
925,76	0,670
925,93	1,931
926,10	1,928
926,28	1,339
926,45	0,908
926,62	1,037
926,79	1,344
926,96	2,186
927,14	2,180
927,31	1,832
927,48	1,928
927,65	1,016
927,83	1,280
928,00	1,120
928,17	2,238
928,34	1,041
928,51	1,052
928,69	0,513
928,86	1,027
929,03	1,186
929,20	1,657
929,37	1,191
929,55	2,063
929,72	1,269
929,89	1,026
930,06	1,461
930,23	2,194
930,41	0,520
930,58	1,452
930,75	0,913
930,92	1,789
931,09	0,922
931,27	1,094
931,44	0,839
931,61	1,513
931,78	1,096
931,95	1,265
932,12	1,683
932,30	1,973
932,47	0,640
932,64	0,731
932,81	0,771
932,98	1,551
933,16	0,725
933,33	1,601
933,50	0,285
933,67	2,182
933,84	2,786
934,01	1,369
934,18	1,948
934,36	1,175
934,53	1,590
934,70	0,744
934,87	0,708
935,04	1,476
935,21	1,302
935,38	1,222
935,56	1,589
935,73	1,058
935,90	0,893
936,07	1,433
936,24	1,822
936,41	1,025
936,58	0,929
936,76	1,317
936,93	0,453
937,10	1,389
937,27	1,679
937,44	1,673
937,61	1,789
937,78	1,018
937,95	2,278
938,13	0,758
938,30	0,634
938,47	1,825
938,64	0,300
938,81	0,894
938,98	0,838
939,15	1,528
939,32	1,004
939,49	1,234
939,66	1,054
939,84	1,131
940,01	0,405
940,18	1,215
940,35	1,089
940,52	1,808
940,69	0,992
940,86	2,274
941,03	0,701
941,20	0,324
941,37	1,444
941,54	1,576
941,71	2,008
941,89	1,146
942,06	0,734
942,23	1,742
942,40	1,010
942,57	1,598
942,74	0,489
942,91	1,802
943,08	1,559
943,25	1,664
943,42	0,511
943,59	2,252
943,76	1,328
943,93	0,897
944,10	0,473
944,27	0,252
944,44	0,461
944,61	2,300
944,79	2,086
944,96	2,219
945,13	0,632
945,30	2,152
945,47	1,448
945,64	1,456
945,81	1,024
945,98	1,688
946,15	0,573
946,32	3,459
946,49	0,845
946,66	2,116
946,83	1,352
947,00	1,598
947,17	0,408
947,34	2,377
947,51	1,971
947,68	2,853
947,85	1,874
948,02	2,603
948,19	0,899
948,36	1,671
948,53	-0,058
948,70	1,953
948,87	3,242
949,04	1,865
949,21	1,832
949,38	2,267
949,55	2,331
949,72	1,757
949,89	3,172
950,06	1,628
950,23	2,725
950,40	1,967
950,57	2,283
950,74	1,956
950,91	0,990
951,08	3,497
951,25	1,341
951,42	1,507
951,59	1,786
951,76	0,239
951,93	2,423
952,10	2,096
952,27	0,972
952,44	2,682
952,61	3,819
952,77	3,710
952,94	1,104
953,11	3,965
953,28	3,371
953,45	4,287
953,62	3,230
953,79	3,259
953,96	3,164
954,13	4,177
954,30	3,774
954,47	3,170
954,64	-0,229
954,81	4,311
954,98	1,854
955,15	1,088
955,32	6,036
955,49	4,172
955,65	4,217
955,82	5,174
955,99	4,957
956,16	8,035
956,33	-0,347
956,50	6,785
956,67	2,033
956,84	8,410
957,01	4,552
957,18	7,072
957,35	3,465
957,52	3,897
957,68	6,848
957,85	6,303
958,02	7,112
958,19	7,029
958,36	4,506
958,53	4,155
958,70	6,884
958,87	2,096
959,04	4,294
959,21	11,089
959,37	12,920
959,54	6,702
959,71	7,448
959,88	4,186
960,05	11,409
960,22	8,553
960,39	7,789
960,56	11,125
960,72	5,679
960,89	6,846
961,06	9,972
961,23	2,446
961,40	7,930
961,57	10,703
961,74	5,837
961,90	8,418
962,07	10,015
962,24	7,865
962,41	16,552
962,58	10,201
962,75	13,675
962,92	13,158
963,08	6,667
963,25	-0,996
963,42	21,084
963,59	5,955
963,76	8,748
963,93	14,664
964,10	12,896
964,26	18,810
964,43	4,419
964,60	9,513
964,77	21,700
964,94	11,605
965,10	11,421
965,27	10,615
965,44	6,984
965,61	16,096
965,78	22,981
965,95	18,905
966,11	19,394
966,28	13,408
966,45	12,418
966,62	5,923
966,79	16,041
966,95	24,911
967,12	22,857
967,29	29,630
967,46	35,231
967,63	32,941
967,79	54,698
967,96	30,734
968,13	28,095
968,30	39,918
968,47	35,769
968,63	22,549
968,80	27,203
968,97	31,214
969,14	48,023
969,31	39,286
969,47	29,348
969,64	37,912
969,81	19,355
969,98	41,053
970,14	23,656
970,31	44,025
970,48	23,490
970,65	51,240
970,81	17,483
970,98	55,729
971,15	55,758
971,32	51,515
971,48	69,048
971,65	19,205
971,82	53,636
971,99	72,152
972,15	30,233
972,32	53,472
972,49	80,328
972,66	47,934
972,82	45,205
972,99	37,500
973,16	92,053
973,33	60,741
973,49	81,707
973,66	44,762
973,83	116,049
974,00	74,684
974,16	110,909
974,33	58,667
974,50	101,010
974,67	60,714
974,83	65,306
975,00	116,364
975,17	130,645
975,33	82,759
975,50	163,934
975,67	132,692
975,84	40,244
976,00	122,368
976,17	158,696
976,34	121,176
976,50	67,033
976,67	113,095
976,84	127,083
977,00	141,026
977,17	124,444
977,34	211,538
977,50	100,000
977,67	114,118
977,84	201,695
978,01	89,189
978,17	93,103
978,34	159,259
978,51	200,000
978,67	171,429
978,84	56,364
979,01	39,474
979,17	97,143
979,34	115,217
979,51	127,273
979,67	237,500
979,84	171,186
980,01	209,615
980,17	161,765
980,34	119,178
980,51	600,000
980,67	44,444
980,84	118,571
981,01	194,118
981,17	98,529
981,34	132,857
981,50	124,211
981,67	197,619
981,84	128,571
982,00	3800,000
982,17	125,000
982,34	158,537
982,50	0,000
982,67	-614,286
982,84	365,000
983,00	170,370
983,17	-328,571
983,33	833,333
983,50	136,585
983,67	149,275
983,83	271,429
984,00	373,913
984,17	955,556
984,33	-450,000
984,50	189,189
984,66	337,500
984,83	962,500
985,00	346,154
985,16	235,484
985,33	3450,000
985,49	103,488
985,66	212,500
985,83	-2100,000
985,99	211,111
986,16	189,474
986,32	102,740
986,49	-320,000
986,66	380,000
986,82	200,000
986,99	-600,000
987,15	269,697
987,32	476,471
987,49	214,286
987,65	-208,696
987,82	-150,000
987,98	139,394
988,15	371,429
988,31	205,714
988,48	196,078
988,65	320,000
988,81	127,273
988,98	359,459
989,14	420,000
989,31	149,153
989,47	17,857
989,64	477,778
989,80	101,064
989,97	180,000
990,14	642,857
990,30	-862,500
990,47	-150,000
990,63	260,526
990,80	1216,667
990,96	841,667
991,13	246,667
991,29	194,118
991,46	143,750
991,62	0,000
991,79	-300,000
991,95	235,294
992,12	1433,333
992,29	-352,381
992,45	235,714
992,62	-125,000
992,78	-666,667
992,95	261,290
993,11	1212,500
993,28	-7700,000
993,44	-158,621
993,61	254,386
993,77	0,000
993,94	243,590
994,10	1128,571
994,27	-44,737
994,43	293,750
994,60	685,714
994,76	281,818
994,93	-660,000
995,09	-581,250
995,26	454,167
995,42	900,000
995,59	243,333
995,75	-841,667
995,92	-1328,571
996,08	-1600,000
996,25	209,091
996,41	1200,000
996,58	368,000
996,74	-650,000
996,91	212,903
997,07	264,000
997,23	164,706
997,40	2016,667
997,56	-2333,333
997,73	321,739
997,89	960,000
998,06	170,175
998,22	287,234
998,39	242,857
998,55	394,737
998,72	-4800,000
998,88	122,000
999,05	553,333
999,21	411,765
999,37	262,791
999,54	251,613
999,70	314,286
999,87	1033,333
1000,03	250,000
1000,20	407,143
1000,36	-537,500
1000,52	2550,000
1000,69	564,000
1000,85	-441,667
1001,02	371,429
1001,18	1340,000
1001,35	0,000
1001,51	628,571
1001,67	270,000
1001,84	141,463
1002,00	-581,818
1002,17	1950,000
1002,33	-962,500
1002,50	366,667
1002,66	837,500
1002,82	346,341
1002,99	-418,182
1003,15	-9100,000
1003,32	-78,571
1003,48	-1600,000
1003,64	291,304
1003,81	-305,263
1003,97	171,014
1004,14	-149,091
1004,30	381,818
1004,46	-8200,000
1004,63	-715,385
1004,79	167,568
1004,95	-1220,000
1005,12	-169,231
1005,28	233,333
1005,45	-733,333
1005,61	600,000
1005,77	-1257,143
1005,94	282,609
1006,10	-570,000
1006,26	-148,148
1006,43	293,939
1006,59	319,355
1006,76	-276,000
1006,92	286,957
1007,08	178,788
1007,25	180,556
1007,41	168,182
1007,57	-517,647
1007,74	265,217
1007,90	-357,143
1008,06	-153,333
1008,23	-400,000
1008,39	188,889
1008,55	78,824
1008,72	-950,000
1008,88	-100,000
1009,04	-844,444
1009,21	203,125
1009,37	351,613
1009,53	-325,000
1009,70	-24,242
1009,86	410,526
1010,02	231,818
1010,19	713,333
1010,35	12400,000
1010,51	262,857
1010,68	495,455
1010,84	250,000
1011,00	478,571
1011,17	2833,333
1011,33	315,385
1011,49	568,750
1011,66	390,625
1011,82	-933,333
1011,98	806,667
1012,14	453,846
1012,31	270,455
1012,47	-1057,143
1012,63	5800,000
1012,80	450,000
1012,96	111,111
1013,12	-192,593
1013,29	412,500
1013,45	-197,059
1013,61	-2280,000
1013,77	-433,333
1013,94	362,500
1014,10	5600,000
1014,26	-147,059
1014,43	326,316
1014,59	0,000
1014,75	820,000
1014,91	245,714
1015,08	203,846
1015,24	446,667
1015,40	480,000
1015,56	658,824
1015,73	202,041
1015,89	500,000
1016,05	270,270
1016,21	170,370
1016,38	342,105
1016,54	-420,000
1016,70	510,526
1016,86	-484,615
1017,03	0,000
1017,19	625,000
1017,35	416,667
1017,51	0,000
1017,68	1214,286
1017,84	473,684
1018,00	328,571
1018,16	-312,500
1018,33	690,909
1018,49	500,000
1018,65	-495,455
1018,81	-82,927
1018,97	576,923
1019,14	-671,429
1019,30	219,048
1019,46	197,436
1019,62	3400,000
1019,79	-600,000
1019,95	-1150,000
1020,11	280,000
1020,27	195,000
1020,43	-562,500
1020,60	0,000
1020,76	186,765
1020,92	8700,000
1021,08	-111,111
1021,24	-2750,000
1021,41	278,788
1021,57	-225,000
1021,73	0,000
1021,89	-468,182
1022,05	280,000
1022,21	-284,615
1022,38	542,105
1022,54	1800,000
1022,70	340,741
1022,86	-2500,000
1023,02	555,556
1023,19	-445,000
1023,35	177,358
1023,51	303,226
1023,67	165,789
1023,83	800,000
1023,99	320,000
1024,16	-78,462
1024,32	450,000
1024,48	212,245
1024,64	-860,000
1024,80	691,667
1024,96	630,769
1025,12	3266,667
1025,29	-975,000
1025,45	333,333
1025,61	2233,333
1025,77	504,762
1025,93	-315,385
1026,09	6750,000
1026,26	-1228,571
1026,42	-850,000
1026,58	176,923
1026,74	1300,000
1026,90	494,737
1027,06	-550,000
1027,22	-775,000
1027,38	977,778
1027,55	-336,000
1027,71	1012,500
1027,87	302,500
1028,03	124,242
1028,19	-260,606
1028,35	94,595
1028,51	-41,935
1028,67	-580,000
1028,83	216,667
1029,00	478,571
1029,16	-373,333
1029,32	458,824
1029,48	4350,000
1029,64	857,143
1029,80	1533,333
1029,96	184,314
1030,12	-625,000
1030,28	3100,000
1030,44	-1500,000
1030,61	281,250
1030,77	-182,609
1030,93	188,372
1031,09	-357,143
1031,25	-811,111
1031,41	-3100,000
1031,57	-94,737
1031,73	318,182
1031,89	-109,091
1032,05	1514,286
1032,21	840,000
1032,37	-188,235
1032,53	-315,000
1032,69	-7100,000
1032,86	1216,667
1033,02	275,000
1033,18	-523,077
1033,34	-507,692
1033,50	329,032
1033,66	-800,000
1033,82	278,571
1033,98	-552,941
1034,14	900,000
1034,30	-263,636
1034,46	395,833
1034,62	644,444
1034,78	165,079
1034,94	-241,935
1035,10	-390,909
1035,26	-711,111
1035,42	122,857
1035,58	1220,000
1035,74	-186,667
1035,90	-291,667
1036,06	216,981
1036,22	-296,000
1036,38	546,667
1036,54	790,000
1036,70	-5450,000
1036,86	-450,000
1037,02	-2150,000
1037,18	-232,143
1037,34	400,000
1037,50	-220,000
1037,66	-3066,667
1037,82	-264,706
1037,98	404,762
1038,14	-186,207
1038,30	-17,308
1038,46	116,667
1038,62	151,613
1038,78	214,286
1038,94	-136,842
1039,10	-216,667
1039,26	-363,158
1039,42	-600,000
1039,58	186,792
1039,74	131,250
1039,90	-135,897
1040,06	405,882
>>>>>End Processed Spectral Data<<<<<
