SpectraSuite Data File
++++++++++++++++++++++++++++++++++++
Date: Thu Feb 02 18:03:07 EET 2017
User: optolab
Dark Spectrum Present: Yes
Reference Spectrum Present: Yes
Number of Sampled Component Spectra: 1
Spectrometers: USB4C02475
Integration Time (usec): 100000 (USB4C02475)
Spectra Averaged: 1 (USB4C02475)
Boxcar Smoothing: 0 (USB4C02475)
Correct for Electrical Dark: No (USB4C02475)
Strobe/Lamp Enabled: No (USB4C02475)
Correct for Detector Non-linearity: No (USB4C02475)
Correct for Stray Light: No (USB4C02475)
Number of Pixels in Processed Spectrum: 3648
>>>>>Begin Processed Spectral Data<<<<<
344,91	-1425,000
345,13	-1425,000
345,35	-1425,000
345,57	-217,647
345,79	52,174
346,00	-164,706
346,22	-1314,286
346,44	-48,485
346,66	293,617
346,87	252,174
347,09	646,154
347,31	6800,000
347,53	-2200,000
347,74	-190,698
347,96	-2014,286
348,18	276,471
348,40	358,824
348,61	-235,897
348,83	9300,000
349,05	274,359
349,27	470,588
349,48	-3750,000
349,70	578,571
349,92	504,762
350,14	200,000
350,35	-507,692
350,57	-588,889
350,79	-38,462
351,01	-466,667
351,22	480,000
351,44	833,333
351,66	272,222
351,87	1316,667
352,09	107,895
352,31	208,929
352,53	302,857
352,74	-1028,571
352,96	289,474
353,18	165,625
353,40	-825,000
353,61	646,667
353,83	268,750
354,05	193,750
354,26	328,571
354,48	-1200,000
354,70	338,095
354,92	252,778
355,13	-200,000
355,35	198,148
355,57	198,438
355,78	307,143
356,00	178,723
356,22	400,000
356,44	244,186
356,65	621,429
356,87	255,556
357,09	234,286
357,30	156,818
357,52	-816,667
357,74	290,323
357,95	262,857
358,17	120,290
358,39	368,000
358,60	208,333
358,82	381,818
359,04	282,051
359,26	81,818
359,47	-576,923
359,69	253,571
359,91	260,000
360,12	280,000
360,34	161,111
360,56	-1800,000
360,77	1100,000
360,99	350,000
361,21	321,739
361,42	-2600,000
361,64	-274,074
361,86	161,194
362,07	866,667
362,29	242,500
362,51	297,297
362,72	-820,000
362,94	281,481
363,16	167,143
363,37	1063,636
363,59	-11400,000
363,81	1037,500
364,02	112,000
364,24	190,909
364,46	514,286
364,67	188,095
364,89	423,529
365,11	281,081
365,32	288,889
365,54	525,000
365,76	147,727
365,97	260,976
366,19	166,667
366,41	800,000
366,62	128,000
366,84	358,333
367,05	118,627
367,27	1260,000
367,49	292,308
367,70	677,778
367,92	154,167
368,14	-446,154
368,35	163,235
368,57	193,939
368,79	200,000
369,00	135,897
369,22	361,111
369,43	536,842
369,65	-258,621
369,87	-564,706
370,08	420,000
370,30	557,143
370,51	654,545
370,73	86,111
370,95	505,000
371,16	80,702
371,38	222,642
371,60	336,667
371,81	166,304
372,03	-2400,000
372,24	-93,750
372,46	1166,667
372,68	191,176
372,89	107,339
373,11	234,884
373,32	99,160
373,54	527,273
373,76	422,222
373,97	166,667
374,19	-384,211
374,40	138,571
374,62	470,588
374,84	458,333
375,05	207,692
375,27	270,270
375,48	127,160
375,70	476,471
375,92	189,286
376,13	552,632
376,35	291,667
376,56	530,000
376,78	104,082
376,99	203,030
377,21	259,375
377,43	151,515
377,64	162,000
377,86	225,000
378,07	168,182
378,29	205,556
378,51	145,238
378,72	-177,273
378,94	141,304
379,15	181,818
379,37	625,000
379,58	273,333
379,80	227,273
380,01	230,000
380,23	308,696
380,45	225,000
380,66	136,111
380,88	200,000
381,09	652,174
381,31	235,897
381,52	269,565
381,74	205,357
381,95	185,714
382,17	348,000
382,39	172,581
382,60	558,824
382,82	331,034
383,03	1333,333
383,25	102,469
383,46	683,333
383,68	182,979
383,89	354,545
384,11	123,288
384,32	173,684
384,54	-1685,714
384,76	152,941
384,97	320,000
385,19	189,474
385,40	287,500
385,62	229,032
385,83	178,723
386,05	671,429
386,26	376,923
386,48	438,462
386,69	225,000
386,91	440,000
387,12	248,718
387,34	125,424
387,55	202,857
387,77	348,000
387,98	240,816
388,20	142,254
388,41	92,063
388,63	164,286
388,84	260,000
389,06	218,605
389,27	190,625
389,49	112,048
389,70	211,864
389,92	93,182
390,13	220,513
390,35	83,333
390,56	165,625
390,78	445,455
390,99	191,111
391,21	131,818
391,42	102,174
391,64	-140,000
391,85	186,207
392,07	-164,286
392,28	323,077
392,50	2180,000
392,71	4000,000
392,93	96,774
393,14	286,957
393,36	155,128
393,57	383,333
393,79	130,159
394,00	106,849
394,22	146,000
394,43	153,571
394,65	296,429
394,86	306,250
395,08	-800,000
395,29	180,851
395,50	-800,000
395,72	1171,429
395,93	364,000
396,15	-278,571
396,36	160,000
396,58	-309,524
396,79	172,093
397,01	202,381
397,22	91,304
397,44	178,723
397,65	91,892
397,87	150,000
398,08	226,923
398,29	525,000
398,51	219,512
398,72	119,565
398,94	230,233
399,15	145,000
399,37	173,913
399,58	158,730
399,80	173,333
400,01	264,706
400,22	364,286
400,44	328,571
400,65	105,479
400,87	2700,000
401,08	111,236
401,30	97,333
401,51	85,455
401,72	85,484
401,94	85,366
402,15	81,633
402,37	165,909
402,58	151,163
402,80	406,250
403,01	27,778
403,22	71,084
403,44	188,889
403,65	67,347
403,87	166,667
404,08	86,538
404,30	196,875
404,51	101,429
404,72	981,818
404,94	95,181
405,15	143,284
405,37	102,198
405,58	187,097
405,79	542,857
406,01	56,296
406,22	82,143
406,44	110,526
406,65	107,143
406,86	101,000
407,08	74,074
407,29	100,000
407,51	48,077
407,72	86,139
407,93	93,671
408,15	107,955
408,36	145,714
408,58	73,333
408,79	86,822
409,00	80,851
409,22	77,451
409,43	55,856
409,64	35,897
409,86	68,182
410,07	16,522
410,29	41,333
410,50	34,127
410,71	50,806
410,93	17,822
411,14	80,374
411,35	57,639
411,57	31,944
411,78	5,147
412,00	26,667
412,21	35,841
412,42	45,366
412,64	42,778
412,85	40,415
413,06	36,161
413,28	37,255
413,49	43,256
413,70	24,464
413,92	35,238
414,13	18,577
414,34	28,253
414,56	20,000
414,77	23,616
414,98	24,028
415,20	14,695
415,41	24,351
415,63	26,781
415,84	24,377
416,05	8,735
416,27	6,685
416,48	26,303
416,69	12,209
416,91	19,733
417,12	9,050
417,33	17,381
417,55	19,200
417,76	18,393
417,97	17,228
418,19	8,368
418,40	4,904
418,61	7,547
418,83	16,021
419,04	13,023
419,25	16,268
419,46	8,989
419,68	9,587
419,89	11,726
420,10	12,231
420,32	11,258
420,53	10,501
420,74	7,168
420,96	6,280
421,17	9,806
421,38	5,105
421,60	5,788
421,81	5,806
422,02	3,435
422,23	5,709
422,45	7,751
422,66	7,358
422,87	7,718
423,09	5,064
423,30	6,285
423,51	5,502
423,73	4,856
423,94	6,715
424,15	2,238
424,36	5,303
424,58	6,124
424,79	3,969
425,00	5,211
425,22	5,882
425,43	5,811
425,64	3,448
425,85	2,762
426,07	4,050
426,28	4,058
426,49	3,459
426,71	2,876
426,92	4,340
427,13	3,164
427,34	2,945
427,56	4,615
427,77	0,911
427,98	2,578
428,19	1,202
428,41	1,858
428,62	3,683
428,83	2,088
429,04	3,116
429,26	1,259
429,47	3,813
429,68	1,400
429,89	2,537
430,11	2,604
430,32	2,657
430,53	1,083
430,74	2,353
430,96	2,646
431,17	2,033
431,38	2,598
431,59	1,732
431,81	2,248
432,02	1,934
432,23	2,168
432,44	1,699
432,66	1,981
432,87	0,528
433,08	2,050
433,29	1,183
433,51	1,687
433,72	1,984
433,93	1,882
434,14	1,442
434,35	0,997
434,57	0,776
434,78	1,746
434,99	1,285
435,20	1,741
435,42	1,766
435,63	1,028
435,84	1,807
436,05	1,247
436,26	0,374
436,48	1,872
436,69	1,297
436,90	1,254
437,11	1,418
437,32	1,333
437,54	1,443
437,75	0,829
437,96	0,932
438,17	1,543
438,38	1,133
438,60	1,277
438,81	0,699
439,02	0,490
439,23	0,839
439,44	0,733
439,66	0,774
439,87	0,766
440,08	0,764
440,29	1,454
440,50	1,024
440,72	0,806
440,93	1,114
441,14	1,106
441,35	0,433
441,56	1,075
441,77	0,736
441,99	0,866
442,20	1,032
442,41	0,984
442,62	0,692
442,83	0,822
443,04	0,920
443,26	0,931
443,47	1,474
443,68	0,986
443,89	1,464
444,10	1,227
444,31	2,464
444,53	2,468
444,74	3,097
444,95	3,455
445,16	4,495
445,37	5,581
445,58	7,472
445,80	9,110
446,01	11,318
446,22	13,372
446,43	15,738
446,64	18,421
446,85	21,226
447,06	23,788
447,28	26,690
447,49	29,155
447,70	33,103
447,91	34,766
448,12	36,711
448,33	39,218
448,54	40,696
448,76	42,800
448,97	44,760
449,18	45,560
449,39	46,911
449,60	48,130
449,81	47,939
450,02	49,655
450,23	50,175
450,45	52,462
450,66	52,899
450,87	54,141
451,08	54,999
451,29	58,009
451,50	59,281
451,71	61,946
451,92	65,669
452,13	68,116
452,35	69,181
452,56	73,554
452,77	74,791
452,98	78,295
453,19	81,711
453,40	81,496
453,61	82,294
453,82	83,331
454,03	83,933
454,25	85,094
454,46	85,294
454,67	84,536
454,88	84,934
455,09	85,651
455,30	84,266
455,51	84,309
455,72	82,711
455,93	81,643
456,14	82,298
456,35	82,116
456,56	81,630
456,78	82,374
456,99	81,217
457,20	80,531
457,41	81,231
457,62	80,217
457,83	79,381
458,04	80,600
458,25	79,251
458,46	78,566
458,67	78,622
458,88	78,190
459,09	77,358
459,30	77,972
459,51	75,940
459,73	76,211
459,94	77,065
460,15	77,855
460,36	77,961
460,57	78,467
460,78	79,654
460,99	80,596
461,20	81,615
461,41	81,271
461,62	82,002
461,83	83,307
462,04	82,482
462,25	81,831
462,46	82,097
462,67	81,553
462,88	81,558
463,09	80,749
463,30	79,940
463,51	79,780
463,72	79,224
463,93	79,555
464,15	77,064
464,36	76,416
464,57	75,908
464,78	75,062
464,99	73,794
465,20	72,106
465,41	69,348
465,62	67,627
465,83	64,996
466,04	62,599
466,25	59,937
466,46	57,557
466,67	54,839
466,88	52,959
467,09	50,475
467,30	47,296
467,51	44,789
467,72	41,679
467,93	39,168
468,14	36,333
468,35	32,534
468,56	29,769
468,77	26,168
468,98	23,531
469,19	20,682
469,40	17,926
469,61	15,426
469,82	13,280
470,03	11,369
470,24	9,804
470,45	8,428
470,66	7,154
470,87	5,628
471,08	4,615
471,29	3,797
471,50	3,315
471,71	2,544
471,92	2,309
472,13	1,988
472,34	1,538
472,55	1,423
472,76	1,215
472,97	0,857
473,18	0,729
473,39	0,675
473,60	0,586
473,81	0,645
474,01	0,647
474,22	0,715
474,43	0,534
474,64	0,647
474,85	0,374
475,06	0,513
475,27	0,568
475,48	0,441
475,69	0,548
475,90	0,352
476,11	0,486
476,32	0,565
476,53	0,521
476,74	0,457
476,95	0,469
477,16	0,605
477,37	0,625
477,58	0,559
477,79	0,640
478,00	0,344
478,21	0,841
478,41	0,409
478,62	0,555
478,83	0,579
479,04	0,456
479,25	0,539
479,46	0,463
479,67	0,264
479,88	0,396
480,09	0,535
480,30	0,359
480,51	0,670
480,72	0,393
480,93	0,581
481,14	0,327
481,34	0,465
481,55	0,245
481,76	0,633
481,97	0,262
482,18	0,317
482,39	0,307
482,60	0,367
482,81	0,270
483,02	0,500
483,23	0,583
483,44	0,514
483,65	0,269
483,85	0,376
484,06	0,541
484,27	0,429
484,48	0,473
484,69	0,710
484,90	0,368
485,11	0,465
485,32	0,388
485,53	0,381
485,73	0,531
485,94	0,249
486,15	0,443
486,36	0,413
486,57	0,259
486,78	0,343
486,99	0,294
487,20	0,457
487,41	0,422
487,61	0,488
487,82	0,347
488,03	0,514
488,24	0,524
488,45	0,584
488,66	0,374
488,87	0,427
489,08	0,515
489,28	0,277
489,49	0,458
489,70	0,393
489,91	0,387
490,12	0,229
490,33	0,319
490,54	0,292
490,74	0,494
490,95	0,226
491,16	0,387
491,37	0,467
491,58	0,263
491,79	0,444
492,00	0,179
492,20	0,263
492,41	0,227
492,62	0,326
492,83	0,425
493,04	0,304
493,25	0,708
493,45	0,248
493,66	0,480
493,87	0,342
494,08	0,298
494,29	0,205
494,50	0,408
494,70	0,305
494,91	0,382
495,12	0,313
495,33	0,575
495,54	0,381
495,75	0,321
495,95	0,384
496,16	0,430
496,37	0,385
496,58	0,347
496,79	0,222
496,99	0,203
497,20	0,374
497,41	0,414
497,62	0,339
497,83	0,388
498,04	0,369
498,24	0,403
498,45	0,305
498,66	0,368
498,87	0,306
499,08	0,447
499,28	0,188
499,49	0,438
499,70	0,242
499,91	0,158
500,12	0,335
500,32	0,338
500,53	0,399
500,74	0,337
500,95	0,034
501,15	0,467
501,36	0,258
501,57	0,565
501,78	0,382
501,99	0,322
502,19	0,419
502,40	0,435
502,61	0,242
502,82	0,254
503,02	0,180
503,23	0,138
503,44	0,448
503,65	0,421
503,86	0,394
504,06	0,385
504,27	0,522
504,48	0,402
504,69	0,372
504,89	0,230
505,10	0,390
505,31	0,402
505,52	0,508
505,72	0,486
505,93	0,345
506,14	0,380
506,35	0,421
506,55	0,188
506,76	0,212
506,97	0,367
507,18	0,415
507,38	0,257
507,59	0,433
507,80	0,371
508,01	0,420
508,21	0,443
508,42	0,187
508,63	0,338
508,84	0,485
509,04	0,160
509,25	0,317
509,46	0,238
509,67	0,501
509,87	0,385
510,08	0,330
510,29	0,390
510,49	0,321
510,70	0,418
510,91	0,432
511,12	0,328
511,32	0,435
511,53	0,338
511,74	0,338
511,94	0,200
512,15	0,309
512,36	0,374
512,57	0,441
512,77	0,245
512,98	0,438
513,19	0,511
513,39	0,424
513,60	0,360
513,81	0,576
514,01	0,525
514,22	0,434
514,43	0,437
514,64	0,400
514,84	0,711
515,05	0,443
515,26	0,397
515,46	0,300
515,67	0,264
515,88	0,359
516,08	0,400
516,29	0,371
516,50	0,390
516,70	0,403
516,91	0,511
517,12	0,463
517,32	0,296
517,53	0,362
517,74	0,406
517,95	0,488
518,15	0,404
518,36	0,536
518,57	0,442
518,77	0,448
518,98	0,390
519,19	0,359
519,39	0,638
519,60	0,416
519,80	0,425
520,01	0,549
520,22	0,585
520,42	0,562
520,63	0,660
520,84	0,728
521,04	0,813
521,25	1,089
521,46	0,955
521,66	1,432
521,87	1,542
522,08	1,958
522,28	2,452
522,49	3,054
522,70	3,325
522,90	4,033
523,11	4,659
523,31	5,497
523,52	6,104
523,73	7,179
523,93	8,565
524,14	9,551
524,35	10,916
524,55	12,307
524,76	14,103
524,97	15,752
525,17	17,469
525,38	19,148
525,58	20,883
525,79	23,115
526,00	24,446
526,20	26,267
526,41	27,745
526,61	29,563
526,82	31,105
527,03	32,460
527,23	33,883
527,44	35,572
527,64	36,906
527,85	38,152
528,06	39,324
528,26	39,969
528,47	41,317
528,68	43,364
528,88	43,301
529,09	43,752
529,29	44,851
529,50	45,335
529,70	45,865
529,91	46,601
530,12	47,327
530,32	47,453
530,53	48,737
530,73	48,474
530,94	48,969
531,15	48,903
531,35	50,320
531,56	50,565
531,76	51,204
531,97	51,690
532,17	51,738
532,38	52,986
532,59	53,182
532,79	54,131
533,00	54,545
533,20	54,604
533,41	54,917
533,61	54,872
533,82	53,936
534,03	54,931
534,23	53,749
534,44	54,171
534,64	53,321
534,85	52,168
535,05	53,562
535,26	51,761
535,46	52,296
535,67	50,850
535,88	50,155
536,08	50,308
536,29	48,356
536,49	48,625
536,70	47,063
536,90	47,037
537,11	46,024
537,31	45,121
537,52	44,264
537,72	43,114
537,93	41,653
538,13	40,391
538,34	39,492
538,55	38,735
538,75	36,824
538,96	35,596
539,16	34,374
539,37	32,651
539,57	31,363
539,78	29,544
539,98	27,585
540,19	26,255
540,39	24,603
540,60	22,814
540,80	21,332
541,01	20,003
541,21	18,164
541,42	16,887
541,62	15,380
541,83	13,344
542,03	12,073
542,24	10,737
542,44	9,253
542,65	7,983
542,85	6,888
543,06	5,974
543,26	4,660
543,47	4,108
543,67	3,369
543,88	2,916
544,08	2,382
544,29	1,971
544,49	1,467
544,70	1,141
544,90	1,126
545,11	1,036
545,31	0,850
545,52	0,739
545,72	0,592
545,93	0,538
546,13	0,350
546,34	0,437
546,54	0,435
546,75	0,468
546,95	0,530
547,15	0,313
547,36	0,478
547,56	0,237
547,77	0,380
547,97	0,174
548,18	0,240
548,38	0,266
548,59	0,286
548,79	0,453
549,00	0,262
549,20	0,266
549,41	0,246
549,61	0,241
549,81	0,340
550,02	0,326
550,22	0,219
550,43	0,358
550,63	0,250
550,84	0,505
551,04	0,275
551,25	0,420
551,45	0,510
551,65	0,284
551,86	0,287
552,06	0,434
552,27	0,297
552,47	0,145
552,68	0,472
552,88	0,409
553,08	0,280
553,29	0,365
553,49	0,301
553,70	0,401
553,90	0,295
554,11	0,395
554,31	0,223
554,51	0,430
554,72	0,400
554,92	0,331
555,13	0,358
555,33	0,313
555,53	0,371
555,74	0,420
555,94	0,312
556,15	0,247
556,35	0,212
556,56	0,170
556,76	0,161
556,96	0,310
557,17	0,308
557,37	0,428
557,58	0,184
557,78	0,376
557,98	0,278
558,19	0,166
558,39	0,332
558,59	0,305
558,80	0,319
559,00	0,257
559,21	0,379
559,41	0,417
559,61	0,292
559,82	0,338
560,02	0,378
560,23	0,307
560,43	0,352
560,63	0,142
560,84	0,378
561,04	0,355
561,24	0,290
561,45	0,358
561,65	0,355
561,85	0,221
562,06	0,266
562,26	0,137
562,47	0,507
562,67	0,435
562,87	0,163
563,08	0,467
563,28	0,352
563,48	0,274
563,69	0,148
563,89	0,294
564,09	0,251
564,30	0,258
564,50	0,197
564,70	0,326
564,91	0,126
565,11	0,131
565,31	0,394
565,52	0,292
565,72	0,313
565,92	0,206
566,13	0,210
566,33	0,392
566,53	0,355
566,74	0,273
566,94	0,242
567,14	0,257
567,35	0,323
567,55	0,282
567,75	0,395
567,96	0,412
568,16	0,308
568,36	0,126
568,57	0,354
568,77	0,172
568,97	0,299
569,18	0,491
569,38	0,204
569,58	0,172
569,79	0,131
569,99	0,259
570,19	0,071
570,39	0,345
570,60	0,250
570,80	0,103
571,00	0,156
571,21	0,295
571,41	0,283
571,61	0,330
571,82	0,491
572,02	0,226
572,22	0,074
572,42	0,255
572,63	0,239
572,83	0,351
573,03	0,183
573,24	0,108
573,44	0,364
573,64	0,386
573,84	0,164
574,05	0,258
574,25	0,330
574,45	0,317
574,66	0,384
574,86	0,407
575,06	0,374
575,26	0,228
575,47	0,351
575,67	0,248
575,87	0,362
576,07	0,276
576,28	0,350
576,48	0,318
576,68	0,547
576,88	0,340
577,09	0,283
577,29	0,423
577,49	0,253
577,69	0,107
577,90	0,404
578,10	0,129
578,30	0,342
578,50	0,212
578,71	0,265
578,91	0,203
579,11	0,397
579,31	0,369
579,52	0,230
579,72	0,276
579,92	0,317
580,12	0,346
580,33	0,314
580,53	0,277
580,73	0,449
580,93	0,469
581,13	0,479
581,34	0,279
581,54	0,351
581,74	0,388
581,94	0,456
582,15	0,469
582,35	0,248
582,55	0,416
582,75	0,293
582,95	0,467
583,16	0,474
583,36	0,281
583,56	0,380
583,76	0,306
583,96	0,276
584,17	0,318
584,37	0,246
584,57	0,331
584,77	0,265
584,97	0,136
585,18	0,453
585,38	0,192
585,58	0,393
585,78	0,462
585,98	0,381
586,19	0,420
586,39	0,444
586,59	0,417
586,79	0,330
586,99	0,344
587,20	0,124
587,40	0,418
587,60	0,331
587,80	0,321
588,00	0,520
588,20	0,383
588,41	0,406
588,61	0,662
588,81	0,478
589,01	0,793
589,21	0,794
589,41	0,737
589,62	0,833
589,82	1,031
590,02	1,161
590,22	1,352
590,42	1,712
590,62	1,861
590,83	2,126
591,03	2,461
591,23	3,018
591,43	3,828
591,63	4,366
591,83	5,072
592,03	5,829
592,24	7,017
592,44	8,104
592,64	9,032
592,84	10,550
593,04	11,683
593,24	13,894
593,44	15,084
593,65	17,020
593,85	19,039
594,05	21,275
594,25	23,310
594,45	24,939
594,65	26,851
594,85	28,555
595,06	30,556
595,26	32,429
595,46	34,205
595,66	35,027
595,86	37,054
596,06	38,787
596,26	40,488
596,46	41,946
596,66	44,063
596,87	45,286
597,07	47,272
597,27	49,392
597,47	51,158
597,67	53,828
597,87	55,895
598,07	57,645
598,27	60,185
598,47	62,076
598,67	64,228
598,88	67,515
599,08	69,592
599,28	70,965
599,48	73,002
599,68	74,833
599,88	76,429
600,08	77,802
600,28	79,589
600,48	81,454
600,68	81,895
600,88	83,359
601,09	84,347
601,29	84,296
601,49	85,193
601,69	85,641
601,89	85,375
602,09	85,457
602,29	85,894
602,49	86,483
602,69	87,971
602,89	86,429
603,09	86,799
603,29	86,542
603,49	87,618
603,69	85,795
603,90	85,692
604,10	84,301
604,30	84,635
604,50	83,229
604,70	81,847
604,90	80,912
605,10	79,694
605,30	78,475
605,50	76,907
605,70	75,910
605,90	73,632
606,10	72,017
606,30	71,684
606,50	69,762
606,70	68,063
606,90	66,350
607,10	64,763
607,30	61,870
607,50	61,654
607,70	60,617
607,90	58,587
608,10	57,484
608,30	56,968
608,50	55,085
608,70	54,414
608,90	52,706
609,11	52,906
609,31	52,013
609,51	50,996
609,71	50,401
609,91	50,317
610,11	49,380
610,31	48,879
610,51	48,094
610,71	47,715
610,91	47,233
611,11	47,695
611,31	46,063
611,51	45,756
611,71	45,601
611,91	46,102
612,11	44,314
612,31	44,448
612,51	42,915
612,71	42,957
612,91	42,274
613,11	41,899
613,31	40,382
613,51	39,688
613,71	38,354
613,91	37,366
614,11	35,871
614,31	34,705
614,50	34,139
614,70	32,443
614,90	30,587
615,10	28,371
615,30	26,922
615,50	25,787
615,70	23,587
615,90	21,699
616,10	19,443
616,30	17,850
616,50	15,465
616,70	14,026
616,90	12,484
617,10	11,210
617,30	9,404
617,50	8,344
617,70	7,135
617,90	6,044
618,10	4,996
618,30	4,109
618,50	3,849
618,70	3,046
618,90	2,435
619,10	2,029
619,30	1,572
619,49	1,549
619,69	1,349
619,89	1,194
620,09	0,866
620,29	0,854
620,49	0,876
620,69	0,458
620,89	0,413
621,09	0,483
621,29	0,422
621,49	0,388
621,69	0,297
621,89	0,506
622,09	0,496
622,29	0,327
622,48	0,450
622,68	0,316
622,88	0,397
623,08	0,349
623,28	0,136
623,48	0,218
623,68	0,254
623,88	0,186
624,08	0,242
624,28	0,216
624,48	0,366
624,67	0,349
624,87	0,341
625,07	0,345
625,27	0,196
625,47	0,408
625,67	0,257
625,87	0,176
626,07	0,210
626,27	0,209
626,47	0,400
626,66	0,237
626,86	0,351
627,06	0,299
627,26	0,116
627,46	0,168
627,66	0,351
627,86	0,329
628,06	0,210
628,25	0,329
628,45	0,308
628,65	0,344
628,85	0,347
629,05	0,430
629,25	0,112
629,45	0,319
629,65	0,246
629,84	0,218
630,04	0,438
630,24	0,316
630,44	0,253
630,64	0,311
630,84	0,207
631,04	0,430
631,23	0,230
631,43	0,181
631,63	0,095
631,83	0,184
632,03	0,266
632,23	0,342
632,42	0,244
632,62	0,360
632,82	0,282
633,02	0,450
633,22	0,203
633,42	0,368
633,62	0,347
633,81	0,180
634,01	0,264
634,21	0,313
634,41	0,305
634,61	0,357
634,80	0,121
635,00	0,512
635,20	0,500
635,40	0,019
635,60	0,230
635,80	0,512
635,99	0,458
636,19	0,241
636,39	0,262
636,59	0,278
636,79	0,438
636,98	0,470
637,18	0,248
637,38	0,478
637,58	0,000
637,78	0,475
637,97	0,237
638,17	0,360
638,37	0,587
638,57	0,421
638,77	0,437
638,96	0,217
639,16	0,277
639,36	0,252
639,56	0,454
639,76	0,218
639,95	0,390
640,15	0,346
640,35	0,152
640,55	0,453
640,75	0,555
640,94	0,188
641,14	0,580
641,34	0,432
641,54	0,271
641,73	0,200
641,93	0,437
642,13	0,374
642,33	0,202
642,53	0,486
642,72	0,435
642,92	0,566
643,12	0,572
643,32	0,481
643,51	0,634
643,71	0,054
643,91	0,291
644,11	0,418
644,30	0,322
644,50	0,663
644,70	0,216
644,90	0,521
645,09	0,482
645,29	0,191
645,49	0,385
645,69	0,287
645,88	0,728
646,08	0,333
646,28	0,723
646,48	0,236
646,67	0,320
646,87	0,340
647,07	0,298
647,26	0,775
647,46	0,310
647,66	0,470
647,86	0,726
648,05	0,706
648,25	1,053
648,45	0,348
648,65	0,336
648,84	0,115
649,04	0,375
649,24	0,825
649,43	0,599
649,63	0,334
649,83	0,564
650,03	0,778
650,22	0,518
650,42	0,357
650,62	0,720
650,81	0,354
651,01	0,343
651,21	0,635
651,40	0,509
651,60	0,462
651,80	0,621
652,00	0,740
652,19	0,524
652,39	0,594
652,59	0,601
652,78	0,394
652,98	0,182
653,18	0,293
653,37	0,593
653,57	0,517
653,77	0,552
653,96	0,373
654,16	0,925
654,36	0,483
654,55	0,345
654,75	0,388
654,95	0,289
655,14	0,380
655,34	0,615
655,54	0,534
655,73	0,122
655,93	0,637
656,13	0,122
656,32	0,159
656,52	0,441
656,72	0,287
656,91	0,300
657,11	0,647
657,31	0,365
657,50	0,742
657,70	0,625
657,90	0,617
658,09	0,668
658,29	0,476
658,49	0,462
658,68	0,330
658,88	0,689
659,07	0,619
659,27	0,680
659,47	0,235
659,66	0,450
659,86	0,332
660,06	0,164
660,25	0,221
660,45	0,825
660,64	0,237
660,84	0,497
661,04	0,586
661,23	0,395
661,43	0,755
661,63	0,344
661,82	0,026
662,02	0,764
662,21	0,419
662,41	0,603
662,61	0,709
662,80	0,053
663,00	0,087
663,19	0,672
663,39	0,095
663,59	0,629
663,78	0,533
663,98	0,855
664,17	0,665
664,37	0,284
664,57	0,514
664,76	0,535
664,96	0,545
665,15	0,426
665,35	0,610
665,55	0,273
665,74	0,700
665,94	0,354
666,13	0,657
666,33	0,810
666,53	0,560
666,72	0,489
666,92	0,544
667,11	0,790
667,31	0,322
667,50	-0,033
667,70	0,583
667,90	0,172
668,09	0,262
668,29	0,376
668,48	0,601
668,68	0,431
668,87	0,435
669,07	0,128
669,26	0,385
669,46	0,489
669,66	0,523
669,85	0,584
670,05	0,489
670,24	0,536
670,44	0,535
670,63	0,351
670,83	0,421
671,02	0,180
671,22	0,349
671,42	0,154
671,61	0,298
671,81	0,285
672,00	0,545
672,20	0,494
672,39	0,375
672,59	0,195
672,78	0,407
672,98	0,233
673,17	0,141
673,37	0,300
673,56	0,312
673,76	0,153
673,95	0,321
674,15	0,296
674,34	0,257
674,54	0,563
674,73	0,398
674,93	0,348
675,13	0,369
675,32	0,526
675,52	0,511
675,71	0,508
675,91	0,531
676,10	0,535
676,30	0,522
676,49	0,231
676,69	0,441
676,88	0,224
677,08	0,223
677,27	0,222
677,47	0,390
677,66	0,427
677,86	0,666
678,05	0,064
678,24	0,394
678,44	0,500
678,63	0,193
678,83	0,272
679,02	0,277
679,22	0,296
679,41	0,553
679,61	0,400
679,80	0,326
680,00	0,113
680,19	0,345
680,39	0,128
680,58	0,505
680,78	0,321
680,97	0,233
681,17	0,425
681,36	0,130
681,56	0,174
681,75	0,235
681,94	0,336
682,14	0,328
682,33	0,271
682,53	0,227
682,72	0,430
682,92	0,341
683,11	0,126
683,31	0,131
683,50	0,287
683,69	0,232
683,89	0,437
684,08	0,228
684,28	0,097
684,47	0,241
684,67	0,079
684,86	0,237
685,06	0,207
685,25	0,183
685,44	0,179
685,64	0,308
685,83	0,380
686,03	0,052
686,22	0,297
686,42	0,300
686,61	0,209
686,80	0,027
687,00	0,117
687,19	0,187
687,39	0,089
687,58	0,300
687,77	0,296
687,97	0,443
688,16	0,357
688,36	0,087
688,55	0,264
688,74	0,077
688,94	0,201
689,13	0,198
689,33	0,150
689,52	0,280
689,71	0,075
689,91	0,073
690,10	0,236
690,30	-0,044
690,49	0,052
690,68	0,274
690,88	0,115
691,07	0,162
691,27	0,216
691,46	0,327
691,65	0,154
691,85	0,079
692,04	0,012
692,23	0,024
692,43	0,333
692,62	0,240
692,82	0,156
693,01	0,330
693,20	0,137
693,40	0,056
693,59	0,101
693,78	0,152
693,98	0,073
694,17	0,062
694,36	0,311
694,56	0,122
694,75	0,256
694,94	0,137
695,14	0,105
695,33	0,224
695,53	0,370
695,72	0,352
695,91	0,079
696,11	0,193
696,30	0,293
696,49	0,298
696,69	0,366
696,88	0,163
697,07	0,390
697,27	0,292
697,46	0,418
697,65	0,193
697,85	-0,146
698,04	0,431
698,23	0,274
698,43	0,306
698,62	0,161
698,81	0,592
699,01	0,691
699,20	0,246
699,39	0,505
699,58	0,420
699,78	0,306
699,97	0,707
700,16	0,275
700,36	0,610
700,55	0,535
700,74	0,587
700,94	0,386
701,13	0,133
701,32	0,194
701,52	0,159
701,71	0,819
701,90	0,395
702,09	0,401
702,29	1,188
702,48	0,455
702,67	0,440
702,87	0,998
703,06	0,689
703,25	1,013
703,44	0,564
703,64	0,691
703,83	1,161
704,02	1,182
704,22	0,915
704,41	0,511
704,60	0,981
704,79	0,673
704,99	2,399
705,18	1,694
705,37	1,328
705,56	0,579
705,76	0,777
705,95	1,347
706,14	1,064
706,33	1,045
706,53	1,926
706,72	0,921
706,91	1,345
707,11	0,365
707,30	0,359
707,49	2,121
707,68	1,205
707,88	1,335
708,07	0,536
708,26	1,417
708,45	0,727
708,64	1,896
708,84	0,512
709,03	1,081
709,22	0,836
709,41	3,019
709,61	1,392
709,80	1,127
709,99	1,502
710,18	2,683
710,38	1,636
710,57	1,748
710,76	0,328
710,95	0,980
711,14	2,946
711,34	1,961
711,53	2,695
711,72	1,892
711,91	1,439
712,11	3,899
712,30	0,308
712,49	1,493
712,68	1,979
712,87	2,286
713,07	2,288
713,26	1,624
713,45	0,707
713,64	1,833
713,83	1,275
714,03	2,686
714,22	2,127
714,41	1,536
714,60	0,570
714,79	-0,720
714,99	1,847
715,18	6,003
715,37	3,822
715,56	0,749
715,75	2,201
715,94	4,921
716,14	4,295
716,33	5,879
716,52	3,669
716,71	3,294
716,90	2,553
717,10	1,949
717,29	4,446
717,48	1,057
717,67	3,723
717,86	4,556
718,05	4,098
718,24	2,021
718,44	3,053
718,63	0,791
718,82	3,435
719,01	3,176
719,20	4,444
719,39	4,837
719,59	0,911
719,78	4,275
719,97	4,618
720,16	5,175
720,35	3,304
720,54	1,048
720,73	4,027
720,93	4,772
721,12	0,503
721,31	4,082
721,50	5,600
721,69	5,874
721,88	5,991
722,07	2,251
722,27	3,279
722,46	4,798
722,65	0,794
722,84	0,484
723,03	4,241
723,22	-0,322
723,41	3,488
723,60	2,535
723,79	9,488
723,99	3,856
724,18	4,227
724,37	2,634
724,56	6,985
724,75	5,478
724,94	7,855
725,13	4,893
725,32	6,751
725,51	5,116
725,71	4,880
725,90	4,820
726,09	4,201
726,28	6,864
726,47	3,748
726,66	6,679
726,85	4,076
727,04	3,874
727,23	8,023
727,42	8,033
727,61	3,498
727,81	-0,216
728,00	3,222
728,19	7,476
728,38	5,459
728,57	5,417
728,76	6,223
728,95	8,854
729,14	4,221
729,33	9,247
729,52	5,287
729,71	6,074
729,90	4,396
730,09	5,621
730,28	9,904
730,48	5,869
730,67	7,701
730,86	6,501
731,05	4,901
731,24	1,707
731,43	5,923
731,62	7,789
731,81	2,724
732,00	8,743
732,19	5,529
732,38	10,385
732,57	8,924
732,76	-0,410
732,95	1,544
733,14	2,869
733,33	4,497
733,52	7,865
733,71	7,030
733,90	2,260
734,09	3,784
734,28	3,412
734,47	9,028
734,66	4,011
734,85	5,429
735,04	8,845
735,23	10,784
735,42	14,617
735,61	8,017
735,81	10,059
736,00	5,698
736,19	8,359
736,38	5,389
736,57	11,523
736,76	5,401
736,95	9,395
737,14	9,729
737,33	18,246
737,52	5,385
737,71	10,492
737,90	15,301
738,09	6,393
738,28	14,499
738,47	2,555
738,66	1,603
738,85	7,808
739,04	7,547
739,22	13,545
739,41	9,559
739,60	11,604
739,79	5,755
739,98	8,602
740,17	14,846
740,36	11,754
740,55	9,873
740,74	24,014
740,93	7,648
741,12	13,929
741,31	7,042
741,50	5,482
741,69	16,106
741,88	7,312
742,07	14,312
742,26	10,667
742,45	12,295
742,64	9,324
742,83	12,035
743,02	2,105
743,21	15,704
743,40	4,969
743,59	13,235
743,78	10,176
743,97	12,308
744,16	12,795
744,34	7,459
744,53	13,608
744,72	18,998
744,91	2,521
745,10	9,644
745,29	18,347
745,48	14,318
745,67	10,023
745,86	16,998
746,05	12,796
746,24	13,196
746,43	11,349
746,62	17,888
746,81	13,258
747,00	18,818
747,18	16,558
747,37	21,053
747,56	16,471
747,75	7,389
747,94	23,301
748,13	24,161
748,32	23,333
748,51	27,919
748,70	18,722
748,89	4,450
749,08	-11,628
749,26	16,300
749,45	12,064
749,64	13,854
749,83	18,876
750,02	25,000
750,21	12,468
750,40	25,101
750,59	3,217
750,78	29,177
750,96	23,204
751,15	11,449
751,34	9,943
751,53	16,667
751,72	8,451
751,91	13,472
752,10	11,518
752,29	18,667
752,47	13,754
752,66	9,206
752,85	17,760
753,04	6,425
753,23	11,455
753,42	16,712
753,61	18,809
753,80	11,684
753,98	20,707
754,17	14,286
754,36	12,581
754,55	8,434
754,74	19,481
754,93	23,416
755,12	17,804
755,30	32,143
755,49	13,953
755,68	23,926
755,87	7,101
756,06	7,292
756,25	27,964
756,43	3,356
756,62	27,019
756,81	21,854
757,00	21,382
757,19	13,542
757,38	4,247
757,56	0,800
757,75	21,160
757,94	6,464
758,13	22,603
758,32	13,056
758,51	-2,694
758,69	9,266
758,88	1,010
759,07	23,054
759,26	21,555
759,45	9,474
759,63	19,048
759,82	28,772
760,01	28,571
760,20	31,132
760,39	33,754
760,57	26,481
760,76	21,951
760,95	27,083
761,14	29,562
761,33	30,645
761,51	41,071
761,70	30,112
761,89	22,222
762,08	39,405
762,27	15,523
762,45	18,478
762,64	19,598
762,83	33,466
763,02	22,609
763,21	3,500
763,39	32,168
763,58	6,320
763,77	15,612
763,96	33,865
764,14	12,917
764,33	10,476
764,52	19,196
764,71	33,770
764,89	15,625
765,08	15,764
765,27	14,894
765,46	20,628
765,65	21,961
765,83	28,054
766,02	13,333
766,21	29,508
766,40	22,568
766,58	14,815
766,77	13,303
766,96	18,699
767,15	41,597
767,33	27,536
767,52	30,568
767,71	23,684
767,90	17,085
768,08	22,156
768,27	17,480
768,46	48,246
768,64	23,611
768,83	36,765
769,02	31,034
769,21	40,625
769,39	19,286
769,58	25,974
769,77	45,745
769,96	24,775
770,14	12,022
770,33	22,897
770,52	58,273
770,70	35,676
770,89	55,676
771,08	3,012
771,27	35,263
771,45	37,647
771,64	18,788
771,83	45,588
772,01	48,969
772,20	27,861
772,39	14,557
772,57	46,766
772,76	27,027
772,95	29,310
773,14	58,503
773,32	36,723
773,51	-1,190
773,70	80,576
773,88	34,839
774,07	34,010
774,26	20,968
774,44	47,368
774,63	44,311
774,82	22,078
775,00	47,664
775,19	31,548
775,38	44,149
775,56	27,329
775,75	54,396
775,94	21,667
776,12	67,320
776,31	6,015
776,50	28,082
776,68	31,720
776,87	59,809
777,06	37,107
777,24	15,966
777,43	60,963
777,62	69,101
777,80	55,346
777,99	40,000
778,18	47,701
778,36	67,797
778,55	48,305
778,74	0,000
778,92	37,037
779,11	84,545
779,29	21,277
779,48	44,681
779,67	47,748
779,85	19,298
780,04	47,101
780,23	35,119
780,41	61,864
780,60	34,899
780,79	10,484
780,97	24,837
781,16	35,638
781,34	32,432
781,53	56,250
781,72	18,018
781,90	45,509
782,09	16,279
782,28	44,898
782,46	79,286
782,65	47,887
782,83	33,962
783,02	59,649
783,21	33,083
783,39	55,462
783,58	58,261
783,76	51,020
783,95	69,014
784,14	77,632
784,32	1,176
784,51	57,432
784,69	12,500
784,88	59,813
785,06	45,695
785,25	40,426
785,44	64,516
785,62	30,714
785,81	52,778
785,99	40,602
786,18	36,937
786,37	62,637
786,55	50,000
786,74	62,727
786,92	41,259
787,11	27,778
787,29	49,107
787,48	88,172
787,67	52,830
787,85	83,544
788,04	23,423
788,22	87,129
788,41	70,079
788,59	52,632
788,78	41,758
788,96	34,711
789,15	55,833
789,34	45,192
789,52	45,161
789,71	70,504
789,89	27,273
790,08	50,000
790,26	53,503
790,45	130,556
790,63	49,425
790,82	63,077
791,00	48,673
791,19	48,800
791,38	56,190
791,56	81,818
791,75	41,667
791,93	76,000
792,12	76,522
792,30	56,934
792,49	61,616
792,67	58,824
792,86	52,000
793,04	98,148
793,23	93,684
793,41	39,130
793,60	50,694
793,78	48,571
793,97	56,250
794,15	77,444
794,34	50,667
794,52	80,645
794,71	24,806
794,89	34,091
795,08	65,600
795,26	90,667
795,45	72,222
795,63	51,613
795,82	43,956
796,00	82,000
796,19	24,390
796,37	44,275
796,56	41,748
796,74	31,579
796,93	69,697
797,11	92,771
797,30	50,556
797,48	44,531
797,67	46,341
797,85	81,538
798,04	27,119
798,22	94,872
798,41	21,154
798,59	73,333
798,77	50,602
798,96	70,988
799,14	70,161
799,33	64,220
799,51	86,111
799,70	86,923
799,88	75,229
800,07	64,885
800,25	74,699
800,44	103,704
800,62	62,500
800,80	39,437
800,99	167,123
801,17	69,828
801,36	60,000
801,54	59,000
801,73	66,316
801,91	72,727
802,10	63,529
802,28	45,600
802,46	76,316
802,65	49,640
802,83	102,667
803,02	70,161
803,20	97,590
803,39	105,747
803,57	60,630
803,75	85,366
803,94	50,000
804,12	72,414
804,31	53,623
804,49	33,600
804,67	31,618
804,86	55,752
805,04	57,831
805,23	74,336
805,41	60,833
805,59	84,247
805,78	120,800
805,96	65,060
806,15	72,277
806,33	43,421
806,51	41,333
806,70	60,150
806,88	93,023
807,07	93,694
807,25	84,615
807,43	50,893
807,62	52,212
807,80	54,286
807,99	76,154
808,17	18,898
808,35	50,000
808,54	71,014
808,72	51,351
808,90	59,589
809,09	29,348
809,27	105,333
809,46	72,527
809,64	84,146
809,82	56,291
810,01	57,813
810,19	67,677
810,37	22,656
810,56	123,333
810,74	72,727
810,92	44,000
811,11	42,105
811,29	79,245
811,48	66,154
811,66	74,157
811,84	83,516
812,03	42,623
812,21	37,719
812,39	46,957
812,58	57,895
812,76	41,007
812,94	71,084
813,13	29,787
813,31	61,000
813,49	71,296
813,68	24,545
813,86	35,955
814,04	44,628
814,23	44,578
814,41	50,562
814,59	58,252
814,78	48,529
814,96	66,038
815,14	60,748
815,33	22,481
815,51	59,055
815,69	83,810
815,87	68,317
816,06	66,957
816,24	53,416
816,42	52,206
816,61	41,509
816,79	54,310
816,97	77,273
817,16	31,361
817,34	54,762
817,52	47,934
817,70	87,129
817,89	42,222
818,07	31,507
818,25	37,755
818,44	66,667
818,62	40,310
818,80	31,579
818,98	68,153
819,17	100,000
819,35	67,553
819,53	50,000
819,72	60,759
819,90	18,605
820,08	38,462
820,26	54,310
820,45	35,570
820,63	80,357
820,81	83,200
820,99	60,284
821,18	38,776
821,36	44,304
821,54	53,793
821,73	53,889
821,91	73,684
822,09	43,548
822,27	54,194
822,46	48,529
822,64	57,600
822,82	41,989
823,00	14,365
823,19	31,868
823,37	44,848
823,55	42,045
823,73	27,586
823,91	62,319
824,10	22,043
824,28	51,256
824,46	14,563
824,64	69,737
824,83	32,298
825,01	25,333
825,19	52,419
825,37	48,696
825,56	35,849
825,74	50,510
825,92	49,045
826,10	65,909
826,28	25,000
826,47	45,263
826,65	70,213
826,83	29,310
827,01	45,665
827,19	54,167
827,38	54,938
827,56	31,818
827,74	37,989
827,92	34,884
828,10	23,718
828,29	27,219
828,47	52,846
828,65	61,538
828,83	5,455
829,01	25,543
829,20	52,198
829,38	63,068
829,56	50,000
829,74	38,994
829,92	49,603
830,10	52,874
830,29	30,653
830,47	33,166
830,65	29,878
830,83	25,000
831,01	48,810
831,20	41,262
831,38	33,493
831,56	35,814
831,74	45,498
831,92	49,342
832,10	46,667
832,29	35,811
832,47	19,101
832,65	29,412
832,83	37,089
833,01	11,000
833,19	35,747
833,37	42,081
833,56	25,316
833,74	45,098
833,92	13,889
834,10	35,270
834,28	32,911
834,46	15,385
834,64	21,296
834,83	23,636
835,01	46,888
835,19	35,600
835,37	18,182
835,55	25,000
835,73	33,005
835,91	35,793
836,09	38,023
836,28	24,354
836,46	18,000
836,64	33,083
836,82	26,244
837,00	42,391
837,18	23,048
837,36	29,084
837,54	25,000
837,72	26,724
837,91	41,418
838,09	8,765
838,27	23,333
838,45	21,986
838,63	22,794
838,81	27,004
838,99	20,565
839,17	14,865
839,35	39,007
839,53	23,860
839,72	19,925
839,90	25,773
840,08	31,077
840,26	24,603
840,44	32,628
840,62	25,517
840,80	32,653
840,98	14,118
841,16	9,506
841,34	14,716
841,52	27,829
841,70	24,000
841,89	20,161
842,07	17,555
842,25	39,368
842,43	25,862
842,61	24,211
842,79	21,469
842,97	18,893
843,15	23,432
843,33	21,451
843,51	26,807
843,69	28,205
843,87	11,194
844,05	21,884
844,23	24,925
844,41	6,583
844,59	23,919
844,77	14,566
844,95	20,809
845,13	22,154
845,31	15,116
845,50	20,681
845,68	19,614
845,86	12,069
846,04	28,771
846,22	8,719
846,40	25,538
846,58	26,781
846,76	14,516
846,94	20,698
847,12	14,249
847,30	13,660
847,48	3,096
847,66	21,921
847,84	15,574
848,02	24,879
848,20	18,346
848,38	9,402
848,56	19,034
848,74	24,821
848,92	9,975
849,10	14,750
849,28	10,931
849,46	21,867
849,64	8,776
849,82	14,506
850,00	20,794
850,18	24,043
850,36	18,985
850,54	19,549
850,72	13,882
850,90	17,609
851,08	16,849
851,26	16,411
851,44	10,841
851,62	24,419
851,80	14,758
851,98	16,703
852,16	25,532
852,34	13,814
852,52	11,384
852,70	1,822
852,87	16,438
853,05	19,493
853,23	18,557
853,41	14,512
853,59	20,747
853,77	19,444
853,95	26,371
854,13	10,177
854,31	18,480
854,49	5,190
854,67	8,855
854,85	16,563
855,03	20,641
855,21	18,947
855,39	6,036
855,57	16,308
855,75	11,861
855,93	15,294
856,11	12,573
856,28	11,624
856,46	17,972
856,64	16,381
856,82	10,997
857,00	11,968
857,18	12,635
857,36	13,491
857,54	19,723
857,72	12,456
857,90	9,963
858,08	12,157
858,26	10,559
858,44	14,425
858,61	9,408
858,79	15,917
858,97	19,469
859,15	16,873
859,33	14,219
859,51	8,208
859,69	6,977
859,87	5,931
860,05	3,197
860,23	13,149
860,40	11,566
860,58	11,967
860,76	7,619
860,94	15,447
861,12	14,462
861,30	7,535
861,48	8,857
861,66	11,429
861,84	8,520
862,01	16,200
862,19	6,271
862,37	12,254
862,55	13,256
862,73	9,752
862,91	5,433
863,09	7,589
863,27	6,322
863,44	7,475
863,62	8,288
863,80	7,173
863,98	7,864
864,16	4,480
864,34	13,154
864,52	15,013
864,69	11,257
864,87	0,145
865,05	7,347
865,23	10,850
865,41	6,855
865,59	8,210
865,76	10,608
865,94	13,049
866,12	15,484
866,30	7,574
866,48	11,628
866,66	3,360
866,83	9,669
867,01	7,801
867,19	11,573
867,37	4,528
867,55	7,885
867,73	9,615
867,90	8,383
868,08	11,125
868,26	5,147
868,44	5,510
868,62	6,020
868,79	10,653
868,97	8,816
869,15	2,900
869,33	9,035
869,51	7,898
869,69	6,829
869,86	2,105
870,04	12,529
870,22	10,748
870,40	10,643
870,57	6,459
870,75	8,398
870,93	8,211
871,11	5,844
871,29	7,991
871,46	7,064
871,64	6,695
871,82	9,580
872,00	10,597
872,18	5,591
872,35	7,492
872,53	5,482
872,71	9,388
872,89	13,163
873,06	7,061
873,24	6,402
873,42	9,325
873,60	3,793
873,77	5,010
873,95	1,241
874,13	4,017
874,31	6,914
874,49	5,034
874,66	1,880
874,84	6,018
875,02	7,516
875,20	5,123
875,37	10,972
875,55	10,019
875,73	6,906
875,91	6,784
876,08	-0,091
876,26	5,124
876,44	7,037
876,61	8,703
876,79	6,212
876,97	3,741
877,15	9,339
877,32	5,371
877,50	2,401
877,68	5,398
877,86	1,869
878,03	5,707
878,21	5,780
878,39	4,972
878,56	4,132
878,74	6,422
878,92	2,502
879,10	4,842
879,27	7,633
879,45	7,728
879,63	3,028
879,80	7,859
879,98	1,430
880,16	6,186
880,34	7,664
880,51	0,631
880,69	1,935
880,87	3,895
881,04	3,473
881,22	7,319
881,40	5,528
881,57	5,267
881,75	4,848
881,93	7,537
882,10	6,114
882,28	5,310
882,46	5,411
882,63	3,777
882,81	6,867
882,99	2,216
883,16	5,125
883,34	1,471
883,52	3,555
883,69	6,081
883,87	2,018
884,05	4,507
884,22	2,740
884,40	4,205
884,58	0,967
884,75	2,945
884,93	5,231
885,11	5,094
885,28	2,495
885,46	-0,554
885,64	5,098
885,81	5,300
885,99	3,284
886,17	4,075
886,34	2,007
886,52	1,457
886,70	6,272
886,87	3,752
887,05	4,602
887,22	2,490
887,40	4,615
887,58	4,596
887,75	2,862
887,93	5,336
888,11	4,754
888,28	1,539
888,46	4,114
888,63	2,458
888,81	3,387
888,99	5,505
889,16	4,866
889,34	1,491
889,51	3,752
889,69	4,133
889,87	5,417
890,04	2,709
890,22	1,463
890,39	2,184
890,57	4,601
890,75	3,693
890,92	3,629
891,10	2,674
891,27	3,168
891,45	2,265
891,63	4,338
891,80	4,685
891,98	0,874
892,15	2,016
892,33	3,599
892,51	3,617
892,68	3,895
892,86	2,554
893,03	3,707
893,21	4,078
893,38	1,906
893,56	3,287
893,74	2,115
893,91	2,058
894,09	3,588
894,26	3,173
894,44	2,811
894,61	2,552
894,79	2,505
894,96	1,706
895,14	3,475
895,32	1,789
895,49	2,301
895,67	2,703
895,84	1,650
896,02	2,921
896,19	1,351
896,37	3,867
896,54	1,691
896,72	3,328
896,89	4,125
897,07	4,707
897,25	3,382
897,42	2,863
897,60	4,365
897,77	2,494
897,95	2,249
898,12	3,435
898,30	2,642
898,47	1,630
898,65	1,370
898,82	1,709
899,00	2,517
899,17	3,034
899,35	2,009
899,52	4,737
899,70	3,701
899,87	2,215
900,05	2,435
900,22	2,019
900,40	1,664
900,57	3,228
900,75	2,241
900,92	1,446
901,10	3,163
901,27	1,776
901,45	5,926
901,62	1,873
901,80	2,313
901,97	3,381
902,15	2,779
902,32	2,551
902,50	1,112
902,67	3,837
902,85	3,030
903,02	4,334
903,20	2,747
903,37	1,317
903,54	1,724
903,72	2,382
903,89	2,739
904,07	1,783
904,24	3,140
904,42	1,831
904,59	2,393
904,77	2,582
904,94	1,267
905,12	1,063
905,29	1,089
905,47	2,091
905,64	2,476
905,81	1,392
905,99	1,680
906,16	2,497
906,34	2,362
906,51	1,382
906,69	2,001
906,86	1,776
907,03	2,085
907,21	1,560
907,38	2,451
907,56	2,202
907,73	2,641
907,91	2,320
908,08	2,875
908,25	2,905
908,43	1,913
908,60	0,906
908,78	1,738
908,95	1,485
909,13	4,348
909,30	2,177
909,47	2,251
909,65	2,234
909,82	2,539
910,00	2,075
910,17	2,205
910,34	2,525
910,52	1,277
910,69	1,451
910,87	1,410
911,04	2,574
911,21	3,937
911,39	0,912
911,56	2,553
911,73	1,863
911,91	1,056
912,08	3,008
912,26	0,544
912,43	3,818
912,60	1,374
912,78	1,886
912,95	0,750
913,13	0,953
913,30	2,017
913,47	2,433
913,65	3,209
913,82	2,679
913,99	0,640
914,17	2,376
914,34	2,929
914,51	3,001
914,69	1,865
914,86	3,338
915,03	1,613
915,21	0,517
915,38	1,706
915,56	1,667
915,73	0,966
915,90	2,145
916,08	2,744
916,25	1,088
916,42	1,662
916,60	2,863
916,77	1,517
916,94	0,945
917,12	1,577
917,29	2,757
917,46	2,965
917,64	0,640
917,81	1,643
917,98	2,074
918,16	2,087
918,33	1,694
918,50	1,507
918,67	2,051
918,85	1,250
919,02	2,176
919,19	1,277
919,37	1,179
919,54	2,132
919,71	2,274
919,89	1,511
920,06	1,870
920,23	1,279
920,41	1,347
920,58	0,728
920,75	1,187
920,92	1,344
921,10	2,464
921,27	0,850
921,44	2,363
921,62	1,348
921,79	1,167
921,96	1,717
922,13	1,627
922,31	1,289
922,48	1,276
922,65	1,337
922,82	1,406
923,00	1,062
923,17	0,929
923,34	1,285
923,52	1,615
923,69	1,594
923,86	2,621
924,03	1,746
924,21	1,795
924,38	1,968
924,55	1,823
924,72	0,378
924,90	1,491
925,07	2,364
925,24	2,051
925,41	1,482
925,59	1,416
925,76	1,639
925,93	1,045
926,10	1,837
926,28	1,793
926,45	0,908
926,62	0,992
926,79	2,323
926,96	2,385
927,14	2,180
927,31	1,986
927,48	1,668
927,65	2,119
927,83	1,567
928,00	1,529
928,17	1,912
928,34	0,824
928,51	0,745
928,69	1,368
928,86	1,071
929,03	1,098
929,20	1,033
929,37	0,681
929,55	2,334
929,72	1,163
929,89	1,298
930,06	1,169
930,23	2,318
930,41	0,500
930,58	1,662
930,75	0,872
930,92	1,362
931,09	1,618
931,27	1,135
931,44	0,593
931,61	1,432
931,78	0,893
931,95	1,653
932,12	2,144
932,30	2,034
932,47	1,073
932,64	1,827
932,81	1,785
932,98	1,220
933,16	1,048
933,33	1,783
933,50	1,588
933,67	1,111
933,84	2,585
934,01	1,228
934,18	2,289
934,36	1,317
934,53	1,771
934,70	1,348
934,87	1,538
935,04	1,655
935,21	1,144
935,38	1,302
935,56	1,414
935,73	0,838
935,90	1,289
936,07	0,726
936,24	2,410
936,41	1,341
936,58	1,562
936,76	1,061
936,93	1,221
937,10	1,585
937,27	1,386
937,44	0,697
937,61	1,909
937,78	1,429
937,95	1,743
938,13	0,699
938,30	1,684
938,47	1,384
938,64	0,980
938,81	0,517
938,98	0,359
939,15	1,568
939,32	0,689
939,49	0,856
939,66	1,431
939,84	1,515
940,01	1,621
940,18	1,235
940,35	0,699
940,52	0,349
940,69	0,162
940,86	1,969
941,03	1,031
941,20	0,547
941,37	-0,084
941,54	1,825
941,71	1,799
941,89	1,295
942,06	1,320
942,23	1,592
942,40	1,431
942,57	1,136
942,74	1,190
942,91	2,639
943,08	2,243
943,25	1,687
943,42	0,911
943,59	1,561
943,76	1,778
943,93	1,009
944,10	0,090
944,27	1,100
944,44	0,806
944,61	1,472
944,79	1,761
944,96	2,289
945,13	1,663
945,30	0,865
945,47	2,220
945,64	1,504
945,81	1,438
945,98	1,663
946,15	2,142
946,32	1,952
946,49	1,511
946,66	2,473
946,83	1,898
947,00	2,062
947,17	0,245
947,34	1,702
947,51	1,350
947,68	2,305
947,85	1,378
948,02	2,439
948,19	0,928
948,36	2,477
948,53	0,408
948,70	0,858
948,87	1,389
949,04	2,135
949,21	2,076
949,38	2,204
949,55	3,065
949,72	1,822
949,89	2,751
950,06	2,193
950,23	1,816
950,40	1,865
950,57	2,112
950,74	2,354
950,91	2,054
951,08	1,877
951,25	2,086
951,42	0,867
951,59	1,634
951,76	0,637
951,93	1,954
952,10	3,104
952,27	3,000
952,44	3,772
952,61	3,731
952,77	3,274
952,94	2,898
953,11	3,731
953,28	3,144
953,45	3,961
953,62	2,388
953,79	3,951
953,96	3,717
954,13	5,385
954,30	4,455
954,47	5,266
954,64	2,744
954,81	4,647
954,98	1,685
955,15	2,600
955,32	2,263
955,49	3,273
955,65	3,387
955,82	4,984
955,99	5,023
956,16	6,752
956,33	3,814
956,50	3,614
956,67	5,011
956,84	6,502
957,01	6,343
957,18	4,183
957,35	2,393
957,52	2,488
957,68	3,218
957,85	3,237
958,02	5,619
958,19	9,185
958,36	7,279
958,53	2,833
958,70	8,744
958,87	2,295
959,04	5,112
959,21	8,991
959,37	11,292
959,54	6,073
959,71	13,034
959,88	1,047
960,05	8,033
960,22	8,428
960,39	7,663
960,56	10,742
960,72	6,371
960,89	10,872
961,06	5,956
961,23	-0,765
961,40	7,489
961,57	9,425
961,74	12,442
961,90	10,160
962,07	12,407
962,24	11,878
962,41	15,345
962,58	11,204
962,75	17,436
962,92	8,421
963,08	11,458
963,25	5,777
963,42	19,478
963,59	6,776
963,76	8,946
963,93	16,701
964,10	10,860
964,26	20,238
964,43	8,372
964,60	17,401
964,77	15,660
964,94	12,346
965,10	10,864
965,27	11,732
965,44	-3,492
965,61	14,384
965,78	19,255
965,95	18,159
966,11	19,394
966,28	24,581
966,45	14,379
966,62	0,697
966,79	22,526
966,95	14,591
967,12	29,841
967,29	24,074
967,46	26,335
967,63	29,412
967,79	37,919
967,96	22,936
968,13	38,095
968,30	44,856
968,47	36,538
968,63	31,373
968,80	36,782
968,97	37,572
969,14	27,119
969,31	21,939
969,47	36,957
969,64	27,473
969,81	41,290
969,98	38,947
970,14	18,817
970,31	43,396
970,48	34,899
970,65	20,661
970,81	39,860
970,98	46,354
971,15	75,152
971,32	38,636
971,48	71,429
971,65	50,331
971,82	57,273
971,99	54,430
972,15	40,698
972,32	55,556
972,49	66,393
972,66	38,843
972,82	82,192
972,99	45,000
973,16	70,199
973,33	50,370
973,49	58,537
973,66	45,714
973,83	71,605
974,00	59,494
974,16	23,636
974,33	93,333
974,50	114,141
974,67	71,429
974,83	87,755
975,00	141,818
975,17	137,097
975,33	82,759
975,50	173,770
975,67	192,308
975,84	91,463
976,00	97,368
976,17	221,739
976,34	89,412
976,50	59,341
976,67	83,333
976,84	200,000
977,00	82,051
977,17	146,667
977,34	223,077
977,50	138,095
977,67	104,706
977,84	189,831
978,01	52,703
978,17	96,552
978,34	51,852
978,51	228,000
978,67	134,694
978,84	61,818
979,01	78,947
979,17	105,714
979,34	160,870
979,51	143,182
979,67	316,667
979,84	159,322
980,01	178,846
980,17	147,059
980,34	113,699
980,51	1088,889
980,67	60,000
980,84	132,857
981,01	235,294
981,17	126,471
981,34	138,571
981,50	120,000
981,67	183,333
981,84	100,000
982,00	4900,000
982,17	139,063
982,34	302,439
982,50	0,000
982,67	-528,571
982,84	385,000
983,00	66,667
983,17	-914,286
983,33	577,778
983,50	234,146
983,67	94,203
983,83	380,952
984,00	156,522
984,17	1200,000
984,33	-128,571
984,50	224,324
984,66	75,000
984,83	800,000
985,00	276,923
985,16	141,935
985,33	4300,000
985,49	112,791
985,66	132,500
985,83	-1900,000
985,99	788,889
986,16	421,053
986,32	102,740
986,49	-560,000
986,66	60,000
986,82	136,364
986,99	-700,000
987,15	233,333
987,32	341,176
987,49	178,571
987,65	-169,565
987,82	-185,000
987,98	134,848
988,15	1028,571
988,31	188,571
988,48	178,431
988,65	790,000
988,81	154,545
988,98	235,135
989,14	650,000
989,31	184,746
989,47	-46,429
989,64	433,333
989,80	107,447
989,97	127,273
990,14	700,000
990,30	-1037,500
990,47	-183,333
990,63	194,737
990,80	916,667
990,96	908,333
991,13	183,333
991,29	133,333
991,46	210,417
991,62	0,000
991,79	-480,000
991,95	417,647
992,12	1233,333
992,29	-319,048
992,45	266,667
992,62	-146,429
992,78	-500,000
992,95	280,645
993,11	1112,500
993,28	-9000,000
993,44	-241,379
993,61	163,158
993,77	0,000
993,94	256,410
994,10	1085,714
994,27	-0,000
994,43	368,750
994,60	757,143
994,76	312,121
994,93	-850,000
995,09	-437,500
995,26	437,500
995,42	875,000
995,59	226,667
995,75	-933,333
995,92	-1228,571
996,08	-1340,000
996,25	284,848
996,41	1800,000
996,58	392,000
996,74	-590,000
996,91	87,097
997,07	424,000
997,23	133,333
997,40	866,667
997,56	-3266,667
997,73	300,000
997,89	1500,000
998,06	131,579
998,22	272,340
998,39	200,000
998,55	500,000
998,72	-5300,000
998,88	172,000
999,05	713,333
999,21	394,118
999,37	223,256
999,54	251,613
999,70	333,333
999,87	633,333
1000,03	290,000
1000,20	635,714
1000,36	-987,500
1000,52	2650,000
1000,69	544,000
1000,85	-375,000
1001,02	261,905
1001,18	1540,000
1001,35	0,000
1001,51	607,143
1001,67	410,000
1001,84	168,293
1002,00	-190,909
1002,17	700,000
1002,33	-1087,500
1002,50	841,667
1002,66	1175,000
1002,82	253,659
1002,99	-340,909
1003,15	-5800,000
1003,32	-50,000
1003,48	-1933,333
1003,64	360,870
1003,81	-131,579
1003,97	169,565
1004,14	-100,000
1004,30	336,364
1004,46	-10100,000
1004,63	-423,077
1004,79	216,216
1004,95	-820,000
1005,12	-507,692
1005,28	255,556
1005,45	-1583,333
1005,61	292,308
1005,77	-1071,429
1005,94	232,609
1006,10	-110,000
1006,26	-185,185
1006,43	281,818
1006,59	341,935
1006,76	-352,000
1006,92	156,522
1007,08	100,000
1007,25	272,222
1007,41	322,727
1007,57	-394,118
1007,74	330,435
1007,90	-592,857
1008,06	-413,333
1008,23	-300,000
1008,39	286,111
1008,55	125,882
1008,72	-787,500
1008,88	-185,714
1009,04	-788,889
1009,21	237,500
1009,37	312,903
1009,53	-450,000
1009,70	-31,818
1009,86	352,632
1010,02	256,818
1010,19	713,333
1010,35	7600,000
1010,51	348,571
1010,68	404,545
1010,84	305,000
1011,00	514,286
1011,17	2533,333
1011,33	257,692
1011,49	425,000
1011,66	278,125
1011,82	-991,667
1011,98	860,000
1012,14	592,308
1012,31	227,273
1012,47	-1014,286
1012,63	8800,000
1012,80	350,000
1012,96	105,556
1013,12	-114,815
1013,29	416,667
1013,45	-123,529
1013,61	-1080,000
1013,77	-733,333
1013,94	304,167
1014,10	4600,000
1014,26	-94,118
1014,43	205,263
1014,59	0,000
1014,75	700,000
1014,91	308,571
1015,08	334,615
1015,24	566,667
1015,40	620,000
1015,56	805,882
1015,73	183,673
1015,89	822,222
1016,05	262,162
1016,21	300,000
1016,38	184,211
1016,54	-356,000
1016,70	610,526
1016,86	-407,692
1017,03	0,000
1017,19	1200,000
1017,35	366,667
1017,51	2133,333
1017,68	1385,714
1017,84	505,263
1018,00	223,810
1018,16	-587,500
1018,33	536,364
1018,49	550,000
1018,65	-445,455
1018,81	-34,146
1018,97	553,846
1019,14	-1114,286
1019,30	433,333
1019,46	194,872
1019,62	4350,000
1019,79	-1257,143
1019,95	-1725,000
1020,11	820,000
1020,27	130,000
1020,43	-1075,000
1020,60	0,000
1020,76	142,647
1020,92	7900,000
1021,08	-113,333
1021,24	-2300,000
1021,41	281,818
1021,57	-383,333
1021,73	0,000
1021,89	-281,818
1022,05	257,143
1022,21	-484,615
1022,38	368,421
1022,54	1260,000
1022,70	233,333
1022,86	-3100,000
1023,02	1111,111
1023,19	-390,000
1023,35	171,698
1023,51	303,226
1023,67	189,474
1023,83	736,364
1023,99	191,429
1024,16	-44,615
1024,32	418,750
1024,48	204,082
1024,64	-740,000
1024,80	525,000
1024,96	553,846
1025,12	2733,333
1025,29	-2175,000
1025,45	366,667
1025,61	1200,000
1025,77	428,571
1025,93	161,538
1026,09	4800,000
1026,26	-1085,714
1026,42	-1625,000
1026,58	221,154
1026,74	857,143
1026,90	447,368
1027,06	-390,000
1027,22	-683,333
1027,38	777,778
1027,55	-344,000
1027,71	812,500
1027,87	257,500
1028,03	74,242
1028,19	-136,364
1028,35	151,351
1028,51	9,677
1028,67	-920,000
1028,83	169,048
1029,00	742,857
1029,16	-433,333
1029,32	247,059
1029,48	5000,000
1029,64	1471,429
1029,80	966,667
1029,96	239,216
1030,12	-450,000
1030,28	1950,000
1030,44	-3550,000
1030,61	325,000
1030,77	-413,043
1030,93	288,372
1031,09	-50,000
1031,25	-1277,778
1031,41	-1700,000
1031,57	-78,947
1031,73	581,818
1031,89	-245,455
1032,05	1214,286
1032,21	710,000
1032,37	-161,765
1032,53	-150,000
1032,69	-8900,000
1032,86	1750,000
1033,02	237,500
1033,18	-861,538
1033,34	-653,846
1033,50	270,968
1033,66	-444,444
1033,82	335,714
1033,98	-547,059
1034,14	744,444
1034,30	-259,091
1034,46	462,500
1034,62	616,667
1034,78	163,492
1034,94	-206,452
1035,10	-145,455
1035,26	-900,000
1035,42	162,857
1035,58	760,000
1035,74	-133,333
1035,90	-458,333
1036,06	154,717
1036,22	-252,000
1036,38	680,000
1036,54	580,000
1036,70	-4000,000
1036,86	-550,000
1037,02	-2850,000
1037,18	-157,143
1037,34	273,913
1037,50	-246,667
1037,66	-2900,000
1037,82	-229,412
1037,98	357,143
1038,14	-213,793
1038,30	-3,846
1038,46	175,000
1038,62	145,161
1038,78	173,810
1038,94	-160,526
1039,10	-191,667
1039,26	-315,789
1039,42	-928,571
1039,58	181,132
1039,74	281,250
1039,90	-138,462
1040,06	300,000
>>>>>End Processed Spectral Data<<<<<
