SpectraSuite Data File
++++++++++++++++++++++++++++++++++++
Date: Thu Feb 02 18:04:02 EET 2017
User: optolab
Dark Spectrum Present: Yes
Reference Spectrum Present: Yes
Number of Sampled Component Spectra: 1
Spectrometers: USB4C02475
Integration Time (usec): 100000 (USB4C02475)
Spectra Averaged: 1 (USB4C02475)
Boxcar Smoothing: 0 (USB4C02475)
Correct for Electrical Dark: No (USB4C02475)
Strobe/Lamp Enabled: No (USB4C02475)
Correct for Detector Non-linearity: No (USB4C02475)
Correct for Stray Light: No (USB4C02475)
Number of Pixels in Processed Spectrum: 3648
>>>>>Begin Processed Spectral Data<<<<<
344,91	-950,000
345,13	-950,000
345,35	-950,000
345,57	-123,529
345,79	-67,391
346,00	-197,059
346,22	-1500,000
346,44	-96,970
346,66	227,660
346,87	391,304
347,09	707,692
347,31	2000,000
347,53	-2200,000
347,74	-232,558
347,96	-1685,714
348,18	355,882
348,40	370,588
348,61	-189,744
348,83	3800,000
349,05	366,667
349,27	294,118
349,48	-5650,000
349,70	457,143
349,92	390,476
350,14	91,892
350,35	-430,769
350,57	-366,667
350,79	-146,154
351,01	-413,333
351,22	410,000
351,44	1050,000
351,66	261,111
351,87	1300,000
352,09	139,474
352,31	201,786
352,53	311,429
352,74	-1014,286
352,96	363,158
353,18	106,250
353,40	-775,000
353,61	666,667
353,83	195,833
354,05	312,500
354,26	285,714
354,48	-1160,000
354,70	480,952
354,92	302,778
355,13	-134,884
355,35	140,741
355,57	198,438
355,78	271,429
356,00	185,106
356,22	245,455
356,44	244,186
356,65	550,000
356,87	222,222
357,09	308,571
357,30	177,273
357,52	-1500,000
357,74	245,161
357,95	288,571
358,17	108,696
358,39	260,000
358,60	252,778
358,82	150,000
359,04	223,077
359,26	254,545
359,47	-423,077
359,69	317,857
359,91	344,000
360,12	330,000
360,34	133,333
360,56	-1950,000
360,77	1033,333
360,99	379,167
361,21	147,826
361,42	-2050,000
361,64	-148,148
361,86	138,806
362,07	920,000
362,29	312,500
362,51	218,919
362,72	-1180,000
362,94	277,778
363,16	155,714
363,37	900,000
363,59	-7400,000
363,81	1112,500
364,02	168,000
364,24	243,182
364,46	452,381
364,67	152,381
364,89	600,000
365,11	240,541
365,32	237,037
365,54	281,250
365,76	154,545
365,97	292,683
366,19	221,053
366,41	720,000
366,62	152,000
366,84	675,000
367,05	112,745
367,27	940,000
367,49	330,769
367,70	944,444
367,92	250,000
368,14	-261,538
368,35	120,588
368,57	175,758
368,79	134,615
369,00	96,154
369,22	455,556
369,43	510,526
369,65	-213,793
369,87	-676,471
370,08	505,000
370,30	628,571
370,51	245,455
370,73	186,111
370,95	330,000
371,16	231,579
371,38	188,679
371,60	323,333
371,81	108,696
372,03	-1500,000
372,24	-190,625
372,46	1766,667
372,68	305,882
372,89	104,587
373,11	209,302
373,32	135,294
373,54	436,364
373,76	477,778
373,97	118,182
374,19	-257,895
374,40	167,143
374,62	547,059
374,84	479,167
375,05	209,615
375,27	227,027
375,48	112,346
375,70	505,882
375,92	180,357
376,13	415,789
376,35	412,500
376,56	355,000
376,78	144,898
376,99	300,000
377,21	262,500
377,43	257,576
377,64	162,000
377,86	587,500
378,07	168,182
378,29	275,000
378,51	104,762
378,72	-272,727
378,94	215,217
379,15	202,273
379,37	481,250
379,58	60,000
379,80	79,545
380,01	224,000
380,23	260,870
380,45	227,083
380,66	126,389
380,88	159,459
381,09	382,609
381,31	179,487
381,52	300,000
381,74	198,214
381,95	264,286
382,17	388,000
382,39	137,097
382,60	517,647
382,82	300,000
383,03	1833,333
383,25	97,531
383,46	716,667
383,68	210,638
383,89	295,455
384,11	86,301
384,32	184,211
384,54	-1542,857
384,76	323,529
384,97	350,000
385,19	273,684
385,40	259,375
385,62	290,323
385,83	248,936
386,05	757,143
386,26	303,846
386,48	669,231
386,69	344,444
386,91	500,000
387,12	153,846
387,34	110,169
387,55	245,714
387,77	276,000
387,98	193,878
388,20	200,000
388,41	101,587
388,63	161,429
388,84	325,000
389,06	141,860
389,27	234,375
389,49	132,530
389,70	191,525
389,92	88,636
390,13	253,846
390,35	85,417
390,56	159,375
390,78	327,273
390,99	126,667
391,21	95,455
391,42	95,652
391,64	-450,000
391,85	181,034
392,07	-192,857
392,28	292,308
392,50	1540,000
392,71	6300,000
392,93	114,516
393,14	228,261
393,36	143,590
393,57	295,833
393,79	180,952
394,00	63,014
394,22	190,000
394,43	228,571
394,65	225,000
394,86	262,500
395,08	-1075,000
395,29	63,830
395,50	-700,000
395,72	814,286
395,93	508,000
396,15	-278,571
396,36	160,000
396,58	-342,857
396,79	151,163
397,01	290,476
397,22	184,058
397,44	242,553
397,65	95,946
397,87	128,571
398,08	219,231
398,29	283,333
398,51	224,390
398,72	186,957
398,94	218,605
399,15	70,000
399,37	176,087
399,58	122,222
399,80	106,667
400,01	344,118
400,22	450,000
400,44	333,333
400,65	161,644
400,87	5100,000
401,08	107,865
401,30	144,000
401,51	96,364
401,72	125,806
401,94	182,927
402,15	118,367
402,37	90,909
402,58	311,628
402,80	368,750
403,01	61,111
403,22	101,205
403,44	227,778
403,65	89,796
403,87	82,667
404,08	126,923
404,30	131,250
404,51	64,286
404,72	990,909
404,94	90,361
405,15	113,433
405,37	112,088
405,58	174,194
405,79	171,429
406,01	77,778
406,22	95,238
406,44	163,158
406,65	80,952
406,86	113,000
407,08	66,667
407,29	70,667
407,51	52,885
407,72	90,099
407,93	111,392
408,15	65,909
408,36	105,714
408,58	75,000
408,79	52,713
409,00	71,631
409,22	63,725
409,43	63,964
409,64	59,615
409,86	43,182
410,07	73,913
410,29	47,333
410,50	75,397
410,71	53,226
410,93	13,861
411,14	45,794
411,35	65,972
411,57	11,806
411,78	57,353
412,00	40,667
412,21	38,496
412,42	37,561
412,64	58,333
412,85	10,363
413,06	45,982
413,28	34,118
413,49	43,256
413,70	41,631
413,92	48,095
414,13	19,763
414,34	24,535
414,56	37,021
414,77	15,129
414,98	28,269
415,20	30,108
415,41	27,597
415,63	28,775
415,84	33,795
416,05	13,554
416,27	25,905
416,48	23,460
416,69	21,512
416,91	17,067
417,12	10,181
417,33	13,093
417,55	22,000
417,76	21,142
417,97	20,787
418,19	12,971
418,40	9,808
418,61	12,350
418,83	21,303
419,04	11,008
419,25	13,397
419,46	15,249
419,68	10,767
419,89	11,726
420,10	11,156
420,32	10,596
420,53	13,723
420,74	6,213
420,96	6,872
421,17	9,806
421,38	7,658
421,60	9,325
421,81	7,608
422,02	4,612
422,23	4,091
422,45	4,785
422,66	9,114
422,87	6,022
423,09	5,923
423,30	7,091
423,51	6,914
423,73	6,601
423,94	4,260
424,15	3,287
424,36	5,982
424,58	4,509
424,79	4,034
425,00	5,583
425,22	5,353
425,43	5,055
425,64	3,388
425,85	2,255
426,07	4,682
426,28	4,058
426,49	5,392
426,71	2,226
426,92	5,145
427,13	3,610
427,34	3,073
427,56	5,461
427,77	3,230
427,98	3,253
428,19	1,280
428,41	1,974
428,62	2,225
428,83	2,568
429,04	3,425
429,26	1,840
429,47	3,134
429,68	1,337
429,89	1,712
430,11	2,141
430,32	2,421
430,53	1,194
430,74	2,547
430,96	1,932
431,17	1,417
431,38	1,698
431,59	1,781
431,81	1,961
432,02	2,187
432,23	2,906
432,44	2,471
432,66	2,149
432,87	1,818
433,08	1,168
433,29	1,696
433,51	2,139
433,72	2,723
433,93	1,236
434,14	2,207
434,35	1,609
434,57	0,827
434,78	1,632
434,99	1,607
435,20	2,342
435,42	1,826
435,63	1,341
435,84	1,513
436,05	1,433
436,26	1,135
436,48	1,724
436,69	1,880
436,90	1,318
437,11	1,711
437,32	1,825
437,54	2,153
437,75	1,828
437,96	2,324
438,17	3,032
438,38	2,976
438,60	3,952
438,81	4,444
439,02	5,631
439,23	6,337
439,44	7,714
439,66	10,038
439,87	11,576
440,08	13,495
440,29	15,962
440,50	18,582
440,72	20,351
440,93	23,366
441,14	25,986
441,35	28,016
441,56	30,706
441,77	31,776
441,99	34,422
442,20	36,665
442,41	37,575
442,62	39,962
442,83	41,010
443,04	41,970
443,26	43,768
443,47	44,359
443,68	44,204
443,89	45,091
444,10	45,175
444,31	45,909
444,53	46,285
444,74	47,640
444,95	47,336
445,16	47,827
445,37	47,599
445,58	48,763
445,80	50,356
446,01	50,180
446,22	51,943
446,43	53,556
446,64	54,934
446,85	57,100
447,06	59,170
447,28	62,497
447,49	64,660
447,70	67,691
447,91	69,778
448,12	71,547
448,33	73,338
448,54	74,791
448,76	74,837
448,97	75,855
449,18	75,826
449,39	75,646
449,60	74,705
449,81	72,713
450,02	72,436
450,23	71,042
450,45	72,539
450,66	70,563
450,87	69,920
451,08	69,120
451,29	69,276
451,50	69,447
451,71	69,777
451,92	69,336
452,13	69,156
452,35	68,457
452,56	68,105
452,77	67,566
452,98	67,271
453,19	68,250
453,40	65,948
453,61	65,168
453,82	64,976
454,03	66,632
454,25	66,690
454,46	66,492
454,67	68,173
454,88	67,260
455,09	69,547
455,30	68,884
455,51	69,894
455,72	71,923
455,93	70,790
456,14	72,198
456,35	70,955
456,56	71,221
456,78	71,957
456,99	71,131
457,20	68,813
457,41	70,045
457,62	67,209
457,83	66,717
458,04	66,390
458,25	63,952
458,46	63,369
458,67	62,201
458,88	61,932
459,09	59,225
459,30	58,268
459,51	54,958
459,73	52,813
459,94	50,782
460,15	48,326
460,36	45,656
460,57	43,824
460,78	41,031
460,99	38,853
461,20	36,502
461,41	33,431
461,62	30,615
461,83	28,900
462,04	26,101
462,25	24,018
462,46	21,437
462,67	18,841
462,88	17,021
463,09	14,802
463,30	13,001
463,51	11,357
463,72	9,918
463,93	8,327
464,15	7,201
464,36	6,044
464,57	5,019
464,78	4,439
464,99	3,692
465,20	3,112
465,41	2,804
465,62	2,213
465,83	1,860
466,04	1,704
466,25	1,275
466,46	1,238
466,67	1,002
466,88	0,770
467,09	0,680
467,30	0,559
467,51	0,508
467,72	0,432
467,93	0,494
468,14	0,425
468,35	0,595
468,56	0,391
468,77	0,269
468,98	0,573
469,19	0,430
469,40	0,364
469,61	0,234
469,82	0,353
470,03	0,402
470,24	0,228
470,45	0,534
470,66	0,641
470,87	0,369
471,08	0,421
471,29	0,418
471,50	0,451
471,71	0,383
471,92	0,187
472,13	0,475
472,34	0,410
472,55	0,477
472,76	0,664
472,97	0,603
473,18	0,384
473,39	0,450
473,60	0,284
473,81	0,483
474,01	0,523
474,22	0,364
474,43	0,485
474,64	0,518
474,85	0,324
475,06	0,406
475,27	0,509
475,48	0,405
475,69	0,502
475,90	0,416
476,11	0,491
476,32	0,320
476,53	0,535
476,74	0,094
476,95	0,432
477,16	0,372
477,37	0,526
477,58	0,342
477,79	0,473
478,00	0,217
478,21	0,635
478,41	0,437
478,62	0,301
478,83	0,366
479,04	0,433
479,25	0,326
479,46	0,234
479,67	0,345
479,88	0,167
480,09	0,358
480,30	0,516
480,51	0,679
480,72	0,482
480,93	0,319
481,14	0,303
481,34	0,376
481,55	0,424
481,76	0,535
481,97	0,332
482,18	0,386
482,39	0,409
482,60	0,400
482,81	0,177
483,02	0,500
483,23	0,362
483,44	0,519
483,65	0,365
483,85	0,270
484,06	0,668
484,27	0,411
484,48	0,268
484,69	0,281
484,90	0,359
485,11	0,581
485,32	0,281
485,53	0,288
485,73	0,535
485,94	0,367
486,15	0,306
486,36	0,422
486,57	0,444
486,78	0,395
486,99	0,337
487,20	0,301
487,41	0,391
487,61	0,365
487,82	0,295
488,03	0,344
488,24	0,409
488,45	0,580
488,66	0,391
488,87	0,499
489,08	0,502
489,28	0,319
489,49	0,524
489,70	0,310
489,91	0,453
490,12	0,396
490,33	0,208
490,54	0,395
490,74	0,466
490,95	0,323
491,16	0,303
491,37	0,387
491,58	0,251
491,79	0,252
492,00	0,032
492,20	0,438
492,41	0,215
492,62	0,287
492,83	0,401
493,04	0,462
493,25	0,450
493,45	0,271
493,66	0,460
493,87	0,279
494,08	0,224
494,29	0,186
494,50	0,082
494,70	0,394
494,91	0,355
495,12	0,279
495,33	0,422
495,54	0,339
495,75	0,382
495,95	0,346
496,16	0,342
496,37	0,257
496,58	0,201
496,79	0,210
496,99	0,256
497,20	0,351
497,41	0,365
497,62	0,380
497,83	0,520
498,04	0,211
498,24	0,293
498,45	0,249
498,66	0,421
498,87	0,407
499,08	0,451
499,28	0,211
499,49	0,426
499,70	0,457
499,91	0,384
500,12	0,327
500,32	0,504
500,53	0,377
500,74	0,473
500,95	0,250
501,15	0,343
501,36	0,417
501,57	0,383
501,78	0,442
501,99	0,460
502,19	0,316
502,40	0,359
502,61	0,292
502,82	0,394
503,02	0,242
503,23	0,234
503,44	0,363
503,65	0,467
503,86	0,297
504,06	0,374
504,27	0,475
504,48	0,252
504,69	0,457
504,89	0,246
505,10	0,278
505,31	0,471
505,52	0,349
505,72	0,451
505,93	0,457
506,14	0,314
506,35	0,425
506,55	0,309
506,76	0,220
506,97	0,375
507,18	0,395
507,38	0,304
507,59	0,334
507,80	0,249
508,01	0,357
508,21	0,308
508,42	0,270
508,63	0,394
508,84	0,589
509,04	0,331
509,25	0,603
509,46	0,293
509,67	0,513
509,87	0,357
510,08	0,334
510,29	0,386
510,49	0,385
510,70	0,418
510,91	0,448
511,12	0,497
511,32	0,674
511,53	0,488
511,74	0,375
511,94	0,371
512,15	0,630
512,36	0,411
512,57	0,692
512,77	0,728
512,98	0,863
513,19	0,945
513,39	0,985
513,60	1,023
513,81	1,471
514,01	1,740
514,22	1,837
514,43	2,172
514,64	2,629
514,84	3,166
515,05	3,586
515,26	4,052
515,46	4,979
515,67	5,765
515,88	7,006
516,08	7,793
516,29	8,782
516,50	10,143
516,70	11,653
516,91	12,831
517,12	14,532
517,32	15,999
517,53	17,433
517,74	19,156
517,95	21,149
518,15	22,546
518,36	24,597
518,57	26,525
518,77	28,054
518,98	29,732
519,19	31,036
519,39	32,807
519,60	33,646
519,80	35,060
520,01	36,226
520,22	38,096
520,42	38,547
520,63	40,203
520,84	40,867
521,04	41,413
521,25	42,232
521,46	42,830
521,66	43,567
521,87	44,299
522,08	44,397
522,28	44,922
522,49	44,527
522,70	45,767
522,90	45,817
523,11	45,360
523,31	46,125
523,52	45,708
523,73	46,779
523,93	46,664
524,14	46,642
524,35	47,086
524,55	47,352
524,76	47,739
524,97	47,831
525,17	48,287
525,38	47,768
525,58	47,836
525,79	47,887
526,00	47,994
526,20	47,876
526,41	48,184
526,61	48,426
526,82	48,084
527,03	47,724
527,23	47,734
527,44	47,865
527,64	47,112
527,85	46,737
528,06	46,676
528,26	46,386
528,47	45,812
528,68	45,406
528,88	44,496
529,09	44,090
529,29	43,856
529,50	42,377
529,70	41,357
529,91	40,988
530,12	39,342
530,32	38,109
530,53	38,359
530,73	36,201
530,94	35,276
531,15	33,252
531,35	32,422
531,56	31,483
531,76	30,038
531,97	28,693
532,17	27,120
532,38	26,048
532,59	24,951
532,79	23,795
533,00	21,923
533,20	20,654
533,41	19,424
533,61	17,700
533,82	16,525
534,03	15,583
534,23	14,463
534,44	13,568
534,64	12,170
534,85	11,187
535,05	9,908
535,26	8,403
535,46	7,526
535,67	6,432
535,88	5,386
536,08	5,059
536,29	4,167
536,49	3,534
536,70	3,071
536,90	2,625
537,11	2,196
537,31	1,767
537,52	1,315
537,72	1,310
537,93	0,872
538,13	0,775
538,34	0,803
538,55	0,715
538,75	0,437
538,96	0,480
539,16	0,441
539,37	0,475
539,57	0,593
539,78	0,447
539,98	0,344
540,19	0,606
540,39	0,352
540,60	0,163
540,80	0,301
541,01	0,534
541,21	0,476
541,42	0,352
541,62	0,463
541,83	0,298
542,03	0,300
542,24	0,493
542,44	0,367
542,65	0,291
542,85	0,358
543,06	0,396
543,26	0,368
543,47	0,368
543,67	0,302
543,88	0,258
544,08	0,294
544,29	0,347
544,49	0,417
544,70	0,157
544,90	0,354
545,11	0,384
545,31	0,159
545,52	0,339
545,72	0,226
545,93	0,336
546,13	0,250
546,34	0,329
546,54	0,260
546,75	0,381
546,95	0,450
547,15	0,237
547,36	0,281
547,56	0,348
547,77	0,297
547,97	0,225
548,18	0,180
548,38	0,238
548,59	0,246
548,79	0,389
549,00	0,187
549,20	0,313
549,41	0,306
549,61	0,364
549,81	0,261
550,02	0,254
550,22	0,251
550,43	0,279
550,63	0,203
550,84	0,370
551,04	0,199
551,25	0,456
551,45	0,529
551,65	0,335
551,86	0,382
552,06	0,489
552,27	0,305
552,47	0,239
552,68	0,327
552,88	0,303
553,08	0,312
553,29	0,377
553,49	0,309
553,70	0,464
553,90	0,401
554,11	0,296
554,31	0,176
554,51	0,524
554,72	0,229
554,92	0,319
555,13	0,276
555,33	0,266
555,53	0,205
555,74	0,405
555,94	0,231
556,15	0,293
556,35	0,219
556,56	0,279
556,76	0,234
556,96	0,257
557,17	0,474
557,37	0,447
557,58	0,107
557,78	0,207
557,98	0,270
558,19	0,204
558,39	0,293
558,59	0,293
558,80	0,227
559,00	0,369
559,21	0,352
559,41	0,197
559,61	0,368
559,82	0,238
560,02	0,271
560,23	0,330
560,43	0,248
560,63	0,333
560,84	0,329
561,04	0,370
561,24	0,302
561,45	0,452
561,65	0,072
561,85	0,153
562,06	0,339
562,26	0,213
562,47	0,388
562,67	0,454
562,87	0,114
563,08	0,357
563,28	0,336
563,48	0,342
563,69	0,436
563,89	0,290
564,09	0,320
564,30	0,201
564,50	0,197
564,70	0,201
564,91	0,202
565,11	0,281
565,31	0,474
565,52	0,137
565,72	0,509
565,92	0,347
566,13	0,225
566,33	0,392
566,53	0,287
566,74	0,202
566,94	0,212
567,14	0,261
567,35	0,372
567,55	0,248
567,75	0,563
567,96	0,363
568,16	0,440
568,36	0,201
568,57	0,369
568,77	0,228
568,97	0,381
569,18	0,409
569,38	0,234
569,58	0,311
569,79	0,302
569,99	0,300
570,19	0,310
570,39	0,375
570,60	0,269
570,80	0,251
571,00	0,290
571,21	0,235
571,41	0,264
571,61	0,363
571,82	0,443
572,02	0,196
572,22	0,122
572,42	0,322
572,63	0,283
572,83	0,262
573,03	0,351
573,24	0,356
573,44	0,221
573,64	0,501
573,84	0,067
574,05	0,195
574,25	0,326
574,45	0,357
574,66	0,440
574,86	0,326
575,06	0,352
575,26	0,288
575,47	0,395
575,67	0,259
575,87	0,466
576,07	0,269
576,28	0,372
576,48	0,289
576,68	0,395
576,88	0,463
577,09	0,309
577,29	0,562
577,49	0,316
577,69	0,085
577,90	0,321
578,10	0,218
578,30	0,438
578,50	0,289
578,71	0,413
578,91	0,477
579,11	0,511
579,31	0,638
579,52	0,564
579,72	0,659
579,92	0,778
580,12	0,806
580,33	0,946
580,53	0,854
580,73	1,155
580,93	1,400
581,13	1,742
581,34	1,852
581,54	2,318
581,74	2,692
581,94	3,163
582,15	3,589
582,35	4,082
582,55	5,001
582,75	5,721
582,95	6,867
583,16	7,721
583,36	8,930
583,56	9,926
583,76	11,264
583,96	12,802
584,17	14,335
584,37	15,998
584,57	17,543
584,77	19,233
584,97	21,038
585,18	22,581
585,38	23,774
585,58	25,682
585,78	26,924
585,98	28,028
586,19	28,797
586,39	30,227
586,59	31,974
586,79	32,586
586,99	33,621
587,20	34,542
587,40	35,539
587,60	36,220
587,80	37,335
588,00	38,781
588,20	40,030
588,41	41,533
588,61	42,559
588,81	43,994
589,01	45,727
589,21	46,715
589,41	47,889
589,62	50,360
589,82	51,387
590,02	53,017
590,22	54,093
590,42	56,505
590,62	57,551
590,83	59,081
591,03	60,410
591,23	61,488
591,43	63,838
591,63	65,221
591,83	67,078
592,03	67,169
592,24	67,547
592,44	69,127
592,64	69,537
592,84	70,755
593,04	70,170
593,24	71,247
593,44	71,130
593,65	69,779
593,85	70,006
594,05	69,081
594,25	68,756
594,45	67,732
594,65	66,931
594,85	65,512
595,06	66,031
595,26	64,291
595,46	63,251
595,66	61,396
595,86	60,678
596,06	59,735
596,26	58,863
596,46	57,835
596,66	56,717
596,87	55,481
597,07	54,747
597,27	54,283
597,47	53,617
597,67	52,304
597,87	51,680
598,07	51,202
598,27	50,539
598,47	50,373
598,67	50,352
598,88	50,348
599,08	49,365
599,28	48,982
599,48	49,018
599,68	49,368
599,88	48,726
600,08	48,388
600,28	47,835
600,48	47,891
600,68	47,255
600,88	47,489
601,09	47,088
601,29	46,612
601,49	46,427
601,69	46,497
601,89	45,840
602,09	45,248
602,29	44,220
602,49	44,607
602,69	43,926
602,89	43,664
603,09	42,959
603,29	42,818
603,49	42,737
603,69	41,419
603,90	40,748
604,10	40,505
604,30	39,644
604,50	38,629
604,70	38,738
604,90	37,653
605,10	36,496
605,30	35,731
605,50	34,560
605,70	33,479
605,90	32,122
606,10	30,583
606,30	29,788
606,50	27,535
606,70	25,748
606,90	24,392
607,10	22,759
607,30	20,927
607,50	19,753
607,70	17,791
607,90	15,858
608,10	14,559
608,30	12,837
608,50	11,665
608,70	10,320
608,90	9,018
609,11	7,655
609,31	6,663
609,51	5,912
609,71	4,642
609,91	3,990
610,11	3,745
610,31	3,101
610,51	2,670
610,71	2,140
610,91	1,756
611,11	1,550
611,31	1,272
611,51	0,935
611,71	0,990
611,91	1,010
612,11	0,703
612,31	0,905
612,51	0,676
612,71	0,466
612,91	0,423
613,11	0,473
613,31	0,490
613,51	0,362
613,71	0,338
613,91	0,532
614,11	0,383
614,31	0,197
614,50	0,646
614,70	0,374
614,90	0,339
615,10	0,335
615,30	0,378
615,50	0,226
615,70	0,472
615,90	0,368
616,10	0,411
616,30	0,425
616,50	0,314
616,70	0,220
616,90	0,284
617,10	0,434
617,30	0,235
617,50	0,289
617,70	0,272
617,90	0,309
618,10	0,150
618,30	0,079
618,50	0,246
618,70	0,276
618,90	0,107
619,10	0,203
619,30	-0,036
619,49	0,316
619,69	0,237
619,89	0,395
620,09	0,151
620,29	0,352
620,49	0,301
620,69	0,221
620,89	0,139
621,09	0,230
621,29	0,264
621,49	0,243
621,69	0,148
621,89	0,301
622,09	0,328
622,29	0,210
622,48	0,462
622,68	0,199
622,88	0,479
623,08	0,178
623,28	0,221
623,48	0,226
623,68	0,164
623,88	0,174
624,08	0,246
624,28	0,298
624,48	0,459
624,67	0,333
624,87	0,329
625,07	0,299
625,27	0,292
625,47	0,316
625,67	0,307
625,87	0,237
626,07	0,156
626,27	0,209
626,47	0,340
626,66	0,225
626,86	0,193
627,06	0,322
627,26	0,221
627,46	-0,045
627,66	0,064
627,86	0,258
628,06	0,285
628,25	0,333
628,45	0,290
628,65	0,288
628,85	0,298
629,05	0,295
629,25	0,201
629,45	0,360
629,65	0,212
629,84	0,169
630,04	0,247
630,24	0,230
630,44	0,185
630,64	0,269
630,84	0,256
631,04	0,396
631,23	0,131
631,43	0,196
631,63	0,222
631,83	0,145
632,03	0,223
632,23	0,225
632,42	0,310
632,62	0,278
632,82	0,154
633,02	0,362
633,22	0,195
633,42	0,193
633,62	-0,026
633,81	0,167
634,01	0,344
634,21	0,416
634,41	0,432
634,61	0,137
634,80	0,432
635,00	0,451
635,20	0,423
635,40	0,154
635,60	0,176
635,80	0,310
635,99	0,453
636,19	0,362
636,39	0,237
636,59	0,247
636,79	0,185
636,98	0,251
637,18	0,127
637,38	0,446
637,58	0,221
637,78	0,454
637,97	0,237
638,17	0,266
638,37	0,288
638,57	0,404
638,77	0,346
638,96	0,332
639,16	0,381
639,36	0,224
639,56	0,535
639,76	0,230
639,95	0,426
640,15	0,209
640,35	0,000
640,55	0,278
640,75	0,250
640,94	0,406
641,14	0,536
641,34	0,315
641,54	0,227
641,73	0,031
641,93	0,456
642,13	0,477
642,33	0,365
642,53	0,616
642,72	0,383
642,92	0,410
643,12	0,193
643,32	0,468
643,51	0,487
643,71	0,261
643,91	0,291
644,11	0,356
644,30	0,192
644,50	0,579
644,70	0,307
644,90	0,513
645,09	0,553
645,29	0,510
645,49	0,549
645,69	0,251
645,88	0,454
646,08	0,564
646,28	0,475
646,48	0,170
646,67	0,269
646,87	0,406
647,07	0,477
647,26	0,775
647,46	0,385
647,66	0,182
647,86	0,605
648,05	0,523
648,25	0,809
648,45	0,309
648,65	0,321
648,84	0,176
649,04	0,555
649,24	0,470
649,43	0,315
649,63	0,451
649,83	0,243
650,03	0,887
650,22	0,573
650,42	0,571
650,62	0,744
650,81	0,636
651,01	0,567
651,21	0,691
651,40	0,541
651,60	0,243
651,80	0,531
652,00	0,244
652,19	0,246
652,39	0,504
652,59	0,568
652,78	0,287
652,98	-0,397
653,18	0,159
653,37	0,669
653,57	0,800
653,77	0,518
653,96	0,551
654,16	1,025
654,36	0,161
654,55	0,126
654,75	0,354
654,95	0,383
655,14	0,276
655,34	0,718
655,54	0,723
655,73	0,252
655,93	0,523
656,13	0,261
656,32	0,361
656,52	0,574
656,72	0,669
656,91	0,679
657,11	0,586
657,31	0,139
657,50	0,647
657,70	0,616
657,90	0,469
658,09	0,877
658,29	0,562
658,49	0,244
658,68	0,435
658,88	0,506
659,07	0,680
659,27	0,122
659,47	0,731
659,66	0,433
659,86	-0,114
660,06	0,173
660,25	0,248
660,45	0,556
660,64	0,404
660,84	0,636
661,04	0,385
661,23	0,593
661,43	0,343
661,63	0,258
661,82	0,104
662,02	0,730
662,21	0,837
662,41	0,595
662,61	1,153
662,80	0,588
663,00	0,061
663,19	0,847
663,39	0,363
663,59	0,775
663,78	0,756
663,98	0,573
664,17	0,716
664,37	0,706
664,57	0,703
664,76	0,365
664,96	0,290
665,15	0,323
665,35	0,263
665,55	0,179
665,74	0,439
665,94	0,515
666,13	0,565
666,33	0,633
666,53	0,844
666,72	0,480
666,92	0,561
667,11	0,574
667,31	0,231
667,50	0,381
667,70	0,789
667,90	0,319
668,09	0,426
668,29	0,720
668,48	0,601
668,68	0,431
668,87	0,741
669,07	0,040
669,26	0,633
669,46	0,344
669,66	0,681
669,85	0,686
670,05	0,671
670,24	0,568
670,44	0,150
670,63	0,444
670,83	0,234
671,02	0,517
671,22	0,550
671,42	0,371
671,61	0,338
671,81	0,439
672,00	0,673
672,20	0,296
672,39	0,255
672,59	0,263
672,78	0,211
672,98	0,271
673,17	0,393
673,37	0,442
673,56	0,334
673,76	0,226
673,95	0,430
674,15	0,542
674,34	0,314
674,54	0,456
674,73	0,484
674,93	0,440
675,13	0,474
675,32	0,561
675,52	0,511
675,71	0,405
675,91	0,436
676,10	0,412
676,30	0,302
676,49	0,000
676,69	0,308
676,88	0,540
677,08	0,262
677,27	0,313
677,47	0,384
677,66	0,381
677,86	0,371
678,05	0,217
678,24	0,394
678,44	0,420
678,63	0,162
678,83	0,285
679,02	0,387
679,22	0,272
679,41	0,416
679,61	0,261
679,80	0,314
680,00	0,065
680,19	0,568
680,39	0,331
680,58	0,261
680,78	0,253
680,97	0,393
681,17	0,470
681,36	0,192
681,56	0,225
681,75	0,123
681,94	0,292
682,14	0,427
682,33	0,379
682,53	0,254
682,72	0,425
682,92	0,507
683,11	0,100
683,31	0,351
683,50	0,345
683,69	0,407
683,89	0,293
684,08	0,294
684,28	0,087
684,47	0,371
684,67	0,203
684,86	0,153
685,06	0,252
685,25	0,294
685,44	0,460
685,64	0,559
685,83	0,271
686,03	0,145
686,22	0,362
686,42	0,305
686,61	0,182
686,80	0,032
687,00	0,126
687,19	0,342
687,39	0,182
687,58	0,150
687,77	0,287
687,97	0,374
688,16	0,222
688,36	0,256
688,55	0,104
688,74	0,068
688,94	0,201
689,13	0,084
689,33	0,062
689,52	0,268
689,71	0,269
689,91	0,291
690,10	0,289
690,30	-0,036
690,49	0,215
690,68	0,325
690,88	0,044
691,07	0,218
691,27	0,227
691,46	0,249
691,65	0,198
691,85	0,173
692,04	0,028
692,23	0,028
692,43	0,289
692,62	0,259
692,82	0,244
693,01	0,394
693,20	0,056
693,40	0,172
693,59	0,191
693,78	0,222
693,98	0,086
694,17	0,062
694,36	0,456
694,56	0,055
694,75	0,132
694,94	0,290
695,14	0,122
695,33	0,369
695,53	0,284
695,72	0,425
695,91	-0,065
696,11	0,061
696,30	0,394
696,49	0,323
696,69	0,259
696,88	0,198
697,07	-0,005
697,27	0,144
697,46	0,478
697,65	0,182
697,85	0,047
698,04	0,277
698,23	0,268
698,43	0,231
698,62	0,019
698,81	0,362
699,01	0,574
699,20	0,379
699,39	0,332
699,58	0,128
699,78	0,253
699,97	0,487
700,16	0,129
700,36	0,259
700,55	0,501
700,74	0,622
700,94	0,305
701,13	0,455
701,32	0,350
701,52	0,349
701,71	0,553
701,90	0,619
702,09	0,770
702,29	0,919
702,48	0,592
702,67	0,690
702,87	1,059
703,06	0,601
703,25	0,402
703,44	0,564
703,64	0,746
703,83	0,774
704,02	0,850
704,22	1,284
704,41	0,046
704,60	0,654
704,79	0,513
704,99	1,158
705,18	1,609
705,37	1,034
705,56	0,760
705,76	1,337
705,95	1,889
706,14	0,774
706,33	0,750
706,53	1,075
706,72	0,607
706,91	1,387
707,11	1,483
707,30	0,539
707,49	1,346
707,68	1,864
707,88	1,650
708,07	-0,098
708,26	1,044
708,45	1,142
708,64	0,987
708,84	1,968
709,03	2,541
709,22	1,532
709,41	2,628
709,61	1,247
709,80	2,581
709,99	1,653
710,18	2,467
710,38	0,220
710,57	0,826
710,76	0,393
710,95	1,927
711,14	2,516
711,34	2,374
711,53	2,170
711,72	3,141
711,91	2,103
712,11	3,213
712,30	1,270
712,49	1,608
712,68	0,356
712,87	1,224
713,07	3,252
713,26	2,416
713,45	0,874
713,64	3,754
713,83	2,287
714,03	1,925
714,22	2,715
714,41	1,350
714,60	3,227
714,79	-0,480
714,99	1,232
715,18	3,856
715,37	5,303
715,56	3,944
715,75	2,401
715,94	3,839
716,14	6,771
716,33	2,758
716,52	3,564
716,71	4,091
716,90	1,998
717,10	4,232
717,29	3,602
717,48	4,283
717,67	4,512
717,86	2,768
718,05	3,162
718,24	1,308
718,44	4,361
718,63	3,102
718,82	2,436
719,01	2,366
719,20	5,841
719,39	3,137
719,59	0,260
719,78	2,939
719,97	3,280
720,16	6,519
720,35	2,891
720,54	2,586
720,73	7,986
720,93	2,169
721,12	-0,718
721,31	2,843
721,50	8,509
721,69	4,833
721,88	5,991
722,07	2,026
722,27	6,479
722,46	4,423
722,65	2,939
722,84	3,387
723,03	4,934
723,22	5,077
723,41	4,734
723,60	1,390
723,79	9,158
723,99	8,047
724,18	4,987
724,37	0,545
724,56	4,429
724,75	5,739
724,94	10,135
725,13	0,086
725,32	5,941
725,51	4,837
725,71	7,098
725,90	7,278
726,09	4,566
726,28	2,955
726,47	2,761
726,66	5,144
726,85	9,668
727,04	5,097
727,23	7,450
727,42	7,106
727,61	4,938
727,81	0,757
728,00	4,366
728,19	2,709
728,38	0,218
728,57	10,729
728,76	9,871
728,95	10,208
729,14	5,519
729,33	11,398
729,52	8,436
729,71	5,748
729,90	6,484
730,09	4,098
730,28	6,922
730,48	7,449
730,67	11,161
730,86	9,338
731,05	1,984
731,24	4,268
731,43	6,156
731,62	6,987
731,81	5,789
732,00	11,737
732,19	4,447
732,38	4,487
732,57	5,012
732,76	1,094
732,95	3,475
733,14	-3,300
733,33	7,275
733,52	8,427
733,71	6,600
733,90	4,802
734,09	9,865
734,28	7,874
734,47	3,472
734,66	4,545
734,85	4,571
735,04	11,270
735,23	11,064
735,42	8,060
735,61	8,309
735,81	12,278
736,00	4,416
736,19	2,584
736,38	9,731
736,57	10,700
736,76	11,825
736,95	12,580
737,14	9,569
737,33	8,911
737,52	6,462
737,71	7,541
737,90	10,819
738,09	10,959
738,28	12,706
738,47	4,927
738,66	3,045
738,85	7,357
739,04	6,003
739,22	6,522
739,41	6,618
739,60	4,437
739,79	0,899
739,98	16,667
740,17	10,239
740,36	12,297
740,55	13,854
740,74	18,182
740,93	7,648
741,12	9,286
741,31	2,641
741,50	6,616
741,69	8,142
741,88	3,162
742,07	12,862
742,26	14,857
742,45	14,139
742,64	7,495
742,83	13,982
743,02	7,579
743,21	19,134
743,40	2,899
743,59	4,412
743,78	6,262
743,97	7,885
744,16	9,646
744,34	8,392
744,53	10,928
744,72	16,075
744,91	10,924
745,10	18,868
745,29	13,911
745,48	16,591
745,67	16,173
745,86	17,219
746,05	3,318
746,24	7,423
746,43	13,276
746,62	14,871
746,81	12,135
747,00	15,317
747,18	17,429
747,37	20,842
747,56	14,588
747,75	0,246
747,94	15,777
748,13	20,358
748,32	20,476
748,51	17,513
748,70	16,740
748,89	9,368
749,08	-0,872
749,26	15,639
749,45	10,992
749,64	6,045
749,83	19,101
750,02	24,728
750,21	8,142
750,40	21,457
750,59	10,724
750,78	26,683
750,96	9,392
751,15	12,383
751,34	8,523
751,53	16,667
751,72	16,901
751,91	14,767
752,10	2,094
752,29	10,133
752,47	10,602
752,66	26,032
752,85	22,951
753,04	10,615
753,23	8,669
753,42	25,067
753,61	15,987
753,80	14,777
753,98	23,990
754,17	8,511
754,36	10,000
754,55	18,373
754,74	28,571
754,93	24,793
755,12	20,178
755,30	19,805
755,49	14,244
755,68	19,939
755,87	13,905
756,06	17,708
756,25	8,511
756,43	-1,678
756,62	13,975
756,81	18,874
757,00	16,118
757,19	-1,736
757,38	12,355
757,56	5,200
757,75	27,645
757,94	9,125
758,13	15,411
758,32	13,650
758,51	5,387
758,69	11,969
758,88	11,111
759,07	23,353
759,26	20,848
759,45	14,737
759,63	-0,433
759,82	18,246
760,01	30,769
760,20	36,478
760,39	34,700
760,57	19,861
760,76	34,495
760,95	22,917
761,14	25,547
761,33	14,516
761,51	28,929
761,70	38,662
761,89	25,333
762,08	44,238
762,27	12,996
762,45	16,667
762,64	22,111
762,83	31,076
763,02	27,826
763,21	-5,500
763,39	23,427
763,58	20,074
763,77	21,941
763,96	15,538
764,14	18,333
764,33	29,048
764,52	28,571
764,71	28,197
764,89	25,000
765,08	10,837
765,27	18,298
765,46	26,009
765,65	45,882
765,83	38,914
766,02	11,905
766,21	4,918
766,40	25,681
766,58	25,926
766,77	36,239
766,96	29,268
767,15	18,067
767,33	20,290
767,52	19,651
767,71	26,316
767,90	11,055
768,08	17,964
768,27	21,545
768,46	48,684
768,64	8,796
768,83	26,961
769,02	4,433
769,21	17,188
769,39	27,857
769,58	30,303
769,77	53,723
769,96	16,216
770,14	31,694
770,33	37,850
770,52	41,007
770,70	36,216
770,89	53,514
771,08	26,506
771,27	33,158
771,45	10,588
771,64	26,061
771,83	32,843
772,01	22,165
772,20	39,801
772,39	32,911
772,57	31,343
772,76	32,432
772,95	28,161
773,14	31,293
773,32	46,328
773,51	42,857
773,70	27,338
773,88	40,000
774,07	52,792
774,26	2,419
774,44	26,316
774,63	36,527
774,82	20,779
775,00	31,776
775,19	32,738
775,38	36,702
775,56	50,932
775,75	41,209
775,94	17,500
776,12	34,641
776,31	67,669
776,50	45,890
776,68	34,409
776,87	56,459
777,06	47,799
777,24	64,706
777,43	66,310
777,62	47,191
777,80	59,748
777,99	42,500
778,18	28,736
778,36	59,322
778,55	3,390
778,74	49,219
778,92	40,123
779,11	50,909
779,29	9,929
779,48	43,972
779,67	61,261
779,85	14,912
780,04	52,899
780,23	34,524
780,41	62,712
780,60	56,376
780,79	33,871
780,97	31,373
781,16	32,979
781,34	60,811
781,53	55,357
781,72	27,928
781,90	22,156
782,09	25,581
782,28	63,946
782,46	85,000
782,65	54,225
782,83	53,459
783,02	62,281
783,21	51,128
783,39	75,630
783,58	56,522
783,76	59,864
783,95	89,437
784,14	63,158
784,32	45,882
784,51	54,054
784,69	14,062
784,88	35,514
785,06	53,642
785,25	65,957
785,44	43,548
785,62	47,143
785,81	32,407
785,99	58,647
786,18	45,045
786,37	74,725
786,55	45,139
786,74	43,636
786,92	23,776
787,11	52,083
787,29	49,107
787,48	46,237
787,67	45,283
787,85	96,203
788,04	69,369
788,22	68,317
788,41	38,583
788,59	59,211
788,78	57,143
788,96	71,074
789,15	40,833
789,34	54,808
789,52	137,097
789,71	51,799
789,89	93,506
790,08	33,750
790,26	63,057
790,45	83,333
790,63	47,126
790,82	86,154
791,00	64,602
791,19	71,200
791,38	53,333
791,56	67,273
791,75	47,222
791,93	42,000
792,12	37,391
792,30	29,197
792,49	41,414
792,67	45,588
792,86	61,600
793,04	64,815
793,23	47,368
793,41	51,449
793,60	63,889
793,78	47,619
793,97	57,639
794,15	102,256
794,34	1,333
794,52	37,634
794,71	58,915
794,89	46,970
795,08	62,400
795,26	66,667
795,45	65,278
795,63	54,032
795,82	87,912
796,00	119,000
796,19	56,098
796,37	67,176
796,56	23,301
796,74	58,947
796,93	92,424
797,11	65,060
797,30	53,333
797,48	58,594
797,67	28,455
797,85	73,846
798,04	46,610
798,22	103,846
798,41	39,423
798,59	65,714
798,77	55,422
798,96	67,284
799,14	68,548
799,33	68,807
799,51	51,389
799,70	83,846
799,88	85,321
800,07	64,122
800,25	40,964
800,44	61,111
800,62	72,222
800,80	39,437
800,99	117,808
801,17	68,103
801,36	67,857
801,54	51,000
801,73	41,053
801,91	86,777
802,10	70,588
802,28	27,200
802,46	43,421
802,65	33,094
802,83	54,667
803,02	42,742
803,20	62,651
803,39	83,908
803,57	37,008
803,75	39,024
803,94	56,349
804,12	41,379
804,31	24,638
804,49	56,000
804,67	20,588
804,86	23,009
805,04	22,892
805,23	70,796
805,41	43,333
805,59	75,342
805,78	83,200
805,96	79,518
806,15	56,436
806,33	77,632
806,51	28,000
806,70	29,323
806,88	74,419
807,07	59,459
807,25	59,341
807,43	95,536
807,62	53,097
807,80	62,857
807,99	61,538
808,17	29,134
808,35	55,000
808,54	70,290
808,72	80,180
808,90	59,589
809,09	81,522
809,27	44,000
809,46	65,934
809,64	59,756
809,82	48,344
810,01	54,688
810,19	33,333
810,37	52,344
810,56	76,667
810,74	93,506
810,92	52,667
811,11	52,632
811,29	80,189
811,48	23,077
811,66	60,674
811,84	62,637
812,03	52,459
812,21	37,719
812,39	70,435
812,58	57,895
812,76	64,748
812,94	20,482
813,13	50,000
813,31	42,000
813,49	51,852
813,68	29,091
813,86	29,213
814,04	54,545
814,23	48,193
814,41	64,045
814,59	50,485
814,78	77,941
814,96	37,736
815,14	44,860
815,33	49,612
815,51	66,929
815,69	63,810
815,87	54,455
816,06	59,130
816,24	56,522
816,42	48,529
816,61	60,377
816,79	89,655
816,97	60,227
817,16	47,337
817,34	91,270
817,52	61,157
817,70	76,238
817,89	80,741
818,07	43,151
818,25	46,939
818,44	73,077
818,62	31,008
818,80	44,361
818,98	45,223
819,17	47,059
819,35	43,085
819,53	51,493
819,72	83,544
819,90	68,992
820,08	32,479
820,26	62,069
820,45	53,020
820,63	72,321
820,81	80,000
820,99	60,284
821,18	38,095
821,36	52,532
821,54	76,552
821,73	60,000
821,91	45,614
822,09	18,548
822,27	62,581
822,46	47,794
822,64	50,400
822,82	43,094
823,00	14,365
823,19	47,253
823,37	35,758
823,55	12,500
823,73	50,345
823,91	44,928
824,10	41,935
824,28	46,734
824,46	14,563
824,64	39,474
824,83	39,752
825,01	54,667
825,19	74,194
825,37	41,739
825,56	37,736
825,74	35,714
825,92	33,121
826,10	72,727
826,28	55,357
826,47	20,000
826,65	70,922
826,83	44,828
827,01	46,821
827,19	53,571
827,38	51,852
827,56	47,159
827,74	36,872
827,92	34,884
828,10	39,103
828,29	62,722
828,47	41,463
828,65	20,769
828,83	13,333
829,01	48,913
829,20	53,846
829,38	47,727
829,56	54,348
829,74	52,830
829,92	36,111
830,10	36,782
830,29	33,166
830,47	49,246
830,65	35,976
830,83	35,714
831,01	48,214
831,20	41,262
831,38	33,971
831,56	44,651
831,74	32,227
831,92	59,211
832,10	34,762
832,29	25,000
832,47	-1,124
832,65	19,608
832,83	26,761
833,01	42,000
833,19	30,317
833,37	24,887
833,56	22,785
833,74	32,353
833,92	31,481
834,10	33,195
834,28	26,582
834,46	38,009
834,64	38,426
834,83	28,182
835,01	58,921
835,19	34,000
835,37	42,149
835,55	10,417
835,73	21,675
835,91	38,376
836,09	30,418
836,28	36,900
836,46	13,200
836,64	41,353
836,82	26,697
837,00	43,841
837,18	29,740
837,36	29,084
837,54	24,545
837,72	17,241
837,91	44,030
838,09	18,725
838,27	35,667
838,45	26,950
838,63	20,956
838,81	16,034
838,99	27,419
839,17	33,446
839,35	25,532
839,53	30,175
839,72	24,060
839,90	21,649
840,08	35,385
840,26	25,397
840,44	37,764
840,62	14,828
840,80	34,354
840,98	37,647
841,16	30,418
841,34	9,030
841,52	28,746
841,70	22,462
841,89	37,097
842,07	19,122
842,25	32,759
842,43	21,552
842,61	34,737
842,79	20,056
842,97	31,270
843,15	23,762
843,33	23,028
843,51	16,265
843,69	26,781
843,87	17,537
844,05	17,325
844,23	23,423
844,41	16,928
844,59	22,190
844,77	21,569
844,95	27,168
845,13	34,769
845,31	14,826
845,50	13,874
845,68	19,293
845,86	12,069
846,04	37,989
846,22	14,169
846,40	17,473
846,58	24,217
846,76	21,774
846,94	17,207
847,12	17,098
847,30	24,227
847,48	15,170
847,66	18,227
847,84	10,109
848,02	16,425
848,20	20,413
848,38	23,932
848,56	20,739
848,74	25,537
848,92	6,484
849,10	14,250
849,28	17,409
849,46	17,600
849,64	19,630
849,82	4,938
850,00	20,093
850,18	14,681
850,36	16,556
850,54	17,794
850,72	16,195
850,90	29,348
851,08	16,630
851,26	10,941
851,44	15,265
851,62	18,140
851,80	15,419
851,98	23,956
852,16	12,057
852,34	12,165
852,52	15,625
852,70	3,417
852,87	10,731
853,05	5,653
853,23	12,165
853,41	12,472
853,59	7,054
853,77	14,881
853,95	17,722
854,13	9,292
854,31	19,302
854,49	11,178
854,67	12,527
854,85	7,660
855,03	23,046
855,21	16,421
855,39	13,078
855,57	10,753
855,75	23,540
855,93	13,725
856,11	26,886
856,28	10,517
856,46	16,726
856,64	17,714
856,82	11,684
857,00	12,982
857,18	12,816
857,36	10,624
857,54	15,917
857,72	7,368
857,90	4,982
858,08	16,863
858,26	3,313
858,44	10,331
858,61	11,847
858,79	16,955
858,97	8,850
859,15	17,337
859,33	16,719
859,51	6,365
859,69	12,701
859,87	15,486
860,05	5,506
860,23	11,364
860,40	12,811
860,58	8,197
860,76	11,270
860,94	8,130
861,12	13,385
861,30	4,710
861,48	10,714
861,66	13,016
861,84	1,943
862,01	14,728
862,19	9,322
862,37	5,295
862,55	10,807
862,73	8,050
862,91	8,664
863,09	9,077
863,27	7,759
863,44	10,578
863,62	11,141
863,80	15,190
863,98	9,496
864,16	4,335
864,34	10,891
864,52	10,590
864,69	9,503
864,87	4,052
865,05	9,796
865,23	16,732
865,41	10,081
865,59	6,326
865,76	9,444
865,94	13,178
866,12	12,387
866,30	4,488
866,48	13,219
866,66	2,957
866,83	13,740
867,01	8,568
867,19	10,793
867,37	2,329
867,55	4,659
867,73	14,303
867,90	11,018
868,08	11,004
868,26	7,843
868,44	10,082
868,62	10,934
868,79	4,926
868,97	8,942
869,15	4,640
869,33	7,937
869,51	5,459
869,69	7,195
869,86	10,292
870,04	12,874
870,22	12,118
870,40	12,164
870,57	8,304
870,75	10,497
870,93	9,263
871,11	10,714
871,29	7,763
871,46	0,883
871,64	7,531
871,82	5,490
872,00	14,506
872,18	3,481
872,35	10,510
872,53	3,289
872,71	9,388
872,89	10,828
873,06	4,258
873,24	10,960
873,42	7,540
873,60	6,955
873,77	4,192
873,95	6,618
874,13	5,285
874,31	9,185
874,49	8,519
874,66	2,632
874,84	6,018
875,02	7,608
875,20	9,064
875,37	7,226
875,55	5,248
875,73	3,059
875,91	5,762
876,08	6,307
876,26	0,177
876,44	6,777
876,61	7,816
876,79	8,224
876,97	3,467
877,15	9,427
877,32	4,433
877,50	5,795
877,68	4,113
877,86	2,974
878,03	9,843
878,21	5,622
878,39	6,014
878,56	3,636
878,74	4,664
878,92	2,663
879,10	7,456
879,27	9,329
879,45	7,032
879,63	3,494
879,80	5,913
879,98	2,634
880,16	5,895
880,34	8,032
880,51	4,022
880,69	1,116
880,87	2,904
881,04	4,414
881,22	6,840
881,40	5,038
881,57	7,233
881,75	5,332
881,93	4,374
882,10	2,530
882,28	6,138
882,46	3,767
882,63	6,428
882,81	8,960
882,99	4,042
883,16	5,650
883,34	1,872
883,52	3,219
883,69	4,164
883,87	3,711
884,05	3,167
884,22	4,371
884,40	6,520
884,58	0,838
884,75	4,447
884,93	4,562
885,11	6,549
885,28	2,745
885,46	0,800
885,64	5,276
885,81	3,121
885,99	2,292
886,17	3,609
886,34	4,404
886,52	2,214
886,70	5,285
886,87	4,459
887,05	3,648
887,22	3,431
887,40	3,681
887,58	4,115
887,75	3,591
887,93	3,300
888,11	3,645
888,28	1,964
888,46	3,639
888,63	2,509
888,81	3,231
888,99	3,384
889,16	5,474
889,34	3,082
889,51	1,051
889,69	0,000
889,87	5,567
890,04	3,251
890,22	3,949
890,39	2,531
890,57	5,237
890,75	3,600
890,92	2,770
891,10	2,767
891,27	3,215
891,45	3,256
891,63	4,384
891,80	5,145
891,98	1,471
892,15	2,428
892,33	4,384
892,51	3,194
892,68	5,435
892,86	2,006
893,03	3,478
893,21	5,392
893,38	1,497
893,56	4,369
893,74	1,665
893,91	3,645
894,09	5,447
894,26	4,275
894,44	3,244
894,61	2,552
894,79	1,614
894,96	1,792
895,14	1,992
895,32	2,912
895,49	2,301
895,67	2,998
895,84	1,143
896,02	1,418
896,19	1,731
896,37	2,578
896,54	2,227
896,72	1,989
896,89	2,709
897,07	4,544
897,25	2,567
897,42	2,783
897,60	4,325
897,77	3,057
897,95	3,107
898,12	3,357
898,30	2,050
898,47	1,747
898,65	1,919
898,82	3,574
899,00	2,713
899,17	2,679
899,35	1,182
899,52	5,362
899,70	3,815
899,87	1,680
900,05	3,158
900,22	3,505
900,40	1,172
900,57	1,670
900,75	2,167
900,92	1,261
901,10	2,754
901,27	0,444
901,45	4,677
901,62	2,623
901,80	1,642
901,97	2,698
902,15	3,517
902,32	3,701
902,50	1,722
902,67	4,374
902,85	1,319
903,02	3,453
903,20	3,282
903,37	2,100
903,54	2,838
903,72	3,797
903,89	2,914
904,07	2,246
904,24	2,070
904,42	1,866
904,59	0,500
904,77	2,370
904,94	1,404
905,12	2,303
905,29	2,072
905,47	2,370
905,64	2,860
905,81	1,287
905,99	1,330
906,16	2,220
906,34	1,883
906,51	3,005
906,69	2,519
906,86	2,077
907,03	1,985
907,21	2,390
907,38	2,246
907,56	2,530
907,73	3,143
907,91	2,223
908,08	2,474
908,25	3,583
908,43	1,644
908,60	1,003
908,78	1,180
908,95	2,971
909,13	3,414
909,30	2,914
909,47	2,871
909,65	2,361
909,82	2,190
910,00	1,487
910,17	1,662
910,34	1,755
910,52	1,682
910,69	1,735
910,87	2,694
911,04	1,333
911,21	3,240
911,39	0,517
911,56	2,460
911,73	2,374
911,91	2,173
912,08	3,454
912,26	0,513
912,43	2,279
912,60	1,822
912,78	2,176
912,95	2,759
913,13	0,924
913,30	3,114
913,47	2,867
913,65	2,024
913,82	2,535
913,99	1,891
914,17	2,013
914,34	0,431
914,51	2,601
914,69	1,234
914,86	2,853
915,03	1,526
915,21	2,440
915,38	2,139
915,56	2,306
915,73	1,592
915,90	2,340
916,08	2,914
916,25	2,036
916,42	1,352
916,60	1,334
916,77	1,655
916,94	2,447
917,12	1,858
917,29	2,481
917,46	1,373
917,64	1,168
917,81	1,369
917,98	1,747
918,16	1,418
918,33	3,098
918,50	2,368
918,67	1,511
918,85	2,174
919,02	1,839
919,19	1,538
919,37	1,231
919,54	2,632
919,71	2,856
919,89	0,964
920,06	2,715
920,23	2,686
920,41	2,219
920,58	1,612
920,75	1,818
920,92	1,395
921,10	1,206
921,27	1,375
921,44	2,560
921,62	2,156
921,79	1,142
921,96	1,668
922,13	1,877
922,31	0,827
922,48	0,835
922,65	0,584
922,82	0,740
923,00	2,004
923,17	1,418
923,34	1,880
923,52	1,170
923,69	1,242
923,86	3,078
924,03	2,029
924,21	2,079
924,38	1,731
924,55	1,777
924,72	1,016
924,90	1,794
925,07	1,584
925,24	1,037
925,41	0,871
925,59	0,913
925,76	0,993
925,93	2,339
926,10	2,631
926,28	0,635
926,45	0,545
926,62	0,947
926,79	1,298
926,96	2,782
927,14	2,312
927,31	1,059
927,48	1,451
927,65	1,384
927,83	1,853
928,00	1,055
928,17	1,586
928,34	0,868
928,51	1,775
928,69	1,752
928,86	1,158
929,03	1,449
929,20	1,657
929,37	2,021
929,55	1,584
929,72	1,079
929,89	1,487
930,06	1,148
930,23	2,173
930,41	0,229
930,58	2,146
930,75	1,743
930,92	2,683
931,09	2,478
931,27	0,578
931,44	0,573
931,61	0,605
931,78	1,623
931,95	1,245
932,12	2,004
932,30	1,281
932,47	0,206
932,64	1,441
932,81	0,771
932,98	1,344
933,16	1,572
933,33	1,702
933,50	0,977
933,67	1,738
933,84	2,625
934,01	1,570
934,18	1,767
934,36	1,135
934,53	1,992
934,70	0,764
934,87	0,526
935,04	0,778
935,21	0,730
935,38	0,781
935,56	1,627
935,73	0,539
935,90	1,825
936,07	1,551
936,24	1,411
936,41	1,262
936,58	0,514
936,76	1,886
936,93	1,063
937,10	1,017
937,27	1,504
937,44	0,976
937,61	2,371
937,78	1,488
937,95	1,387
938,13	0,447
938,30	1,129
938,47	1,765
938,64	1,180
938,81	0,815
938,98	1,117
939,15	1,367
939,32	1,477
939,49	0,239
939,66	1,511
939,84	0,747
940,01	0,709
940,18	1,498
940,35	0,555
940,52	0,986
940,69	0,506
940,86	1,482
941,03	0,866
941,20	0,223
941,37	1,235
941,54	1,680
941,71	1,862
941,89	1,231
942,06	1,907
942,23	1,635
942,40	0,800
942,57	1,746
942,74	0,893
942,91	2,124
943,08	1,944
943,25	1,664
943,42	0,844
943,59	2,364
943,76	1,148
943,93	0,426
944,10	1,170
944,27	0,917
944,44	1,221
944,61	1,633
944,79	1,692
944,96	2,030
945,13	1,405
945,30	2,058
945,47	2,461
945,64	1,699
945,81	1,243
945,98	1,588
946,15	1,793
946,32	1,581
946,49	2,024
946,66	2,473
946,83	1,040
947,00	2,346
947,17	1,658
947,34	1,702
947,51	2,025
947,68	2,661
947,85	1,212
948,02	2,549
948,19	0,783
948,36	2,823
948,53	1,485
948,70	1,124
948,87	2,439
949,04	2,316
949,21	0,824
949,38	3,086
949,55	3,129
949,72	2,343
949,89	3,301
950,06	1,728
950,23	1,480
950,40	2,136
950,57	2,112
950,74	2,173
950,91	2,678
951,08	1,435
951,25	1,043
951,42	1,394
951,59	1,596
951,76	2,746
951,93	2,775
952,10	2,499
952,27	2,746
952,44	3,604
952,61	2,327
952,77	2,226
952,94	2,944
953,11	2,612
953,28	2,916
953,45	3,262
953,62	2,528
953,79	2,519
953,96	3,717
954,13	3,171
954,30	3,564
954,47	5,642
954,64	3,259
954,81	4,031
954,98	2,753
955,15	2,418
955,32	3,831
955,49	3,659
955,65	4,217
955,82	3,344
955,99	3,106
956,16	7,900
956,33	3,190
956,50	0,664
956,67	6,391
956,84	9,611
957,01	1,418
957,18	5,019
957,35	7,343
957,52	4,892
957,68	6,353
957,85	6,048
958,02	5,356
958,19	4,873
958,36	7,279
958,53	6,043
958,70	7,256
958,87	4,890
959,04	2,658
959,21	9,491
959,37	8,952
959,54	6,911
959,71	12,158
959,88	2,326
960,05	8,265
960,22	6,792
960,39	6,156
960,56	11,893
960,72	7,895
960,89	8,859
961,06	8,033
961,23	3,211
961,40	6,021
961,57	3,994
961,74	5,991
961,90	11,176
962,07	13,752
962,24	11,717
962,41	14,828
962,58	11,204
962,75	11,795
962,92	5,965
963,08	3,333
963,25	6,773
963,42	13,253
963,59	11,088
963,76	15,308
963,93	15,682
964,10	13,348
964,26	17,381
964,43	5,814
964,60	14,617
964,77	17,002
964,94	13,333
965,10	10,306
965,27	9,777
965,44	17,778
965,61	8,904
965,78	16,149
965,95	18,657
966,11	15,758
966,28	9,777
966,45	34,641
966,62	16,028
966,79	8,874
966,95	24,199
967,12	25,397
967,29	23,148
967,46	14,235
967,63	36,471
967,79	46,309
967,96	19,266
968,13	25,714
968,30	38,683
968,47	33,077
968,63	32,843
968,80	35,249
968,97	32,948
969,14	47,458
969,31	38,265
969,47	29,348
969,64	29,670
969,81	50,968
969,98	51,053
970,14	30,645
970,31	30,818
970,48	27,517
970,65	42,149
970,81	19,580
970,98	56,771
971,15	41,818
971,32	40,909
971,48	62,500
971,65	40,397
971,82	56,364
971,99	41,772
972,15	-4,651
972,32	56,250
972,49	64,754
972,66	73,554
972,82	58,904
972,99	51,250
973,16	83,444
973,33	63,704
973,49	48,780
973,66	96,190
973,83	92,593
974,00	41,772
974,16	114,545
974,33	108,000
974,50	100,000
974,67	57,143
974,83	68,367
975,00	140,000
975,17	162,903
975,33	77,011
975,50	124,590
975,67	100,000
975,84	58,537
976,00	68,421
976,17	141,304
976,34	72,941
976,50	97,802
976,67	133,333
976,84	193,750
977,00	124,359
977,17	142,222
977,34	203,846
977,50	84,524
977,67	91,765
977,84	152,542
978,01	100,000
978,17	120,690
978,34	214,815
978,51	276,000
978,67	130,612
978,84	118,182
979,01	144,737
979,17	71,429
979,34	165,217
979,51	186,364
979,67	358,333
979,84	135,593
980,01	138,462
980,17	220,588
980,34	78,082
980,51	555,556
980,67	100,000
980,84	127,143
981,01	202,941
981,17	180,882
981,34	94,286
981,50	92,632
981,67	192,857
981,84	42,857
982,00	3800,000
982,17	114,063
982,34	214,634
982,50	0,000
982,67	-485,714
982,84	405,000
983,00	181,481
983,17	-714,286
983,33	811,111
983,50	102,439
983,67	73,913
983,83	371,429
984,00	382,609
984,17	1011,111
984,33	-335,714
984,50	189,189
984,66	118,750
984,83	425,000
985,00	246,154
985,16	187,097
985,33	4450,000
985,49	155,814
985,66	135,000
985,83	-2266,667
985,99	522,222
986,16	405,263
986,32	104,110
986,49	-880,000
986,66	920,000
986,82	339,394
986,99	-1200,000
987,15	221,212
987,32	523,529
987,49	271,429
987,65	-234,783
987,82	-260,000
987,98	110,606
988,15	1114,286
988,31	205,714
988,48	233,333
988,65	430,000
988,81	134,545
988,98	283,784
989,14	490,000
989,31	166,102
989,47	-167,857
989,64	577,778
989,80	101,064
989,97	249,091
990,14	442,857
990,30	-750,000
990,47	-191,667
990,63	315,789
990,80	1416,667
990,96	975,000
991,13	190,000
991,29	166,667
991,46	137,500
991,62	0,000
991,79	-550,000
991,95	482,353
992,12	1250,000
992,29	-342,857
992,45	202,381
992,62	-192,857
992,78	-933,333
992,95	251,613
993,11	962,500
993,28	-5500,000
993,44	-224,138
993,61	108,772
993,77	0,000
993,94	251,282
994,10	1128,571
994,27	-31,579
994,43	271,875
994,60	792,857
994,76	230,303
994,93	-740,000
995,09	-437,500
995,26	350,000
995,42	312,500
995,59	236,667
995,75	-558,333
995,92	-1585,714
996,08	-1660,000
996,25	260,606
996,41	980,000
996,58	464,000
996,74	-710,000
996,91	148,387
997,07	336,000
997,23	143,137
997,40	766,667
997,56	-3033,333
997,73	434,783
997,89	2180,000
998,06	138,596
998,22	317,021
998,39	216,327
998,55	505,263
998,72	-11300,000
998,88	142,000
999,05	606,667
999,21	352,941
999,37	258,140
999,54	348,387
999,70	347,619
999,87	1150,000
1000,03	356,667
1000,20	600,000
1000,36	-1362,500
1000,52	1800,000
1000,69	464,000
1000,85	-466,667
1001,02	366,667
1001,18	1160,000
1001,35	0,000
1001,51	650,000
1001,67	260,000
1001,84	165,854
1002,00	-554,545
1002,17	1800,000
1002,33	-500,000
1002,50	508,333
1002,66	1212,500
1002,82	341,463
1002,99	-263,636
1003,15	-9500,000
1003,32	-300,000
1003,48	-600,000
1003,64	404,348
1003,81	-300,000
1003,97	160,870
1004,14	-136,364
1004,30	490,909
1004,46	-9900,000
1004,63	-469,231
1004,79	272,973
1004,95	-200,000
1005,12	-300,000
1005,28	200,000
1005,45	-716,667
1005,61	453,846
1005,77	-985,714
1005,94	202,174
1006,10	-450,000
1006,26	-196,296
1006,43	260,606
1006,59	306,452
1006,76	-240,000
1006,92	360,870
1007,08	106,061
1007,25	211,111
1007,41	354,545
1007,57	-252,941
1007,74	330,435
1007,90	-257,143
1008,06	-320,000
1008,23	-321,053
1008,39	244,444
1008,55	102,353
1008,72	-1362,500
1008,88	-182,857
1009,04	-855,556
1009,21	162,500
1009,37	403,226
1009,53	-245,000
1009,70	13,636
1009,86	284,211
1010,02	277,273
1010,19	860,000
1010,35	7100,000
1010,51	248,571
1010,68	486,364
1010,84	370,000
1011,00	257,143
1011,17	3666,667
1011,33	400,000
1011,49	368,750
1011,66	403,125
1011,82	-866,667
1011,98	720,000
1012,14	438,462
1012,31	311,364
1012,47	-700,000
1012,63	8000,000
1012,80	405,556
1012,96	183,333
1013,12	-170,370
1013,29	370,833
1013,45	-194,118
1013,61	-1640,000
1013,77	-711,111
1013,94	366,667
1014,10	5000,000
1014,26	-94,118
1014,43	260,526
1014,59	0,000
1014,75	610,000
1014,91	308,571
1015,08	300,000
1015,24	686,667
1015,40	553,333
1015,56	594,118
1015,73	208,163
1015,89	444,444
1016,05	308,108
1016,21	314,815
1016,38	321,053
1016,54	-392,000
1016,70	478,947
1016,86	-469,231
1017,03	0,000
1017,19	925,000
1017,35	340,000
1017,51	1433,333
1017,68	1528,571
1017,84	389,474
1018,00	295,238
1018,16	-431,250
1018,33	636,364
1018,49	250,000
1018,65	-390,909
1018,81	-90,244
1018,97	369,231
1019,14	-1142,857
1019,30	266,667
1019,46	292,308
1019,62	2550,000
1019,79	-857,143
1019,95	-1750,000
1020,11	1540,000
1020,27	130,000
1020,43	-1000,000
1020,60	0,000
1020,76	136,765
1020,92	6500,000
1021,08	-193,333
1021,24	-1900,000
1021,41	224,242
1021,57	-208,333
1021,73	0,000
1021,89	-254,545
1022,05	300,000
1022,21	-292,308
1022,38	394,737
1022,54	820,000
1022,70	296,296
1022,86	-3250,000
1023,02	855,556
1023,19	-235,000
1023,35	216,981
1023,51	332,258
1023,67	207,895
1023,83	572,727
1023,99	305,714
1024,16	-40,000
1024,32	712,500
1024,48	277,551
1024,64	-1620,000
1024,80	675,000
1024,96	423,077
1025,12	2433,333
1025,29	-2100,000
1025,45	254,167
1025,61	2766,667
1025,77	276,190
1025,93	-292,308
1026,09	4050,000
1026,26	-1128,571
1026,42	-1800,000
1026,58	200,000
1026,74	1000,000
1026,90	615,789
1027,06	-600,000
1027,22	-433,333
1027,38	544,444
1027,55	-340,000
1027,71	600,000
1027,87	272,500
1028,03	71,212
1028,19	-172,727
1028,35	159,459
1028,51	-61,290
1028,67	-540,000
1028,83	207,143
1029,00	900,000
1029,16	-400,000
1029,32	458,824
1029,48	3250,000
1029,64	1157,143
1029,80	1800,000
1029,96	172,549
1030,12	-0,000
1030,28	1600,000
1030,44	-3450,000
1030,61	296,875
1030,77	-278,261
1030,93	244,186
1031,09	-364,286
1031,25	-688,889
1031,41	-2350,000
1031,57	-242,105
1031,73	709,091
1031,89	-118,182
1032,05	1285,714
1032,21	700,000
1032,37	-44,118
1032,53	-260,000
1032,69	-2800,000
1032,86	933,333
1033,02	443,750
1033,18	-707,692
1033,34	-369,231
1033,50	274,194
1033,66	-688,889
1033,82	403,571
1033,98	-317,647
1034,14	1011,111
1034,30	-445,455
1034,46	329,167
1034,62	566,667
1034,78	223,810
1034,94	-80,645
1035,10	-354,545
1035,26	-1000,000
1035,42	157,143
1035,58	1040,000
1035,74	-180,000
1035,90	-383,333
1036,06	166,038
1036,22	-252,000
1036,38	446,667
1036,54	540,000
1036,70	-4900,000
1036,86	-550,000
1037,02	-2800,000
1037,18	-228,571
1037,34	547,826
1037,50	-373,333
1037,66	-4033,333
1037,82	-229,412
1037,98	380,952
1038,14	-237,931
1038,30	-30,769
1038,46	202,083
1038,62	93,548
1038,78	211,905
1038,94	-128,947
1039,10	-400,000
1039,26	-131,579
1039,42	-628,571
1039,58	141,509
1039,74	146,875
1039,90	-115,385
1040,06	411,765
>>>>>End Processed Spectral Data<<<<<
