SpectraSuite Data File
++++++++++++++++++++++++++++++++++++
Date: Thu Feb 02 18:05:36 EET 2017
User: optolab
Dark Spectrum Present: Yes
Reference Spectrum Present: Yes
Number of Sampled Component Spectra: 1
Spectrometers: USB4C02475
Integration Time (usec): 100000 (USB4C02475)
Spectra Averaged: 1 (USB4C02475)
Boxcar Smoothing: 0 (USB4C02475)
Correct for Electrical Dark: No (USB4C02475)
Strobe/Lamp Enabled: No (USB4C02475)
Correct for Detector Non-linearity: No (USB4C02475)
Correct for Stray Light: No (USB4C02475)
Number of Pixels in Processed Spectrum: 3648
>>>>>Begin Processed Spectral Data<<<<<
344,91	-1125,000
345,13	-1125,000
345,35	-1125,000
345,57	-182,353
345,79	-30,435
346,00	-132,353
346,22	-1371,429
346,44	-106,061
346,66	300,000
346,87	439,130
347,09	607,692
347,31	5900,000
347,53	-1500,000
347,74	-144,186
347,96	-1071,429
348,18	361,765
348,40	364,706
348,61	-189,744
348,83	4400,000
349,05	284,615
349,27	458,824
349,48	-3850,000
349,70	721,429
349,92	204,762
350,14	172,973
350,35	-553,846
350,57	-444,444
350,79	17,949
351,01	-200,000
351,22	540,000
351,44	600,000
351,66	300,000
351,87	2083,333
352,09	111,842
352,31	271,429
352,53	265,714
352,74	-1071,429
352,96	400,000
353,18	109,375
353,40	-1062,500
353,61	480,000
353,83	212,500
354,05	284,375
354,26	317,857
354,48	-1440,000
354,70	395,238
354,92	280,556
355,13	-34,884
355,35	185,185
355,57	154,688
355,78	414,286
356,00	161,702
356,22	81,818
356,44	179,070
356,65	471,429
356,87	186,111
357,09	397,143
357,30	175,000
357,52	-1550,000
357,74	458,065
357,95	297,143
358,17	123,188
358,39	236,000
358,60	261,111
358,82	236,364
359,04	202,564
359,26	215,909
359,47	-530,769
359,69	282,143
359,91	392,000
360,12	505,000
360,34	152,778
360,56	-1500,000
360,77	1055,556
360,99	495,833
361,21	291,304
361,42	-1550,000
361,64	-281,481
361,86	94,030
362,07	900,000
362,29	132,500
362,51	329,730
362,72	-1800,000
362,94	237,037
363,16	88,571
363,37	1018,182
363,59	-7400,000
363,81	1150,000
364,02	110,667
364,24	302,273
364,46	571,429
364,67	47,619
364,89	476,471
365,11	127,027
365,32	285,185
365,54	387,500
365,76	234,091
365,97	346,341
366,19	215,789
366,41	740,000
366,62	161,000
366,84	941,667
367,05	122,549
367,27	760,000
367,49	292,308
367,70	855,556
367,92	141,667
368,14	-576,923
368,35	113,235
368,57	163,636
368,79	288,462
369,00	115,385
369,22	216,667
369,43	489,474
369,65	-210,345
369,87	-288,235
370,08	370,000
370,30	678,571
370,51	190,909
370,73	216,667
370,95	560,000
371,16	171,930
371,38	226,415
371,60	123,333
371,81	119,565
372,03	-2325,000
372,24	-237,500
372,46	1533,333
372,68	217,647
372,89	102,752
373,11	158,140
373,32	131,092
373,54	472,727
373,76	322,222
373,97	251,515
374,19	-415,789
374,40	127,143
374,62	441,176
374,84	333,333
375,05	232,692
375,27	310,811
375,48	91,358
375,70	511,765
375,92	105,357
376,13	494,737
376,35	350,000
376,56	425,000
376,78	165,306
376,99	336,364
377,21	312,500
377,43	221,212
377,64	162,000
377,86	506,250
378,07	93,182
378,29	188,889
378,51	116,667
378,72	-336,364
378,94	245,652
379,15	186,364
379,37	493,750
379,58	260,000
379,80	136,364
380,01	230,000
380,23	486,957
380,45	172,917
380,66	122,222
380,88	189,189
381,09	508,696
381,31	228,205
381,52	391,304
381,74	121,429
381,95	400,000
382,17	400,000
382,39	122,581
382,60	717,647
382,82	275,862
383,03	1500,000
383,25	119,753
383,46	758,333
383,68	204,255
383,89	459,091
384,11	123,288
384,32	192,105
384,54	-1042,857
384,76	252,941
384,97	320,000
385,19	178,947
385,40	431,250
385,62	261,290
385,83	144,681
386,05	642,857
386,26	307,692
386,48	223,077
386,69	277,778
386,91	570,000
387,12	220,513
387,34	77,966
387,55	262,857
387,77	292,000
387,98	167,347
388,20	149,296
388,41	93,651
388,63	241,429
388,84	240,000
389,06	288,372
389,27	265,625
389,49	77,108
389,70	159,322
389,92	136,364
390,13	235,897
390,35	111,458
390,56	189,062
390,78	400,000
390,99	113,333
391,21	64,773
391,42	97,826
391,64	-450,000
391,85	168,966
392,07	-285,714
392,28	153,846
392,50	1560,000
392,71	2900,000
392,93	153,226
393,14	206,522
393,36	135,897
393,57	475,000
393,79	100,000
394,00	104,110
394,22	170,000
394,43	253,571
394,65	232,143
394,86	287,500
395,08	-1075,000
395,29	110,638
395,50	-2900,000
395,72	1385,714
395,93	472,000
396,15	-114,286
396,36	226,667
396,58	-138,095
396,79	186,047
397,01	273,810
397,22	126,087
397,44	240,426
397,65	98,649
397,87	161,429
398,08	223,077
398,29	141,667
398,51	263,415
398,72	97,826
398,94	193,023
399,15	138,333
399,37	145,652
399,58	134,921
399,80	146,667
400,01	250,000
400,22	157,143
400,44	385,714
400,65	128,767
400,87	4700,000
401,08	105,618
401,30	124,000
401,51	80,000
401,72	179,032
401,94	129,268
402,15	51,020
402,37	190,909
402,58	248,837
402,80	537,500
403,01	63,889
403,22	101,205
403,44	113,889
403,65	55,102
403,87	132,000
404,08	150,000
404,30	200,000
404,51	97,143
404,72	945,455
404,94	108,434
405,15	117,910
405,37	106,593
405,58	129,032
405,79	400,000
406,01	93,333
406,22	60,714
406,44	66,667
406,65	122,619
406,86	87,000
407,08	69,136
407,29	81,333
407,51	55,769
407,72	62,376
407,93	59,494
408,15	77,273
408,36	220,000
408,58	60,833
408,79	46,512
409,00	49,645
409,22	43,137
409,43	59,459
409,64	50,641
409,86	60,227
410,07	34,783
410,29	19,333
410,50	47,619
410,71	50,806
410,93	39,604
411,14	61,682
411,35	32,639
411,57	51,389
411,78	69,853
412,00	18,000
412,21	45,575
412,42	42,439
412,64	47,222
412,85	50,259
413,06	29,464
413,28	52,157
413,49	40,000
413,70	18,026
413,92	25,238
414,13	31,225
414,34	25,279
414,56	32,340
414,77	32,103
414,98	26,148
415,20	24,014
415,41	18,182
415,63	24,217
415,84	19,391
416,05	18,373
416,27	6,685
416,48	22,512
416,69	8,140
416,91	13,600
417,12	9,276
417,33	20,542
417,55	23,800
417,76	19,873
417,97	23,596
418,19	11,297
418,40	3,838
418,61	18,353
418,83	7,218
419,04	10,698
419,25	10,686
419,46	13,483
419,68	10,914
419,89	12,516
420,10	13,978
420,32	7,947
420,53	10,024
420,74	8,005
420,96	4,976
421,17	10,376
421,38	6,437
421,60	5,359
421,81	1,702
422,02	5,005
422,23	8,088
422,45	4,593
422,66	6,940
422,87	2,799
423,09	4,893
423,30	5,882
423,51	5,353
423,73	7,739
423,94	5,054
424,15	2,727
424,36	7,274
424,58	5,922
424,79	3,448
425,00	4,467
425,22	4,471
425,43	5,578
425,64	2,299
425,85	5,017
426,07	5,260
426,28	4,058
426,49	3,255
426,71	2,737
426,92	5,369
427,13	4,011
427,34	2,646
427,56	5,461
427,77	0,166
427,98	2,301
428,19	1,435
428,41	3,715
428,62	3,209
428,83	1,883
429,04	2,808
429,26	2,260
429,47	3,716
429,68	2,551
429,89	2,568
430,11	2,546
430,32	2,893
430,53	2,610
430,74	4,042
430,96	4,260
431,17	3,905
431,38	4,888
431,59	5,294
431,81	6,123
432,02	7,069
432,23	9,008
432,44	9,135
432,66	11,673
432,87	11,160
433,08	15,987
433,29	18,119
433,51	19,404
433,72	21,425
433,93	23,579
434,14	25,774
434,35	27,610
434,57	29,627
434,78	32,234
434,99	33,178
435,20	34,752
435,42	35,487
435,63	37,550
435,84	39,380
436,05	40,206
436,26	40,526
436,48	42,613
436,69	41,720
436,90	42,777
437,11	42,677
437,32	43,012
437,54	42,128
437,75	44,795
437,96	43,499
438,17	43,964
438,38	44,260
438,60	44,133
438,81	44,149
439,02	43,531
439,23	43,918
439,44	43,669
439,66	45,107
439,87	44,098
440,08	43,296
440,29	45,232
440,50	46,005
440,72	46,590
440,93	48,321
441,14	48,703
441,35	49,756
441,56	52,391
441,77	52,201
441,99	54,860
442,20	56,543
442,41	56,786
442,62	58,577
442,83	58,348
443,04	57,144
443,26	59,372
443,47	58,832
443,68	57,584
443,89	57,432
444,10	55,122
444,31	55,558
444,53	54,788
444,74	54,548
444,95	54,676
445,16	53,467
445,37	54,253
445,58	53,178
445,80	54,796
446,01	54,589
446,22	54,478
446,43	55,482
446,64	55,154
446,85	55,601
447,06	53,572
447,28	54,210
447,49	55,124
447,70	55,232
447,91	54,406
448,12	54,303
448,33	54,007
448,54	55,684
448,76	56,105
448,97	57,002
449,18	56,278
449,39	56,515
449,60	57,806
449,81	57,721
450,02	57,036
450,23	56,972
450,45	57,201
450,66	56,160
450,87	55,299
451,08	53,332
451,29	53,087
451,50	51,912
451,71	50,216
451,92	49,297
452,13	48,604
452,35	45,571
452,56	45,870
452,77	42,043
452,98	40,729
453,19	39,870
453,40	36,710
453,61	34,237
453,82	31,393
454,03	30,075
454,25	28,004
454,46	25,414
454,67	23,865
454,88	22,014
455,09	20,302
455,30	17,888
455,51	17,050
455,72	14,778
455,93	12,721
456,14	11,503
456,35	9,595
456,56	8,244
456,78	7,487
456,99	6,783
457,20	5,488
457,41	4,371
457,62	4,034
457,83	3,688
458,04	3,429
458,25	2,573
458,46	2,273
458,67	2,074
458,88	1,669
459,09	1,132
459,30	1,234
459,51	1,216
459,73	0,581
459,94	0,977
460,15	0,448
460,36	0,378
460,57	0,667
460,78	0,555
460,99	0,559
461,20	0,416
461,41	0,537
461,62	0,354
461,83	0,336
462,04	0,413
462,25	0,524
462,46	0,508
462,67	0,363
462,88	0,432
463,09	0,384
463,30	0,418
463,51	0,382
463,72	0,507
463,93	0,338
464,15	0,404
464,36	0,287
464,57	0,190
464,78	0,360
464,99	0,401
465,20	0,191
465,41	0,367
465,62	0,358
465,83	0,361
466,04	0,372
466,25	0,409
466,46	0,317
466,67	0,323
466,88	0,343
467,09	0,219
467,30	0,299
467,51	0,366
467,72	0,270
467,93	0,233
468,14	0,297
468,35	0,444
468,56	0,395
468,77	0,191
468,98	0,430
469,19	0,350
469,40	0,380
469,61	0,395
469,82	0,381
470,03	0,193
470,24	0,256
470,45	0,299
470,66	0,588
470,87	0,329
471,08	0,589
471,29	0,381
471,50	0,426
471,71	0,227
471,92	0,431
472,13	0,353
472,34	0,325
472,55	0,359
472,76	0,440
472,97	0,349
473,18	0,380
473,39	0,350
473,60	0,526
473,81	0,385
474,01	0,505
474,22	0,395
474,43	0,402
474,64	0,469
474,85	0,328
475,06	0,393
475,27	0,464
475,48	0,332
475,69	0,407
475,90	0,384
476,11	0,449
476,32	0,449
476,53	0,447
476,74	0,221
476,95	0,610
477,16	0,577
477,37	0,451
477,58	0,452
477,79	0,310
478,00	0,443
478,21	0,682
478,41	0,247
478,62	0,395
478,83	0,465
479,04	0,586
479,25	0,322
479,46	0,291
479,67	0,350
479,88	0,272
480,09	0,454
480,30	0,393
480,51	0,380
480,72	0,331
480,93	0,462
481,14	0,387
481,34	0,432
481,55	0,297
481,76	0,610
481,97	0,154
482,18	0,321
482,39	0,353
482,60	0,349
482,81	0,251
483,02	0,350
483,23	0,349
483,44	0,255
483,65	0,279
483,85	0,248
484,06	0,445
484,27	0,464
484,48	0,295
484,69	0,473
484,90	0,211
485,11	0,332
485,32	0,241
485,53	0,288
485,73	0,482
485,94	0,223
486,15	0,341
486,36	0,351
486,57	0,380
486,78	0,490
486,99	0,380
487,20	0,418
487,41	0,409
487,61	0,322
487,82	0,103
488,03	0,400
488,24	0,392
488,45	0,377
488,66	0,391
488,87	0,292
489,08	0,376
489,28	0,243
489,49	0,376
489,70	0,261
489,91	0,461
490,12	0,167
490,33	0,335
490,54	0,395
490,74	0,368
490,95	0,275
491,16	0,411
491,37	0,403
491,58	0,327
491,79	0,340
492,00	0,179
492,20	0,378
492,41	0,243
492,62	0,440
492,83	0,350
493,04	0,225
493,25	0,501
493,45	0,362
493,66	0,378
493,87	0,330
494,08	0,190
494,29	0,233
494,50	0,338
494,70	0,343
494,91	0,436
495,12	0,313
495,33	0,437
495,54	0,389
495,75	0,305
495,95	0,410
496,16	0,453
496,37	0,336
496,58	0,220
496,79	0,168
496,99	0,256
497,20	0,358
497,41	0,300
497,62	0,309
497,83	0,505
498,04	0,542
498,24	0,289
498,45	0,354
498,66	0,372
498,87	0,336
499,08	0,356
499,28	0,218
499,49	0,423
499,70	0,355
499,91	0,218
500,12	0,425
500,32	0,515
500,53	0,384
500,74	0,394
500,95	0,227
501,15	0,437
501,36	0,334
501,57	0,356
501,78	0,547
501,99	0,444
502,19	0,419
502,40	0,458
502,61	0,476
502,82	0,485
503,02	0,299
503,23	0,680
503,44	0,754
503,65	0,735
503,86	0,769
504,06	0,832
504,27	0,954
504,48	0,876
504,69	1,213
504,89	1,229
505,10	1,383
505,31	1,902
505,52	2,104
505,72	2,904
505,93	3,177
506,14	3,633
506,35	4,441
506,55	5,189
506,76	6,202
506,97	7,228
507,18	8,389
507,38	10,002
507,59	11,176
507,80	12,598
508,01	14,091
508,21	15,440
508,42	16,995
508,63	18,428
508,84	20,600
509,04	21,877
509,25	23,443
509,46	25,026
509,67	26,627
509,87	28,642
510,08	29,645
510,29	30,776
510,49	32,508
510,70	33,704
510,91	34,746
511,12	35,665
511,32	37,245
511,53	38,055
511,74	38,754
511,94	38,914
512,15	39,292
512,36	40,663
512,57	40,776
512,77	41,620
512,98	41,595
513,19	42,223
513,39	42,853
513,60	42,025
513,81	42,982
514,01	43,407
514,22	43,805
514,43	43,390
514,64	44,533
514,84	44,541
515,05	44,968
515,26	44,958
515,46	45,301
515,67	45,537
515,88	45,472
516,08	46,361
516,29	45,475
516,50	46,517
516,70	46,237
516,91	45,789
517,12	46,662
517,32	45,777
517,53	46,504
517,74	45,568
517,95	45,966
518,15	45,927
518,36	45,636
518,57	45,455
518,77	45,031
518,98	44,805
519,19	43,815
519,39	44,078
519,60	42,625
519,80	42,110
520,01	41,552
520,22	41,334
520,42	40,024
520,63	39,800
520,84	38,357
521,04	37,444
521,25	36,700
521,46	35,545
521,66	34,470
521,87	33,525
522,08	32,446
522,28	31,629
522,49	30,827
522,70	29,268
522,90	28,341
523,11	27,304
523,31	26,605
523,52	25,488
523,73	24,627
523,93	23,475
524,14	22,427
524,35	21,775
524,55	20,576
524,76	19,806
524,97	18,822
525,17	17,663
525,38	16,906
525,58	16,008
525,79	15,213
526,00	14,049
526,20	13,298
526,41	12,032
526,61	11,432
526,82	10,158
527,03	8,962
527,23	8,104
527,44	7,285
527,64	6,583
527,85	5,380
528,06	5,021
528,26	4,026
528,47	3,444
528,68	3,035
528,88	2,479
529,09	1,994
529,29	1,819
529,50	1,388
529,70	1,160
529,91	0,905
530,12	0,738
530,32	0,656
530,53	0,849
530,73	0,558
530,94	0,549
531,15	0,454
531,35	0,619
531,56	0,598
531,76	0,558
531,97	0,370
532,17	0,590
532,38	0,343
532,59	0,539
532,79	0,416
533,00	0,344
533,20	0,355
533,41	0,336
533,61	0,342
533,82	0,217
534,03	0,462
534,23	0,390
534,44	0,474
534,64	0,337
534,85	0,268
535,05	0,159
535,26	0,381
535,46	0,397
535,67	0,219
535,88	0,359
536,08	0,395
536,29	0,334
536,49	0,388
536,70	0,426
536,90	0,387
537,11	0,234
537,31	0,314
537,52	0,362
537,72	0,465
537,93	0,323
538,13	0,394
538,34	0,253
538,55	0,333
538,75	0,129
538,96	0,163
539,16	0,253
539,37	0,406
539,57	0,211
539,78	0,191
539,98	0,307
540,19	0,465
540,39	0,292
540,60	0,285
540,80	0,435
541,01	0,469
541,21	0,382
541,42	0,279
541,62	0,313
541,83	0,147
542,03	0,381
542,24	0,383
542,44	0,367
542,65	0,282
542,85	0,378
543,06	0,441
543,26	0,270
543,47	0,316
543,67	0,461
543,88	0,149
544,08	0,228
544,29	0,416
544,49	0,108
544,70	0,169
544,90	0,313
545,11	0,291
545,31	0,435
545,52	0,291
545,72	0,262
545,93	0,190
546,13	0,237
546,34	0,357
546,54	0,395
546,75	0,305
546,95	0,534
547,15	0,092
547,36	0,293
547,56	0,221
547,77	0,360
547,97	0,099
548,18	0,200
548,38	0,405
548,59	0,171
548,79	0,556
549,00	0,266
549,20	0,210
549,41	0,377
549,61	0,249
549,81	0,352
550,02	0,294
550,22	0,008
550,43	0,223
550,63	0,397
550,84	0,254
551,04	0,183
551,25	0,468
551,45	0,442
551,65	0,351
551,86	0,311
552,06	0,371
552,27	0,178
552,47	0,458
552,68	0,460
552,88	0,307
553,08	0,292
553,29	0,463
553,49	0,317
553,70	0,534
553,90	0,393
554,11	0,438
554,31	0,301
554,51	0,430
554,72	0,380
554,92	0,331
555,13	0,381
555,33	0,286
555,53	0,386
555,74	0,218
555,94	0,223
556,15	0,355
556,35	0,285
556,56	0,302
556,76	0,138
556,96	0,391
557,17	0,416
557,37	0,505
557,58	0,161
557,78	0,341
557,98	0,285
558,19	0,432
558,39	0,301
558,59	0,328
558,80	0,250
559,00	0,277
559,21	0,437
559,41	0,345
559,61	0,470
559,82	0,292
560,02	0,256
560,23	0,299
560,43	0,458
560,63	0,226
560,84	0,432
561,04	0,340
561,24	0,279
561,45	0,354
561,65	0,179
561,85	0,325
562,06	0,331
562,26	0,232
562,47	0,445
562,67	0,408
562,87	0,148
563,08	0,509
563,28	0,378
563,48	0,403
563,69	0,496
563,89	0,420
564,09	0,328
564,30	0,247
564,50	0,352
564,70	0,231
564,91	0,251
565,11	0,183
565,31	0,409
565,52	0,110
565,72	0,422
565,92	0,293
566,13	0,067
566,33	0,403
566,53	0,257
566,74	0,153
566,94	0,345
567,14	0,367
567,35	0,425
567,55	0,312
567,75	0,630
567,96	0,445
568,16	0,519
568,36	0,357
568,57	0,547
568,77	0,459
568,97	0,852
569,18	0,703
569,38	0,632
569,58	0,752
569,79	0,773
569,99	1,136
570,19	1,195
570,39	1,336
570,60	1,567
570,80	1,902
571,00	2,348
571,21	2,902
571,41	3,161
571,61	3,541
571,82	4,091
572,02	4,779
572,22	5,117
572,42	6,021
572,63	6,788
572,83	8,165
573,03	8,931
573,24	10,390
573,44	11,378
573,64	12,849
573,84	13,967
574,05	15,138
574,25	16,835
574,45	18,333
574,66	20,161
574,86	21,463
575,06	22,394
575,26	24,196
575,47	24,686
575,67	25,898
575,87	26,530
576,07	27,560
576,28	28,131
576,48	29,567
576,68	30,221
576,88	30,882
577,09	31,132
577,29	32,768
577,49	33,103
577,69	34,117
577,90	34,807
578,10	35,488
578,30	36,730
578,50	37,519
578,71	38,279
578,91	39,466
579,11	40,421
579,31	41,661
579,52	42,716
579,72	43,223
579,92	43,728
580,12	44,017
580,33	45,860
580,53	45,557
580,73	46,506
580,93	47,465
581,13	47,670
581,34	48,030
581,54	48,573
581,74	49,497
581,94	49,163
582,15	50,469
582,35	50,244
582,55	50,962
582,75	50,816
582,95	50,690
583,16	50,884
583,36	51,227
583,56	51,226
583,76	51,476
583,96	51,715
584,17	51,204
584,37	50,865
584,57	51,176
584,77	50,842
584,97	50,883
585,18	49,936
585,38	50,212
585,58	49,938
585,78	49,268
585,98	49,854
586,19	48,350
586,39	48,916
586,59	48,599
586,79	48,397
586,99	48,389
587,20	47,570
587,40	48,119
587,60	47,958
587,80	47,449
588,00	47,721
588,20	47,988
588,41	48,273
588,61	48,485
588,81	47,715
589,01	47,545
589,21	47,381
589,41	47,380
589,62	47,598
589,82	47,290
590,02	47,805
590,22	46,736
590,42	46,517
590,62	46,405
590,83	46,373
591,03	45,596
591,23	44,821
591,43	44,655
591,63	44,233
591,83	43,855
592,03	43,879
592,24	42,965
592,44	42,636
592,64	42,609
592,84	42,291
593,04	41,257
593,24	41,232
593,44	40,567
593,65	40,032
593,85	39,582
594,05	39,123
594,25	38,865
594,45	38,391
594,65	37,174
594,85	36,128
595,06	36,439
595,26	35,265
595,46	34,028
595,66	33,134
595,86	31,695
596,06	30,747
596,26	30,554
596,46	28,899
596,66	27,290
596,87	26,197
597,07	24,280
597,27	23,062
597,47	21,456
597,67	19,689
597,87	18,087
598,07	16,494
598,27	15,107
598,47	13,560
598,67	12,058
598,88	10,985
599,08	9,783
599,28	8,480
599,48	6,945
599,68	6,344
599,88	5,372
600,08	4,680
600,28	4,160
600,48	3,295
600,68	2,772
600,88	2,457
601,09	2,224
601,29	1,798
601,49	1,396
601,69	1,343
601,89	1,111
602,09	0,966
602,29	0,678
602,49	0,519
602,69	0,616
602,89	0,564
603,09	0,499
603,29	0,486
603,49	0,445
603,69	0,438
603,90	0,326
604,10	0,497
604,30	0,410
604,50	0,361
604,70	0,304
604,90	0,331
605,10	0,217
605,30	0,349
605,50	0,387
605,70	0,394
605,90	0,157
606,10	0,353
606,30	0,148
606,50	0,460
606,70	0,247
606,90	0,101
607,10	0,224
607,30	0,376
607,50	0,259
607,70	0,439
607,90	0,380
608,10	0,324
608,30	0,154
608,50	0,343
608,70	0,437
608,90	0,229
609,11	0,234
609,31	0,260
609,51	0,331
609,71	0,207
609,91	0,074
610,11	0,402
610,31	0,304
610,51	0,478
610,71	0,262
610,91	0,274
611,11	0,321
611,31	0,290
611,51	0,156
611,71	0,119
611,91	0,359
612,11	0,220
612,31	0,427
612,51	0,216
612,71	0,187
612,91	0,059
613,11	0,334
613,31	0,130
613,51	0,203
613,71	0,262
613,91	0,218
614,11	0,307
614,31	0,209
614,50	0,451
614,70	0,252
614,90	0,407
615,10	0,165
615,30	0,354
615,50	0,143
615,70	0,412
615,90	0,196
616,10	0,236
616,30	0,334
616,50	0,137
616,70	0,327
616,90	0,249
617,10	0,414
617,30	0,187
617,50	0,376
617,70	0,180
617,90	0,163
618,10	0,194
618,30	0,055
618,50	0,230
618,70	0,244
618,90	0,084
619,10	0,117
619,30	0,068
619,49	0,383
619,69	0,253
619,89	0,289
620,09	0,167
620,29	0,383
620,49	0,321
620,69	0,292
620,89	0,187
621,09	0,140
621,29	0,248
621,49	0,192
621,69	0,234
621,89	0,471
622,09	0,199
622,29	0,121
622,48	0,317
622,68	0,129
622,88	0,253
623,08	0,124
623,28	0,252
623,48	0,226
623,68	0,266
623,88	0,209
624,08	0,289
624,28	0,224
624,48	0,301
624,67	0,116
624,87	0,050
625,07	0,219
625,27	0,200
625,47	0,270
625,67	0,281
625,87	0,195
626,07	0,229
626,27	0,164
626,47	0,332
626,66	0,101
626,86	0,332
627,06	0,310
627,26	0,240
627,46	0,212
627,66	0,147
627,86	0,142
628,06	0,127
628,25	0,385
628,45	0,256
628,65	0,209
628,85	0,231
629,05	0,351
629,25	0,175
629,45	0,263
629,65	0,186
629,84	0,206
630,04	0,475
630,24	0,320
630,44	0,049
630,64	0,186
630,84	0,184
631,04	0,385
631,23	0,173
631,43	0,223
631,63	0,285
631,83	0,137
632,03	0,207
632,23	0,297
632,42	0,301
632,62	0,258
632,82	0,249
633,02	0,206
633,22	0,228
633,42	0,377
633,62	0,174
633,81	0,154
634,01	0,255
634,21	0,344
634,41	0,250
634,61	0,275
634,80	0,265
635,00	0,251
635,20	0,322
635,40	0,082
635,60	0,167
635,80	0,433
635,99	0,427
636,19	0,261
636,39	0,307
636,59	0,031
636,79	0,433
636,98	0,324
637,18	0,158
637,38	0,584
637,58	0,167
637,78	0,335
637,97	0,044
638,17	0,233
638,37	0,382
638,57	0,196
638,77	0,409
638,96	0,280
639,16	0,577
639,36	0,161
639,56	0,454
639,76	0,477
639,95	0,301
640,15	0,346
640,35	0,158
640,55	0,169
640,75	0,549
640,94	0,333
641,14	0,327
641,34	0,229
641,54	0,340
641,73	0,313
641,93	0,361
642,13	0,471
642,33	0,358
642,53	0,324
642,72	0,474
642,92	0,397
643,12	0,286
643,32	0,495
643,51	0,507
643,71	0,281
643,91	0,400
644,11	0,548
644,30	0,322
644,50	0,753
644,70	0,049
644,90	0,408
645,09	0,517
645,29	0,510
645,49	0,556
645,69	0,180
645,88	0,504
646,08	0,268
646,28	0,438
646,48	0,332
646,67	0,240
646,87	0,221
647,07	0,179
647,26	0,507
647,46	0,385
647,66	0,182
647,86	0,514
648,05	0,493
648,25	0,900
648,45	0,170
648,65	0,306
648,84	0,330
649,04	0,907
649,24	0,863
649,43	0,260
649,63	0,350
649,83	0,337
650,03	0,196
650,22	0,377
650,42	0,500
650,62	0,443
650,81	0,572
651,01	0,407
651,21	0,437
651,40	0,662
651,60	0,032
651,80	0,531
652,00	0,675
652,19	0,541
652,39	0,480
652,59	0,749
652,78	0,328
652,98	-0,166
653,18	0,510
653,37	0,618
653,57	0,725
653,77	0,602
653,96	0,144
654,16	0,647
654,36	0,424
654,55	0,194
654,75	0,405
654,95	0,434
655,14	0,414
655,34	0,829
655,54	0,628
655,73	0,252
655,93	0,419
656,13	0,435
656,32	0,062
656,52	0,397
656,72	0,782
656,91	0,538
657,11	0,474
657,31	0,148
657,50	0,354
657,70	0,512
657,90	0,695
658,09	0,538
658,29	0,614
658,49	0,332
658,68	0,504
658,88	0,401
659,07	0,497
659,27	0,532
659,47	0,636
659,66	0,132
659,86	0,306
660,06	0,026
660,25	0,389
660,45	0,321
660,64	0,360
660,84	0,758
661,04	0,245
661,23	0,584
661,43	0,457
661,63	0,482
661,82	0,069
662,02	0,539
662,21	0,270
662,41	0,752
662,61	0,923
662,80	0,448
663,00	0,338
663,19	0,646
663,39	0,233
663,59	0,766
663,78	0,593
663,98	0,684
664,17	0,486
664,37	0,724
664,57	0,583
664,76	0,416
664,96	0,196
665,15	0,417
665,35	0,322
665,55	0,333
665,74	0,287
665,94	0,591
666,13	0,540
666,33	0,464
666,53	0,551
666,72	0,388
666,92	0,396
667,11	0,724
667,31	0,248
667,50	0,364
667,70	0,764
667,90	0,286
668,09	0,344
668,29	0,196
668,48	0,496
668,68	0,487
668,87	0,161
669,07	0,200
669,26	0,705
669,46	0,440
669,66	0,467
669,85	0,442
670,05	0,410
670,24	0,600
670,44	0,275
670,63	0,421
670,83	0,624
671,02	0,438
671,22	0,806
671,42	0,402
671,61	0,487
671,81	0,592
672,00	0,605
672,20	0,517
672,39	0,510
672,59	0,188
672,78	0,377
672,98	0,309
673,17	0,178
673,37	0,457
673,56	0,363
673,76	0,247
673,95	0,336
674,15	0,823
674,34	-0,029
674,54	0,613
674,73	0,384
674,93	0,426
675,13	0,627
675,32	0,715
675,52	0,532
675,71	0,419
675,91	0,463
676,10	0,384
676,30	0,178
676,49	0,102
676,69	0,234
676,88	0,296
677,08	0,347
677,27	0,352
677,47	0,182
677,66	0,304
677,86	0,499
678,05	0,236
678,24	0,330
678,44	0,593
678,63	0,243
678,83	0,192
679,02	0,344
679,22	0,562
679,41	0,286
679,61	0,055
679,80	0,302
680,00	0,142
680,19	0,386
680,39	0,186
680,58	0,354
680,78	0,121
680,97	0,296
681,17	0,487
681,36	0,091
681,56	0,275
681,75	0,263
681,94	0,237
682,14	0,515
682,33	0,477
682,53	0,200
682,72	0,022
682,92	0,315
683,11	0,237
683,31	0,336
683,50	0,120
683,69	0,134
683,89	0,190
684,08	0,218
684,28	0,122
684,47	0,261
684,67	-0,040
684,86	0,252
685,06	0,079
685,25	0,289
685,44	0,208
685,64	0,389
685,83	0,256
686,03	0,108
686,22	0,190
686,42	0,120
686,61	0,109
686,80	-0,009
687,00	0,248
687,19	0,218
687,39	0,142
687,58	0,088
687,77	0,439
687,97	0,278
688,16	0,400
688,36	0,243
688,55	0,178
688,74	0,217
688,94	0,218
689,13	0,332
689,33	0,229
689,52	0,354
689,71	0,414
689,91	0,049
690,10	0,094
690,30	0,016
690,49	0,111
690,68	0,325
690,88	0,059
691,07	0,071
691,27	0,055
691,46	0,312
691,65	0,194
691,85	0,114
692,04	0,091
692,23	-0,044
692,43	0,380
692,62	0,359
692,82	0,393
693,01	0,314
693,20	0,242
693,40	0,220
693,59	0,150
693,78	0,316
693,98	0,041
694,17	0,270
694,36	0,373
694,56	0,206
694,75	0,077
694,94	0,290
695,14	0,144
695,33	0,281
695,53	0,361
695,72	0,489
695,91	0,074
696,11	0,179
696,30	0,279
696,49	0,284
696,69	0,325
696,88	0,208
697,07	0,411
697,27	0,351
697,46	0,440
697,65	0,170
697,85	-0,012
698,04	0,520
698,23	0,322
698,43	0,318
698,62	0,071
698,81	0,670
699,01	0,663
699,20	0,589
699,39	0,317
699,58	0,601
699,78	0,145
699,97	0,636
700,16	0,226
700,36	0,635
700,55	0,716
700,74	0,473
700,94	0,647
701,13	0,228
701,32	0,311
701,52	0,219
701,71	0,727
701,90	0,619
702,09	0,965
702,29	0,751
702,48	0,433
702,67	1,047
702,87	1,059
703,06	0,639
703,25	1,376
703,44	0,618
703,64	0,815
703,83	1,390
704,02	1,254
704,22	1,048
704,41	0,387
704,60	1,449
704,79	0,689
704,99	0,596
705,18	1,372
705,37	1,138
705,56	1,068
705,76	2,095
705,95	2,039
706,14	1,645
706,33	0,434
706,53	0,973
706,72	1,214
706,91	1,640
707,11	0,731
707,30	1,145
707,49	1,232
707,68	0,955
707,88	1,747
708,07	0,902
708,26	0,597
708,45	0,208
708,64	1,220
708,84	1,671
709,03	1,541
709,22	0,919
709,41	1,761
709,61	1,160
709,80	1,691
709,99	2,284
710,18	3,022
710,38	0,566
710,57	0,222
710,76	1,377
710,95	2,705
711,14	3,078
711,34	2,374
711,53	2,170
711,72	2,784
711,91	2,251
712,11	3,213
712,30	-0,346
712,49	1,493
712,68	1,860
712,87	1,755
713,07	3,533
713,26	2,374
713,45	0,749
713,64	1,964
713,83	1,055
714,03	1,656
714,22	3,439
714,41	2,793
714,60	2,421
714,79	-0,336
714,99	0,189
715,18	4,051
715,37	2,246
715,56	3,195
715,75	1,801
715,94	4,774
716,14	2,729
716,33	2,862
716,52	5,084
716,71	4,091
716,90	3,385
717,10	-0,278
717,29	1,913
717,48	2,058
717,67	4,005
717,86	2,768
718,05	3,981
718,24	4,816
718,44	3,240
718,63	2,981
718,82	3,873
719,01	1,681
719,20	2,222
719,39	5,163
719,59	-0,391
719,78	1,136
719,97	3,882
720,16	4,637
720,35	3,785
720,54	3,145
720,73	4,573
720,93	4,772
721,12	0,144
721,31	3,207
721,50	6,691
721,69	2,305
721,88	5,453
722,07	3,826
722,27	3,123
722,46	3,148
722,65	1,986
722,84	3,145
723,03	4,934
723,22	2,981
723,41	6,312
723,60	0,818
723,79	9,406
723,99	5,868
724,18	5,410
724,37	1,090
724,56	4,514
724,75	6,870
724,94	7,348
725,13	4,034
725,32	8,371
725,51	4,558
725,71	5,235
725,90	6,333
726,09	6,575
726,28	2,955
726,47	2,959
726,66	6,949
726,85	4,834
727,04	3,874
727,23	5,540
727,42	5,561
727,61	0,823
727,81	-1,730
728,00	5,198
728,19	8,667
728,38	2,402
728,57	5,938
728,76	7,833
728,95	12,604
729,14	6,169
729,33	6,667
729,52	5,287
729,71	6,725
729,90	7,802
730,09	7,728
730,28	8,094
730,48	7,675
730,67	10,491
730,86	6,974
731,05	5,134
731,24	3,659
731,43	8,479
731,62	7,331
731,81	-0,227
732,00	9,581
732,19	3,245
732,38	9,103
732,57	2,934
732,76	5,335
732,95	5,920
733,14	-1,291
733,33	3,042
733,52	6,180
733,71	10,187
733,90	5,367
734,09	10,676
734,28	7,218
734,47	7,083
734,66	6,684
734,85	7,857
735,04	4,993
735,23	6,863
735,42	10,656
735,61	8,892
735,81	10,947
736,00	2,564
736,19	12,918
736,38	7,335
736,57	12,209
736,76	9,489
736,95	8,439
737,14	12,759
737,33	14,569
737,52	3,385
737,71	-0,328
737,90	18,083
738,09	8,219
738,28	15,247
738,47	0,365
738,66	2,404
738,85	9,910
739,04	6,518
739,22	10,870
739,41	6,066
739,60	3,413
739,79	3,237
739,98	4,301
740,17	11,092
740,36	13,201
740,55	12,261
740,74	9,091
740,93	7,839
741,12	8,393
741,31	7,570
741,50	5,671
741,69	10,619
741,88	3,557
742,07	13,768
742,26	1,905
742,45	10,041
742,64	8,958
742,83	11,858
743,02	3,368
743,21	14,801
743,40	4,141
743,59	14,154
743,78	12,720
743,97	9,231
744,16	14,764
744,34	9,091
744,53	7,629
744,72	14,614
744,91	5,252
745,10	10,692
745,29	9,476
745,48	9,545
745,67	5,239
745,86	16,556
746,05	17,062
746,24	11,753
746,43	2,355
746,62	14,009
746,81	17,303
747,00	13,129
747,18	12,854
747,37	18,105
747,56	14,353
747,75	4,680
747,94	18,689
748,13	15,213
748,32	7,381
748,51	15,228
748,70	14,758
748,89	10,539
749,08	-2,326
749,26	14,758
749,45	9,651
749,64	15,617
749,83	16,404
750,02	24,728
750,21	8,651
750,40	24,089
750,59	11,260
750,78	12,718
750,96	16,851
751,15	17,991
751,34	8,807
751,53	5,191
751,72	18,310
751,91	15,285
752,10	5,759
752,29	12,000
752,47	5,158
752,66	13,333
752,85	15,847
753,04	15,642
753,23	10,836
753,42	16,712
753,61	22,571
753,80	8,935
753,98	25,253
754,17	17,325
754,36	8,710
754,55	14,759
754,74	17,208
754,93	20,110
755,12	16,617
755,30	21,429
755,49	18,023
755,68	18,098
755,87	9,172
756,06	19,444
756,25	29,787
756,43	5,369
756,62	26,398
756,81	15,232
757,00	17,105
757,19	11,806
757,38	27,413
757,56	20,800
757,75	5,802
757,94	4,563
758,13	17,123
758,32	10,979
758,51	13,131
758,69	7,722
758,88	12,121
759,07	10,778
759,26	17,668
759,45	13,684
759,63	19,048
759,82	22,456
760,01	31,868
760,20	37,736
760,39	25,237
760,57	30,662
760,76	21,951
760,95	32,986
761,14	29,197
761,33	20,323
761,51	12,500
761,70	24,907
761,89	8,889
762,08	26,022
762,27	21,661
762,45	9,420
762,64	15,075
762,83	42,629
763,02	15,652
763,21	5,000
763,39	17,483
763,58	14,126
763,77	20,253
763,96	27,888
764,14	11,667
764,33	32,857
764,52	12,500
764,71	26,557
764,89	32,143
765,08	13,300
765,27	22,128
765,46	34,081
765,65	20,000
765,83	42,986
766,02	25,238
766,21	18,033
766,40	31,907
766,58	35,450
766,77	14,679
766,96	21,138
767,15	34,874
767,33	36,232
767,52	33,188
767,71	29,386
767,90	21,106
768,08	10,778
768,27	37,805
768,46	35,965
768,64	22,685
768,83	35,784
769,02	9,360
769,21	21,354
769,39	49,286
769,58	39,827
769,77	30,851
769,96	18,468
770,14	45,355
770,33	33,645
770,52	38,849
770,70	35,135
770,89	47,027
771,08	11,446
771,27	20,000
771,45	27,059
771,64	49,697
771,83	17,157
772,01	41,237
772,20	30,846
772,39	27,215
772,57	21,891
772,76	18,919
772,95	28,736
773,14	37,415
773,32	27,119
773,51	25,595
773,70	50,360
773,88	27,097
774,07	34,010
774,26	18,548
774,44	43,609
774,63	49,701
774,82	24,026
775,00	32,243
775,19	24,405
775,38	33,511
775,56	54,037
775,75	53,846
775,94	39,167
776,12	27,451
776,31	45,865
776,50	31,507
776,68	45,161
776,87	40,191
777,06	53,459
777,24	16,807
777,43	38,503
777,62	50,000
777,80	53,459
777,99	52,500
778,18	38,506
778,36	39,831
778,55	22,881
778,74	35,156
778,92	34,568
779,11	60,909
779,29	6,383
779,48	43,972
779,67	19,820
779,85	28,947
780,04	37,681
780,23	49,405
780,41	60,169
780,60	39,597
780,79	33,871
780,97	19,608
781,16	37,766
781,34	63,514
781,53	50,893
781,72	19,820
781,90	26,347
782,09	15,116
782,28	60,544
782,46	80,714
782,65	58,451
782,83	18,868
783,02	69,298
783,21	53,383
783,39	61,345
783,58	20,870
783,76	40,816
783,95	66,901
784,14	11,842
784,32	31,765
784,51	57,432
784,69	29,688
784,88	50,467
785,06	42,384
785,25	64,539
785,44	33,871
785,62	65,000
785,81	74,074
785,99	33,835
786,18	33,333
786,37	52,747
786,55	66,667
786,74	16,364
786,92	44,056
787,11	27,778
787,29	58,929
787,48	48,387
787,67	45,283
787,85	64,557
788,04	85,586
788,22	49,505
788,41	54,331
788,59	58,553
788,78	38,462
788,96	42,149
789,15	64,167
789,34	51,923
789,52	56,452
789,71	53,237
789,89	29,870
790,08	72,500
790,26	64,968
790,45	66,667
790,63	32,184
790,82	54,615
791,00	54,867
791,19	-7,200
791,38	33,333
791,56	65,455
791,75	5,556
791,93	84,000
792,12	70,435
792,30	75,912
792,49	46,465
792,67	31,618
792,86	44,000
793,04	50,000
793,23	44,211
793,41	63,043
793,60	40,278
793,78	61,905
793,97	65,972
794,15	77,444
794,34	52,000
794,52	48,387
794,71	55,814
794,89	48,485
795,08	58,400
795,26	56,000
795,45	73,611
795,63	102,419
795,82	98,901
796,00	107,000
796,19	57,724
796,37	54,962
796,56	28,155
796,74	31,579
796,93	72,727
797,11	71,084
797,30	62,778
797,48	46,094
797,67	34,959
797,85	71,538
798,04	22,034
798,22	93,590
798,41	38,462
798,59	82,857
798,77	115,663
798,96	44,444
799,14	43,548
799,33	86,239
799,51	77,778
799,70	80,769
799,88	105,505
800,07	52,672
800,25	69,880
800,44	37,037
800,62	79,167
800,80	57,042
800,99	124,658
801,17	57,759
801,36	58,571
801,54	81,000
801,73	46,316
801,91	78,512
802,10	68,235
802,28	52,800
802,46	84,211
802,65	76,259
802,83	81,333
803,02	62,903
803,20	86,747
803,39	57,471
803,57	36,220
803,75	58,537
803,94	33,333
804,12	75,172
804,31	65,217
804,49	60,800
804,67	16,912
804,86	74,336
805,04	39,759
805,23	66,372
805,41	55,000
805,59	65,068
805,78	81,600
805,96	110,843
806,15	77,228
806,33	34,211
806,51	33,333
806,70	66,917
806,88	67,442
807,07	42,342
807,25	45,055
807,43	67,857
807,62	51,327
807,80	35,238
807,99	50,769
808,17	31,496
808,35	41,000
808,54	37,681
808,72	88,288
808,90	19,178
809,09	56,522
809,27	70,667
809,46	76,923
809,64	57,317
809,82	43,046
810,01	38,281
810,19	51,515
810,37	79,687
810,56	88,889
810,74	94,805
810,92	32,000
811,11	37,719
811,29	58,491
811,48	44,615
811,66	65,169
811,84	26,374
812,03	63,934
812,21	50,877
812,39	31,304
812,58	96,842
812,76	49,640
812,94	48,193
813,13	42,553
813,31	95,000
813,49	98,148
813,68	28,182
813,86	33,708
814,04	57,025
814,23	50,602
814,41	39,326
814,59	29,126
814,78	48,529
814,96	32,704
815,14	48,598
815,33	42,636
815,51	70,079
815,69	69,524
815,87	0,990
816,06	71,304
816,24	41,615
816,42	53,676
816,61	47,170
816,79	63,793
816,97	64,773
817,16	50,296
817,34	76,190
817,52	57,851
817,70	50,495
817,89	58,519
818,07	45,205
818,25	71,429
818,44	94,872
818,62	28,682
818,80	44,361
818,98	63,057
819,17	55,462
819,35	51,596
819,53	61,194
819,72	57,595
819,90	39,535
820,08	41,026
820,26	62,931
820,45	9,396
820,63	100,893
820,81	60,000
820,99	71,631
821,18	44,898
821,36	60,759
821,54	60,000
821,73	56,111
821,91	55,263
822,09	34,677
822,27	41,290
822,46	42,647
822,64	15,200
822,82	49,724
823,00	49,171
823,19	32,967
823,37	59,394
823,55	27,273
823,73	63,448
823,91	42,754
824,10	48,387
824,28	53,769
824,46	9,709
824,64	59,868
824,83	51,553
825,01	29,333
825,19	62,903
825,37	51,304
825,56	53,774
825,74	25,510
825,92	34,395
826,10	48,295
826,28	54,167
826,47	40,526
826,65	63,121
826,83	26,724
827,01	38,150
827,19	55,952
827,38	24,691
827,56	57,955
827,74	32,961
827,92	30,233
828,10	37,179
828,29	40,828
828,47	36,179
828,65	27,692
828,83	13,939
829,01	46,196
829,20	41,209
829,38	57,955
829,56	60,870
829,74	26,415
829,92	30,952
830,10	39,655
830,29	35,678
830,47	32,161
830,65	17,683
830,83	24,554
831,01	28,571
831,20	51,456
831,38	27,751
831,56	32,558
831,74	49,763
831,92	52,632
832,10	33,810
832,29	56,081
832,47	18,539
832,65	30,882
832,83	31,455
833,01	31,500
833,19	30,769
833,37	43,439
833,56	15,190
833,74	57,353
833,92	15,278
834,10	21,992
834,28	34,177
834,46	36,652
834,64	18,056
834,83	21,364
835,01	50,622
835,19	35,200
835,37	42,149
835,55	47,917
835,73	46,305
835,91	32,103
836,09	27,757
836,28	36,900
836,46	18,800
836,64	25,940
836,82	11,312
837,00	17,754
837,18	11,896
837,36	33,865
837,54	22,273
837,72	18,103
837,91	30,224
838,09	18,327
838,27	30,667
838,45	41,489
838,63	29,779
838,81	16,456
838,99	35,484
839,17	23,649
839,35	13,121
839,53	30,877
839,72	30,451
839,90	23,024
840,08	32,923
840,26	36,905
840,44	25,378
840,62	16,897
840,80	26,531
840,98	20,000
841,16	25,475
841,34	24,749
841,52	39,755
841,70	24,615
841,89	17,742
842,07	16,301
842,25	29,598
842,43	-1,724
842,61	16,140
842,79	18,079
842,97	18,567
843,15	23,432
843,33	4,101
843,51	25,301
843,69	35,043
843,87	11,940
844,05	31,915
844,23	27,628
844,41	17,868
844,59	10,086
844,77	14,006
844,95	21,098
845,13	32,000
845,31	14,826
845,50	29,319
845,68	22,186
845,86	19,540
846,04	23,743
846,22	14,441
846,40	19,355
846,58	20,513
846,76	28,495
846,94	23,441
847,12	20,466
847,30	21,392
847,48	11,765
847,66	32,020
847,84	13,934
848,02	13,768
848,20	23,773
848,38	5,413
848,56	21,307
848,74	23,866
848,92	11,721
849,10	16,000
849,28	9,109
849,46	23,200
849,64	18,245
849,82	7,716
850,00	20,561
850,18	19,787
850,36	11,479
850,54	14,536
850,72	12,853
850,90	18,696
851,08	19,475
851,26	19,256
851,44	11,062
851,62	8,837
851,80	21,586
851,98	7,253
852,16	19,149
852,34	12,990
852,52	14,509
852,70	3,872
852,87	11,187
853,05	9,942
853,23	8,454
853,41	11,338
853,59	13,693
853,77	14,683
853,95	14,979
854,13	10,619
854,31	15,195
854,49	12,176
854,67	12,527
854,85	17,184
855,03	21,443
855,21	22,316
855,39	10,262
855,57	13,799
855,75	14,599
855,93	7,647
856,11	20,116
856,28	11,255
856,46	11,032
856,64	15,810
856,82	14,261
857,00	10,953
857,18	15,343
857,36	13,491
857,54	15,398
857,72	19,123
857,90	9,779
858,08	14,902
858,26	1,035
858,44	17,544
858,61	10,801
858,79	20,761
858,97	15,221
859,15	19,505
859,33	10,625
859,51	9,883
859,69	4,651
859,87	13,839
860,05	5,861
860,23	12,987
860,40	11,032
860,58	13,770
860,76	16,667
860,94	14,309
861,12	10,769
861,30	10,047
861,48	7,286
861,66	10,476
861,84	7,623
862,01	14,875
862,19	6,441
862,37	9,682
862,55	11,095
862,73	7,121
862,91	11,894
863,09	16,667
863,27	3,448
863,44	6,347
863,62	4,755
863,80	9,283
863,98	9,496
864,16	9,393
864,34	9,901
864,52	13,405
864,69	10,088
864,87	3,184
865,05	8,435
865,23	9,542
865,41	10,484
865,59	13,997
865,76	13,713
865,94	10,724
866,12	14,065
866,30	9,537
866,48	16,279
866,66	9,543
866,83	9,160
867,01	4,220
867,19	6,632
867,37	6,986
867,55	6,213
867,73	10,817
867,90	6,108
868,08	8,102
868,26	9,191
868,44	1,993
868,62	12,162
868,79	10,080
868,97	6,045
869,15	0,928
869,33	7,570
869,51	6,736
869,69	8,902
869,86	3,626
870,04	10,920
870,22	10,116
870,40	8,772
870,57	5,421
870,75	9,392
870,93	7,579
871,11	10,173
871,29	11,073
871,46	5,408
871,64	8,473
871,82	8,288
872,00	16,564
872,18	7,595
872,35	12,799
872,53	8,772
872,71	1,735
872,89	11,996
873,06	9,034
873,24	8,729
873,42	6,845
873,60	2,213
873,77	6,646
873,95	2,275
874,13	2,748
874,31	5,160
874,49	3,098
874,66	6,391
874,84	7,723
875,02	4,950
875,20	7,291
875,37	6,423
875,55	8,302
875,73	1,836
875,91	8,178
876,08	3,931
876,26	1,502
876,44	6,777
876,61	8,622
876,79	7,174
876,97	5,292
877,15	4,317
877,32	4,859
877,50	6,126
877,68	3,256
877,86	5,268
878,03	9,760
878,21	4,196
878,39	8,019
878,56	5,702
878,74	6,728
878,92	-2,906
879,10	5,457
879,27	6,708
879,45	6,491
879,63	4,658
879,80	3,967
879,98	3,236
880,16	7,060
880,34	5,380
880,51	4,338
880,69	3,423
880,87	4,108
881,04	4,342
881,22	5,951
881,40	5,178
881,57	4,705
881,75	7,479
881,93	7,201
882,10	4,006
882,28	6,552
882,46	5,205
882,63	4,307
882,81	3,793
882,99	5,280
883,16	2,431
883,34	1,203
883,52	4,091
883,69	7,865
883,87	2,474
884,05	5,725
884,22	2,479
884,40	6,338
884,58	1,354
884,75	2,885
884,93	2,190
885,11	6,792
885,28	3,993
885,46	2,276
885,64	2,549
885,81	4,417
885,99	3,160
886,17	2,969
886,34	1,338
886,52	3,147
886,70	2,787
886,87	3,535
887,05	3,086
887,22	2,822
887,40	4,396
887,58	2,512
887,75	4,489
887,93	4,785
888,11	4,807
888,28	3,025
888,46	3,165
888,63	2,253
888,81	4,065
888,99	5,051
889,16	2,940
889,34	1,740
889,51	4,252
889,69	2,772
889,87	5,219
890,04	3,350
890,22	3,657
890,39	2,432
890,57	5,384
890,75	3,179
890,92	4,346
891,10	1,923
891,27	2,411
891,45	4,059
891,63	5,353
891,80	1,516
891,98	3,448
892,15	3,619
892,33	2,353
892,51	5,026
892,68	5,163
892,86	2,645
893,03	3,295
893,21	4,304
893,38	1,588
893,56	3,936
893,74	2,295
893,91	4,031
894,09	4,540
894,26	4,716
894,44	2,768
894,61	2,510
894,79	3,567
894,96	2,261
895,14	2,966
895,32	4,035
895,49	2,642
895,67	1,943
895,84	1,397
896,02	1,375
896,19	1,520
896,37	4,532
896,54	1,031
896,72	1,542
896,89	2,952
897,07	4,380
897,25	3,667
897,42	3,579
897,60	3,724
897,77	3,781
897,95	4,007
898,12	3,786
898,30	3,273
898,47	2,174
898,65	2,310
898,82	2,253
899,00	1,180
899,17	4,374
899,35	1,537
899,52	4,994
899,70	2,251
899,87	1,985
900,05	0,875
900,22	3,276
900,40	0,643
900,57	3,228
900,75	1,793
900,92	2,707
901,10	2,680
901,27	1,962
901,45	3,177
901,62	2,585
901,80	2,052
901,97	1,547
902,15	2,884
902,32	3,018
902,50	1,579
902,67	4,016
902,85	1,497
903,02	2,396
903,20	2,069
903,37	1,530
903,54	2,981
903,72	3,107
903,89	3,617
904,07	2,317
904,24	3,209
904,42	2,993
904,59	1,179
904,77	3,184
904,94	1,096
905,12	0,106
905,29	0,913
905,47	2,196
905,64	3,174
905,81	1,635
905,99	0,840
906,16	-0,416
906,34	1,951
906,51	2,245
906,69	2,484
906,86	4,121
907,03	0,875
907,21	1,560
907,38	1,259
907,56	2,432
907,73	2,006
907,91	1,224
908,08	3,143
908,25	3,002
908,43	0,940
908,60	0,259
908,78	2,656
908,95	1,162
909,13	4,026
909,30	2,658
909,47	1,305
909,65	3,031
909,82	2,793
910,00	1,487
910,17	2,077
910,34	3,049
910,52	1,931
910,69	2,050
910,87	2,412
911,04	1,969
911,21	3,816
911,39	1,884
911,56	1,650
911,73	2,194
911,91	2,444
912,08	2,650
912,26	0,725
912,43	3,699
912,60	1,314
912,78	2,583
912,95	1,440
913,13	2,107
913,30	2,135
913,47	2,520
913,65	2,891
913,82	2,535
913,99	0,262
914,17	2,712
914,34	0,230
914,51	2,258
914,69	1,463
914,86	2,882
915,03	2,160
915,21	1,923
915,38	1,677
915,56	2,084
915,73	1,137
915,90	2,006
916,08	2,716
916,25	1,255
916,42	1,071
916,60	2,696
916,77	2,427
916,94	1,001
917,12	1,605
917,29	2,233
917,46	1,373
917,64	1,252
917,81	1,260
917,98	0,464
918,16	1,552
918,33	2,727
918,50	3,040
918,67	1,835
918,85	0,761
919,02	1,839
919,19	2,815
919,37	2,043
919,54	2,079
919,71	2,755
919,89	0,964
920,06	2,075
920,23	1,330
920,41	2,269
920,58	0,598
920,75	3,030
920,92	1,192
921,10	1,309
921,27	1,625
921,44	2,067
921,62	1,666
921,79	2,283
921,96	1,643
922,13	2,027
922,31	1,094
922,48	0,982
922,65	1,337
922,82	0,888
923,00	2,414
923,17	1,589
923,34	1,047
923,52	1,919
923,69	1,289
923,86	1,515
924,03	2,194
924,21	1,606
924,38	1,968
924,55	2,244
924,72	1,441
924,90	1,817
925,07	1,560
925,24	1,745
925,41	1,741
925,59	0,571
925,76	1,432
925,93	1,817
926,10	1,588
926,28	1,475
926,45	1,112
926,62	0,834
926,79	1,981
926,96	2,120
927,14	2,598
927,31	1,214
927,48	1,646
927,65	1,665
927,83	2,361
928,00	1,723
928,17	1,695
928,34	1,714
928,51	1,578
928,69	0,962
928,86	1,268
929,03	1,208
929,20	1,184
929,37	1,106
929,55	2,063
929,72	1,036
929,89	1,257
930,06	0,939
930,23	1,780
930,41	1,041
930,58	2,167
930,75	1,121
930,92	1,646
931,09	1,577
931,27	1,465
931,44	0,900
931,61	1,977
931,78	1,258
931,95	1,510
932,12	2,365
932,30	1,546
932,47	0,268
932,64	1,604
932,81	1,663
932,98	1,241
933,16	1,652
933,33	1,155
933,50	1,059
933,67	2,364
933,84	1,743
934,01	1,188
934,18	1,787
934,36	1,216
934,53	1,328
934,70	1,227
934,87	0,729
935,04	1,615
935,21	1,105
935,38	1,523
935,56	1,201
935,73	0,918
935,90	1,607
936,07	1,276
936,24	1,646
936,41	1,282
936,58	0,573
936,76	1,552
936,93	0,925
937,10	1,683
937,27	1,738
937,44	0,797
937,61	1,929
937,78	1,292
937,95	0,971
938,13	1,263
938,30	1,208
938,47	1,725
938,64	0,680
938,81	1,769
938,98	0,917
939,15	1,749
939,32	1,299
939,49	0,737
939,66	1,173
939,84	1,575
940,01	0,588
940,18	0,749
940,35	1,007
940,52	0,452
940,69	0,890
940,86	1,847
941,03	1,443
941,20	0,506
941,37	0,816
941,54	1,680
941,71	2,008
941,89	1,338
942,06	1,216
942,23	2,173
942,40	1,979
942,57	2,019
942,74	1,998
942,91	1,845
943,08	2,243
943,25	2,108
943,42	1,421
943,59	2,921
943,76	1,531
943,93	2,152
944,10	0,630
944,27	1,673
944,44	1,498
944,61	2,208
944,79	3,013
944,96	1,534
945,13	0,843
945,30	2,175
945,47	2,679
945,64	2,184
945,81	2,218
945,98	1,564
946,15	1,893
946,32	2,273
946,49	1,332
946,66	3,518
946,83	0,494
947,00	2,604
947,17	1,060
947,34	1,594
947,51	1,512
947,68	2,908
947,85	1,460
948,02	2,138
948,19	1,449
948,36	2,650
948,53	0,640
948,70	2,071
948,87	2,532
949,04	4,150
949,21	2,504
949,38	2,456
949,55	3,001
949,72	1,822
949,89	2,524
950,06	2,659
950,23	2,657
950,40	2,509
950,57	2,351
950,74	1,920
950,91	1,431
951,08	3,460
951,25	2,682
951,42	1,846
951,59	2,470
951,76	1,393
951,93	0,782
952,10	1,249
952,27	2,873
952,44	2,724
952,61	3,468
952,77	3,797
952,94	2,576
953,11	3,498
953,28	5,194
953,45	5,545
953,62	2,388
953,79	4,395
953,96	3,466
954,13	4,328
954,30	3,774
954,47	3,654
954,64	2,802
954,81	8,119
954,98	2,079
955,15	3,446
955,32	4,411
955,49	4,750
955,65	2,939
955,82	5,868
955,99	4,098
956,16	8,170
956,33	1,803
956,50	4,499
956,67	2,832
956,84	8,481
957,01	3,507
957,18	6,616
957,35	4,785
957,52	6,136
957,68	5,858
957,85	4,344
958,02	8,165
958,19	4,030
958,36	8,752
958,53	7,649
958,70	7,535
958,87	5,090
959,04	9,509
959,21	11,888
959,37	12,208
959,54	6,073
959,71	8,105
959,88	4,186
960,05	7,916
960,22	8,805
960,39	5,779
960,56	6,138
960,72	11,219
960,89	11,409
961,06	10,665
961,23	1,835
961,40	10,573
961,57	12,939
961,74	6,452
961,90	11,321
962,07	13,303
962,24	12,841
962,41	14,483
962,58	8,863
962,75	9,231
962,92	9,474
963,08	4,792
963,25	4,781
963,42	15,060
963,59	6,982
963,76	9,543
963,93	15,886
964,10	6,787
964,26	14,762
964,43	13,953
964,60	6,729
964,77	14,094
964,94	23,210
965,10	12,535
965,27	2,235
965,44	13,016
965,61	14,041
965,78	22,981
965,95	19,154
966,11	20,303
966,28	20,950
966,45	20,588
966,62	8,014
966,79	13,652
966,95	24,199
967,12	21,905
967,29	33,333
967,46	46,263
967,63	38,039
967,79	32,215
967,96	26,147
968,13	28,095
968,30	44,856
968,47	23,462
968,63	47,549
968,80	20,307
968,97	44,509
969,14	41,808
969,31	30,612
969,47	35,870
969,64	4,945
969,81	55,484
969,98	42,632
970,14	9,140
970,31	33,962
970,48	29,530
970,65	25,620
970,81	25,874
970,98	48,437
971,15	47,273
971,32	57,576
971,48	70,833
971,65	39,073
971,82	80,000
971,99	65,823
972,15	68,605
972,32	48,611
972,49	50,820
972,66	45,455
972,82	63,014
972,99	30,000
973,16	62,914
973,33	54,815
973,49	36,585
973,66	59,048
973,83	90,123
974,00	72,152
974,16	50,909
974,33	121,333
974,50	75,758
974,67	79,762
974,83	79,592
975,00	96,364
975,17	82,258
975,33	122,989
975,50	178,689
975,67	117,308
975,84	113,415
976,00	44,737
976,17	119,565
976,34	67,059
976,50	45,055
976,67	94,048
976,84	97,917
977,00	106,410
977,17	140,000
977,34	215,385
977,50	95,238
977,67	154,118
977,84	149,153
978,01	77,027
978,17	89,655
978,34	166,667
978,51	284,000
978,67	116,327
978,84	107,273
979,01	44,737
979,17	72,857
979,34	186,957
979,51	168,182
979,67	212,500
979,84	188,136
980,01	90,385
980,17	182,353
980,34	83,562
980,51	322,222
980,67	128,889
980,84	75,714
981,01	88,235
981,17	110,294
981,34	77,143
981,50	85,263
981,67	188,095
981,84	210,714
982,00	7500,000
982,17	164,063
982,34	170,732
982,50	0,000
982,67	-1200,000
982,84	515,000
983,00	161,111
983,17	-357,143
983,33	544,444
983,50	175,610
983,67	84,058
983,83	338,095
984,00	234,783
984,17	855,556
984,33	-314,286
984,50	202,703
984,66	281,250
984,83	825,000
985,00	453,846
985,16	167,742
985,33	3150,000
985,49	100,000
985,66	205,000
985,83	-2700,000
985,99	600,000
986,16	447,368
986,32	61,644
986,49	-780,000
986,66	1380,000
986,82	248,485
986,99	-1040,000
987,15	206,061
987,32	211,765
987,49	214,286
987,65	-286,957
987,82	-270,000
987,98	171,212
988,15	600,000
988,31	140,000
988,48	166,667
988,65	580,000
988,81	121,818
988,98	329,730
989,14	360,000
989,31	177,966
989,47	-153,571
989,64	388,889
989,80	101,064
989,97	234,545
990,14	528,571
990,30	-625,000
990,47	-187,500
990,63	244,737
990,80	1633,333
990,96	733,333
991,13	293,333
991,29	174,510
991,46	122,917
991,62	0,000
991,79	-290,000
991,95	482,353
992,12	1450,000
992,29	-390,476
992,45	166,667
992,62	-160,714
992,78	-1283,333
992,95	261,290
993,11	912,500
993,28	-4500,000
993,44	-82,759
993,61	180,702
993,77	0,000
993,94	276,923
994,10	1114,286
994,27	-71,053
994,43	275,000
994,60	685,714
994,76	300,000
994,93	-500,000
995,09	-618,750
995,26	308,333
995,42	1100,000
995,59	203,333
995,75	-691,667
995,92	-1200,000
996,08	-960,000
996,25	251,515
996,41	1120,000
996,58	348,000
996,74	-440,000
996,91	180,645
997,07	328,000
997,23	121,569
997,40	583,333
997,56	-733,333
997,73	304,348
997,89	1600,000
998,06	168,421
998,22	223,404
998,39	214,286
998,55	426,316
998,72	-8800,000
998,88	144,000
999,05	646,667
999,21	276,471
999,37	230,233
999,54	238,710
999,70	185,714
999,87	933,333
1000,03	373,333
1000,20	407,143
1000,36	-1087,500
1000,52	1950,000
1000,69	408,000
1000,85	-650,000
1001,02	276,190
1001,18	360,000
1001,35	0,000
1001,51	642,857
1001,67	450,000
1001,84	209,756
1002,00	-318,182
1002,17	1650,000
1002,33	-350,000
1002,50	758,333
1002,66	1087,500
1002,82	329,268
1002,99	-209,091
1003,15	-4000,000
1003,32	-578,571
1003,48	-1266,667
1003,64	343,478
1003,81	-115,789
1003,97	208,696
1004,14	-121,818
1004,30	409,091
1004,46	-10200,000
1004,63	-384,615
1004,79	218,919
1004,95	-1320,000
1005,12	-269,231
1005,28	333,333
1005,45	-600,000
1005,61	515,385
1005,77	-1171,429
1005,94	239,130
1006,10	-690,000
1006,26	-144,444
1006,43	221,212
1006,59	370,968
1006,76	-288,000
1006,92	208,696
1007,08	140,909
1007,25	169,444
1007,41	281,818
1007,57	-370,588
1007,74	286,957
1007,90	-242,857
1008,06	-173,333
1008,23	-342,105
1008,39	222,222
1008,55	130,588
1008,72	-700,000
1008,88	-145,714
1009,04	-1300,000
1009,21	290,625
1009,37	300,000
1009,53	-385,000
1009,70	-33,333
1009,86	363,158
1010,02	218,182
1010,19	706,667
1010,35	8600,000
1010,51	340,000
1010,68	200,000
1010,84	340,000
1011,00	235,714
1011,17	3000,000
1011,33	384,615
1011,49	443,750
1011,66	428,125
1011,82	-1100,000
1011,98	560,000
1012,14	453,846
1012,31	263,636
1012,47	-728,571
1012,63	8200,000
1012,80	350,000
1012,96	225,000
1013,12	-288,889
1013,29	362,500
1013,45	-117,647
1013,61	-2040,000
1013,77	-266,667
1013,94	337,500
1014,10	5000,000
1014,26	-132,353
1014,43	376,316
1014,59	0,000
1014,75	660,000
1014,91	337,143
1015,08	526,923
1015,24	593,333
1015,40	460,000
1015,56	470,588
1015,73	228,571
1015,89	555,556
1016,05	262,162
1016,21	200,000
1016,38	192,105
1016,54	-460,000
1016,70	357,895
1016,86	-630,769
1017,03	0,000
1017,19	1212,500
1017,35	366,667
1017,51	233,333
1017,68	1142,857
1017,84	468,421
1018,00	309,524
1018,16	-550,000
1018,33	745,455
1018,49	414,286
1018,65	-459,091
1018,81	2,439
1018,97	569,231
1019,14	-785,714
1019,30	466,667
1019,46	164,103
1019,62	4550,000
1019,79	-857,143
1019,95	-2150,000
1020,11	1320,000
1020,27	182,500
1020,43	-875,000
1020,60	0,000
1020,76	191,176
1020,92	6600,000
1021,08	-122,222
1021,24	-3250,000
1021,41	300,000
1021,57	-391,667
1021,73	0,000
1021,89	-427,273
1022,05	231,429
1022,21	-230,769
1022,38	447,368
1022,54	1660,000
1022,70	244,444
1022,86	-2100,000
1023,02	588,889
1023,19	-355,000
1023,35	222,642
1023,51	296,774
1023,67	207,895
1023,83	654,545
1023,99	342,857
1024,16	-93,846
1024,32	656,250
1024,48	234,694
1024,64	-460,000
1024,80	316,667
1024,96	153,846
1025,12	1933,333
1025,29	-2100,000
1025,45	312,500
1025,61	3033,333
1025,77	428,571
1025,93	-200,000
1026,09	3900,000
1026,26	-1085,714
1026,42	-1950,000
1026,58	182,692
1026,74	957,143
1026,90	289,474
1027,06	-230,000
1027,22	-208,333
1027,38	811,111
1027,55	-224,000
1027,71	675,000
1027,87	210,000
1028,03	175,758
1028,19	-106,061
1028,35	147,297
1028,51	-27,419
1028,67	-1020,000
1028,83	214,286
1029,00	642,857
1029,16	-540,000
1029,32	511,765
1029,48	3700,000
1029,64	971,429
1029,80	1933,333
1029,96	200,000
1030,12	-225,000
1030,28	1350,000
1030,44	-3900,000
1030,61	193,750
1030,77	-343,478
1030,93	262,791
1031,09	-585,714
1031,25	-988,889
1031,41	-700,000
1031,57	-36,842
1031,73	481,818
1031,89	-78,788
1032,05	1071,429
1032,21	910,000
1032,37	-132,353
1032,53	-220,000
1032,69	-8500,000
1032,86	1050,000
1033,02	443,750
1033,18	-853,846
1033,34	-500,000
1033,50	387,097
1033,66	-444,444
1033,82	421,429
1033,98	-341,176
1034,14	1133,333
1034,30	-222,727
1034,46	258,333
1034,62	527,778
1034,78	146,032
1034,94	-183,871
1035,10	-186,364
1035,26	-844,444
1035,42	77,143
1035,58	1080,000
1035,74	-166,667
1035,90	-650,000
1036,06	186,792
1036,22	-448,000
1036,38	800,000
1036,54	1030,000
1036,70	-5000,000
1036,86	-321,429
1037,02	-1800,000
1037,18	-132,143
1037,34	352,174
1037,50	-426,667
1037,66	-2033,333
1037,82	-464,706
1037,98	414,286
1038,14	-144,828
1038,30	-71,154
1038,46	102,083
1038,62	83,871
1038,78	228,571
1038,94	-181,579
1039,10	-437,500
1039,26	-252,632
1039,42	-1342,857
1039,58	162,264
1039,74	171,875
1039,90	-146,154
1040,06	476,471
>>>>>End Processed Spectral Data<<<<<
