SpectraSuite Data File
++++++++++++++++++++++++++++++++++++
Date: Thu Feb 02 18:06:15 EET 2017
User: optolab
Dark Spectrum Present: Yes
Reference Spectrum Present: Yes
Number of Sampled Component Spectra: 1
Spectrometers: USB4C02475
Integration Time (usec): 100000 (USB4C02475)
Spectra Averaged: 1 (USB4C02475)
Boxcar Smoothing: 0 (USB4C02475)
Correct for Electrical Dark: No (USB4C02475)
Strobe/Lamp Enabled: No (USB4C02475)
Correct for Detector Non-linearity: No (USB4C02475)
Correct for Stray Light: No (USB4C02475)
Number of Pixels in Processed Spectrum: 3648
>>>>>Begin Processed Spectral Data<<<<<
344,91	-1450,000
345,13	-1450,000
345,35	-1450,000
345,57	-0,000
345,79	-47,826
346,00	-135,294
346,22	-1042,857
346,44	-190,909
346,66	295,745
346,87	439,130
347,09	653,846
347,31	8200,000
347,53	-2075,000
347,74	-125,581
347,96	-1171,429
348,18	252,941
348,40	500,000
348,61	-120,513
348,83	7000,000
349,05	274,359
349,27	388,235
349,48	-3450,000
349,70	392,857
349,92	152,381
350,14	194,595
350,35	-223,077
350,57	-472,222
350,79	-5,128
351,01	-500,000
351,22	360,000
351,44	633,333
351,66	327,778
351,87	1766,667
352,09	157,895
352,31	225,000
352,53	240,000
352,74	-928,571
352,96	168,421
353,18	109,375
353,40	-775,000
353,61	640,000
353,83	162,500
354,05	421,875
354,26	285,714
354,48	-2600,000
354,70	385,714
354,92	247,222
355,13	-125,581
355,35	107,407
355,57	225,000
355,78	35,714
356,00	221,277
356,22	163,636
356,44	237,209
356,65	592,857
356,87	200,000
357,09	305,714
357,30	143,182
357,52	-1333,333
357,74	290,323
357,95	342,857
358,17	117,391
358,39	264,000
358,60	216,667
358,82	313,636
359,04	258,974
359,26	122,727
359,47	-376,923
359,69	414,286
359,91	448,000
360,12	410,000
360,34	55,556
360,56	-1700,000
360,77	977,778
360,99	420,833
361,21	260,870
361,42	-1300,000
361,64	-237,037
361,86	149,254
362,07	726,667
362,29	320,000
362,51	345,946
362,72	-780,000
362,94	166,667
363,16	172,857
363,37	818,182
363,59	-5400,000
363,81	612,500
364,02	160,000
364,24	322,727
364,46	385,714
364,67	133,333
364,89	388,235
365,11	275,676
365,32	337,037
365,54	625,000
365,76	231,818
365,97	226,829
366,19	156,140
366,41	800,000
366,62	152,000
366,84	683,333
367,05	131,373
367,27	840,000
367,49	243,590
367,70	600,000
367,92	200,000
368,14	-276,923
368,35	173,529
368,57	254,545
368,79	273,077
369,00	83,333
369,22	361,111
369,43	542,105
369,65	-117,241
369,87	-682,353
370,08	525,000
370,30	635,714
370,51	418,182
370,73	358,333
370,95	370,000
371,16	175,439
371,38	220,755
371,60	320,000
371,81	156,522
372,03	-1425,000
372,24	-140,625
372,46	2333,333
372,68	214,706
372,89	123,853
373,11	120,930
373,32	113,445
373,54	800,000
373,76	355,556
373,97	196,970
374,19	-405,263
374,40	84,286
374,62	505,882
374,84	362,500
375,05	198,077
375,27	197,297
375,48	128,395
375,70	258,824
375,92	171,429
376,13	584,211
376,35	266,667
376,56	245,000
376,78	181,633
376,99	248,485
377,21	325,000
377,43	206,061
377,64	224,000
377,86	350,000
378,07	118,182
378,29	233,333
378,51	114,286
378,72	-295,455
378,94	100,000
379,15	172,727
379,37	437,500
379,58	213,333
379,80	154,545
380,01	166,000
380,23	169,565
380,45	185,417
380,66	105,556
380,88	213,514
381,09	213,043
381,31	233,333
381,52	321,739
381,74	132,143
381,95	321,429
382,17	368,000
382,39	103,226
382,60	605,882
382,82	310,345
383,03	2533,333
383,25	93,827
383,46	558,333
383,68	229,787
383,89	268,182
384,11	147,945
384,32	197,368
384,54	-1285,714
384,76	235,294
384,97	260,000
385,19	273,684
385,40	275,000
385,62	216,129
385,83	274,468
386,05	1342,857
386,26	288,462
386,48	615,385
386,69	258,333
386,91	620,000
387,12	243,590
387,34	110,169
387,55	274,286
387,77	304,000
387,98	175,510
388,20	164,789
388,41	142,857
388,63	181,429
388,84	287,500
389,06	220,930
389,27	156,250
389,49	122,892
389,70	150,847
389,92	150,000
390,13	289,744
390,35	62,500
390,56	153,125
390,78	250,000
390,99	168,889
391,21	81,818
391,42	52,174
391,64	-390,000
391,85	167,241
392,07	-492,857
392,28	234,615
392,50	1620,000
392,71	6300,000
392,93	96,774
393,14	256,522
393,36	119,231
393,57	283,333
393,79	95,238
394,00	128,767
394,22	140,000
394,43	271,429
394,65	267,857
394,86	153,125
395,08	-825,000
395,29	104,255
395,50	-100,000
395,72	571,429
395,93	424,000
396,15	7,143
396,36	90,000
396,58	-342,857
396,79	158,140
397,01	314,286
397,22	113,043
397,44	293,617
397,65	75,676
397,87	124,286
398,08	257,692
398,29	100,000
398,51	275,610
398,72	208,696
398,94	255,814
399,15	143,333
399,37	82,609
399,58	126,984
399,80	266,667
400,01	229,412
400,22	478,571
400,44	352,381
400,65	79,452
400,87	7300,000
401,08	83,146
401,30	102,667
401,51	114,545
401,72	124,194
401,94	273,171
402,15	83,673
402,37	95,455
402,58	120,930
402,80	431,250
403,01	88,889
403,22	143,373
403,44	175,000
403,65	75,510
403,87	101,333
404,08	167,308
404,30	125,000
404,51	47,143
404,72	936,364
404,94	79,518
405,15	167,164
405,37	127,473
405,58	270,968
405,79	392,857
406,01	99,259
406,22	80,952
406,44	149,123
406,65	91,667
406,86	128,000
407,08	67,901
407,29	58,667
407,51	72,115
407,72	65,347
407,93	62,025
408,15	120,455
408,36	262,857
408,58	98,333
408,79	44,961
409,00	44,681
409,22	47,059
409,43	60,360
409,64	56,410
409,86	72,727
410,07	62,609
410,29	37,333
410,50	22,222
410,71	60,484
410,93	0,000
411,14	44,860
411,35	38,889
411,57	38,889
411,78	25,000
412,00	40,000
412,21	46,460
412,42	31,220
412,64	57,778
412,85	23,834
413,06	34,375
413,28	38,431
413,49	45,581
413,70	39,056
413,92	38,095
414,13	21,739
414,34	21,561
414,56	39,574
414,77	16,605
414,98	33,216
415,20	25,090
415,41	10,714
415,63	23,077
415,84	29,917
416,05	8,434
416,27	22,563
416,48	18,720
416,69	16,279
416,91	21,600
417,12	11,086
417,33	19,639
417,55	22,800
417,76	20,507
417,97	17,228
418,19	6,695
418,40	1,066
418,61	13,722
418,83	15,669
419,04	14,884
419,25	4,625
419,46	18,138
419,68	12,389
419,89	12,516
420,10	13,441
420,32	13,245
420,53	9,069
420,74	9,916
420,96	7,583
421,17	11,060
421,38	9,767
421,60	7,717
421,81	9,810
422,02	4,318
422,23	7,136
422,45	5,933
422,66	5,602
422,87	5,683
423,09	4,979
423,30	3,707
423,51	2,974
423,73	5,994
423,94	6,137
424,15	4,825
424,36	7,138
424,58	6,124
424,79	7,287
425,00	7,878
425,22	9,000
425,43	9,297
425,64	9,316
425,85	11,443
426,07	12,572
426,28	15,750
426,49	16,684
426,71	16,883
426,92	18,747
427,13	19,474
427,34	25,011
427,56	27,350
427,77	24,265
427,98	29,195
428,19	29,391
428,41	32,353
428,62	33,516
428,83	33,790
429,04	34,966
429,26	34,248
429,47	38,708
429,68	36,641
429,89	38,490
430,11	40,162
430,32	41,659
430,53	39,961
430,74	40,532
430,96	41,757
431,17	42,097
431,38	42,449
431,59	40,498
431,81	42,908
432,02	42,574
432,23	42,468
432,44	43,248
432,66	43,047
432,87	42,295
433,08	43,452
433,29	42,528
433,51	43,457
433,72	41,082
433,93	43,982
434,14	41,171
434,35	41,930
434,57	42,349
434,78	42,092
434,99	41,083
435,20	42,269
435,42	42,189
435,63	42,453
435,84	42,347
436,05	41,840
436,26	43,170
436,48	45,199
436,69	45,973
436,90	45,236
437,11	46,002
437,32	45,869
437,54	46,834
437,75	46,759
437,96	46,250
438,17	45,974
438,38	44,990
438,60	43,991
438,81	44,594
439,02	44,413
439,23	44,468
439,44	43,780
439,66	45,060
439,87	44,618
440,08	44,842
440,29	45,276
440,50	46,413
440,72	47,883
440,93	47,084
441,14	47,321
441,35	47,457
441,56	46,960
441,77	46,989
441,99	46,491
442,20	46,481
442,41	44,922
442,62	45,558
442,83	44,530
443,04	45,123
443,26	45,630
443,47	45,758
443,68	44,614
443,89	45,104
444,10	44,245
444,31	44,545
444,53	44,878
444,74	43,922
444,95	43,337
445,16	42,223
445,37	42,244
445,58	40,281
445,80	40,140
446,01	38,309
446,22	38,079
446,43	36,445
446,64	33,394
446,85	32,542
447,06	30,956
447,28	28,871
447,49	26,925
447,70	24,709
447,91	22,877
448,12	20,569
448,33	18,653
448,54	16,523
448,76	14,751
448,97	12,898
449,18	11,751
449,39	10,162
449,60	8,478
449,81	7,781
450,02	6,468
450,23	5,566
450,45	5,066
450,66	4,107
450,87	3,537
451,08	3,250
451,29	3,215
451,50	2,087
451,71	2,159
451,92	1,844
452,13	1,675
452,35	1,267
452,56	1,170
452,77	1,348
452,98	1,185
453,19	1,221
453,40	0,820
453,61	0,972
453,82	0,564
454,03	0,816
454,25	0,614
454,46	0,746
454,67	0,630
454,88	0,835
455,09	0,728
455,30	0,676
455,51	0,502
455,72	0,757
455,93	0,765
456,14	0,534
456,35	0,388
456,56	0,457
456,78	0,712
456,99	0,964
457,20	0,226
457,41	0,382
457,62	0,427
457,83	0,618
458,04	0,773
458,25	0,358
458,46	0,686
458,67	0,785
458,88	0,653
459,09	0,387
459,30	0,231
459,51	0,383
459,73	0,145
459,94	0,532
460,15	0,454
460,36	0,197
460,57	0,505
460,78	0,454
460,99	0,457
461,20	0,352
461,41	0,408
461,62	0,251
461,83	0,230
462,04	0,371
462,25	0,340
462,46	0,480
462,67	0,275
462,88	0,391
463,09	0,276
463,30	0,302
463,51	0,232
463,72	0,429
463,93	0,459
464,15	0,500
464,36	0,304
464,57	0,181
464,78	0,314
464,99	0,558
465,20	0,171
465,41	0,218
465,62	0,426
465,83	0,369
466,04	0,255
466,25	0,449
466,46	0,281
466,67	0,299
466,88	0,180
467,09	0,318
467,30	0,275
467,51	0,323
467,72	0,463
467,93	0,196
468,14	0,409
468,35	0,420
468,56	0,231
468,77	0,199
468,98	0,438
469,19	0,243
469,40	0,308
469,61	0,387
469,82	0,222
470,03	0,237
470,24	0,399
470,45	0,398
470,66	0,523
470,87	0,301
471,08	0,531
471,29	0,340
471,50	0,455
471,71	0,297
471,92	0,307
472,13	0,534
472,34	0,292
472,55	0,414
472,76	0,504
472,97	0,293
473,18	0,211
473,39	0,398
473,60	0,202
473,81	0,312
474,01	0,550
474,22	0,469
474,43	0,313
474,64	0,647
474,85	0,274
475,06	0,500
475,27	0,374
475,48	0,287
475,69	0,233
475,90	0,320
476,11	0,514
476,32	0,347
476,53	0,470
476,74	0,532
476,95	0,451
477,16	0,344
477,37	0,484
477,58	0,282
477,79	0,415
478,00	0,362
478,21	0,667
478,41	0,342
478,62	0,433
478,83	0,484
479,04	0,633
479,25	0,317
479,46	0,282
479,67	0,067
479,88	0,377
480,09	0,416
480,30	0,577
480,51	0,722
480,72	0,293
480,93	0,367
481,14	0,467
481,34	0,333
481,55	0,561
481,76	0,558
481,97	0,248
482,18	0,266
482,39	0,353
482,60	0,409
482,81	0,316
483,02	0,309
483,23	0,592
483,44	0,450
483,65	0,228
483,85	0,211
484,06	0,577
484,27	0,362
484,48	0,295
484,69	0,384
484,90	0,234
485,11	0,532
485,32	0,290
485,53	0,491
485,73	0,407
485,94	0,258
486,15	0,301
486,36	0,321
486,57	0,397
486,78	0,495
486,99	0,445
487,20	0,465
487,41	0,478
487,61	0,271
487,82	0,278
488,03	0,429
488,24	0,332
488,45	0,580
488,66	0,412
488,87	0,465
489,08	0,422
489,28	0,096
489,49	0,434
489,70	0,343
489,91	0,387
490,12	0,180
490,33	0,421
490,54	0,263
490,74	0,457
490,95	0,327
491,16	0,238
491,37	0,431
491,58	0,255
491,79	0,312
492,00	0,144
492,20	0,370
492,41	0,414
492,62	0,499
492,83	0,287
493,04	0,442
493,25	0,540
493,45	0,342
493,66	0,515
493,87	0,389
494,08	0,263
494,29	0,372
494,50	0,490
494,70	0,459
494,91	0,699
495,12	0,607
495,33	0,751
495,54	0,613
495,75	0,672
495,95	0,931
496,16	0,898
496,37	0,736
496,58	0,976
496,79	1,171
496,99	1,294
497,20	1,982
497,41	2,377
497,62	2,768
497,83	3,681
498,04	4,474
498,24	5,214
498,45	6,145
498,66	7,460
498,87	8,496
499,08	9,776
499,28	11,040
499,49	12,779
499,70	14,106
499,91	15,632
500,12	17,034
500,32	18,704
500,53	20,014
500,74	21,298
500,95	22,507
501,15	24,432
501,36	25,595
501,57	26,507
501,78	27,951
501,99	28,670
502,19	30,294
502,40	31,368
502,61	32,198
502,82	33,179
503,02	34,112
503,23	34,881
503,44	35,287
503,65	35,834
503,86	37,188
504,06	37,282
504,27	38,466
504,48	38,484
504,69	39,052
504,89	39,152
505,10	39,584
505,31	40,254
505,52	40,357
505,72	41,141
505,93	41,927
506,14	41,427
506,35	42,225
506,55	43,012
506,76	42,923
506,97	43,120
507,18	44,021
507,38	44,301
507,59	44,480
507,80	45,164
508,01	44,738
508,21	45,554
508,42	45,538
508,63	45,302
508,84	45,997
509,04	45,199
509,25	45,025
509,46	44,797
509,67	44,238
509,87	45,095
510,08	44,690
510,29	43,894
510,49	44,039
510,70	42,987
510,91	43,157
511,12	41,732
511,32	41,271
511,53	41,025
511,74	39,570
511,94	39,207
512,15	37,670
512,36	37,828
512,57	36,258
512,77	35,312
512,98	34,581
513,19	34,417
513,39	33,348
513,60	32,080
513,81	31,227
514,01	30,354
514,22	29,344
514,43	28,087
514,64	27,892
514,84	26,824
515,05	26,547
515,26	25,577
515,46	24,712
515,67	23,874
515,88	23,321
516,08	22,390
516,29	21,727
516,50	20,812
516,70	20,210
516,91	19,016
517,12	18,183
517,32	17,282
517,53	16,497
517,74	15,482
517,95	15,154
518,15	14,204
518,36	13,646
518,57	12,073
518,77	11,677
518,98	10,776
519,19	9,872
519,39	9,079
519,60	7,905
519,80	7,571
520,01	6,579
520,22	6,082
520,42	5,588
520,63	4,668
520,84	4,092
521,04	3,527
521,25	2,799
521,46	2,416
521,66	2,119
521,87	1,684
522,08	1,398
522,28	1,355
522,49	1,127
522,70	0,875
522,90	0,765
523,11	0,617
523,31	0,505
523,52	0,631
523,73	0,355
523,93	0,563
524,14	0,328
524,35	0,442
524,55	0,485
524,76	0,420
524,97	0,427
525,17	0,341
525,38	0,407
525,58	0,304
525,79	0,380
526,00	0,410
526,20	0,357
526,41	0,387
526,61	0,437
526,82	0,351
527,03	0,414
527,23	0,159
527,44	0,297
527,64	0,361
527,85	0,288
528,06	0,446
528,26	0,250
528,47	0,330
528,68	0,302
528,88	0,272
529,09	0,384
529,29	0,648
529,50	0,280
529,70	0,418
529,91	0,268
530,12	0,311
530,32	0,185
530,53	0,563
530,73	0,281
530,94	0,384
531,15	0,297
531,35	0,541
531,56	0,441
531,76	0,396
531,97	0,263
532,17	0,303
532,38	0,363
532,59	0,362
532,79	0,416
533,00	0,170
533,20	0,314
533,41	0,199
533,61	0,276
533,82	0,078
534,03	0,334
534,23	0,140
534,44	0,429
534,64	0,481
534,85	0,219
535,05	0,314
535,26	0,422
535,46	0,149
535,67	0,107
535,88	0,124
536,08	0,304
536,29	0,400
536,49	0,479
536,70	0,393
536,90	0,375
537,11	0,472
537,31	0,437
537,52	0,370
537,72	0,330
537,93	0,323
538,13	0,170
538,34	0,293
538,55	0,205
538,75	0,206
538,96	0,370
539,16	0,282
539,37	0,215
539,57	0,374
539,78	0,386
539,98	0,348
540,19	0,441
540,39	0,227
540,60	0,322
540,80	0,195
541,01	0,522
541,21	0,439
541,42	0,194
541,62	0,365
541,83	0,449
542,03	0,308
542,24	0,298
542,44	0,220
542,65	0,168
542,85	0,475
543,06	0,328
543,26	0,388
543,47	0,308
543,67	0,445
543,88	0,323
544,08	0,171
544,29	0,298
544,49	0,212
544,70	0,141
544,90	0,329
545,11	0,210
545,31	0,301
545,52	0,323
545,72	0,217
545,93	0,307
546,13	0,334
546,34	0,421
546,54	0,315
546,75	0,365
546,95	0,530
547,15	0,245
547,36	0,221
547,56	0,229
547,77	0,348
547,97	-0,008
548,18	0,168
548,38	0,171
548,59	0,242
548,79	0,485
549,00	0,361
549,20	0,270
549,41	0,377
549,61	0,273
549,81	0,277
550,02	0,179
550,22	0,161
550,43	0,255
550,63	0,397
550,84	0,362
551,04	0,239
551,25	0,448
551,45	0,446
551,65	0,193
551,86	0,232
552,06	0,260
552,27	0,273
552,47	0,184
552,68	0,386
552,88	0,366
553,08	0,260
553,29	0,396
553,49	0,407
553,70	0,339
553,90	0,318
554,11	0,438
554,31	0,270
554,51	0,508
554,72	0,380
554,92	0,482
555,13	0,389
555,33	0,382
555,53	0,417
555,74	0,518
555,94	0,370
556,15	0,363
556,35	0,262
556,56	0,259
556,76	0,295
556,96	0,368
557,17	0,351
557,37	0,547
557,58	0,126
557,78	0,326
557,98	0,478
558,19	0,443
558,39	0,409
558,59	0,463
558,80	0,643
559,00	0,630
559,21	0,770
559,41	0,626
559,61	0,724
559,82	0,868
560,02	1,038
560,23	1,157
560,43	1,391
560,63	1,466
560,84	1,610
561,04	2,129
561,24	2,287
561,45	2,788
561,65	3,097
561,85	3,898
562,06	4,419
562,26	4,836
562,47	5,749
562,67	6,446
562,87	7,130
563,08	8,269
563,28	9,474
563,48	10,499
563,69	11,291
563,89	12,846
564,09	14,140
564,30	15,514
564,50	16,460
564,70	18,058
564,91	19,342
565,11	20,058
565,31	21,291
565,52	21,897
565,72	23,090
565,92	23,739
566,13	24,223
566,33	25,484
566,53	26,052
566,74	26,478
566,94	27,329
567,14	28,312
567,35	28,516
567,55	29,867
567,75	30,021
567,96	30,655
568,16	31,627
568,36	32,378
568,57	33,587
568,77	33,849
568,97	35,166
569,18	35,777
569,38	36,729
569,58	38,003
569,79	39,001
569,99	39,499
570,19	40,672
570,39	41,237
570,60	41,450
570,80	42,178
571,00	43,118
571,21	43,994
571,41	43,923
571,61	44,135
571,82	44,539
572,02	44,877
572,22	44,806
572,42	45,381
572,63	45,565
572,83	45,471
573,03	45,917
573,24	46,866
573,44	47,439
573,64	46,359
573,84	46,884
574,05	46,875
574,25	46,904
574,45	47,102
574,66	47,954
574,86	47,347
575,06	47,483
575,26	47,858
575,47	47,846
575,67	47,237
575,87	46,858
576,07	47,225
576,28	46,910
576,48	47,338
576,68	47,250
576,88	47,067
577,09	45,696
577,29	46,447
577,49	46,365
577,69	46,431
577,90	46,363
578,10	45,660
578,30	46,527
578,50	45,731
578,71	45,966
578,91	46,943
579,11	46,573
579,31	46,926
579,52	47,285
579,72	46,775
579,92	47,195
580,12	46,474
580,33	47,538
580,53	46,265
580,73	47,201
580,93	46,723
581,13	46,793
581,34	46,028
581,54	45,535
581,74	45,514
581,94	44,558
582,15	44,627
582,35	44,706
582,55	43,970
582,75	42,509
582,95	41,924
583,16	41,935
583,36	40,992
583,56	40,916
583,76	40,422
583,96	39,910
584,17	39,175
584,37	38,774
584,57	38,751
584,77	38,135
584,97	37,276
585,18	37,077
585,38	36,031
585,58	35,097
585,78	35,018
585,98	34,857
586,19	33,218
586,39	32,068
586,59	31,996
586,79	30,718
586,99	29,114
587,20	28,083
587,40	26,823
587,60	25,195
587,80	24,018
588,00	22,752
588,20	21,206
588,41	19,817
588,61	18,636
588,81	16,695
589,01	14,832
589,21	13,662
589,41	12,149
589,62	11,001
589,82	9,859
590,02	8,840
590,22	7,598
590,42	6,720
590,62	5,828
590,83	4,646
591,03	4,322
591,23	3,915
591,43	3,391
591,63	2,862
591,83	2,454
592,03	2,077
592,24	1,783
592,44	1,393
592,64	1,301
592,84	1,124
593,04	0,946
593,24	0,928
593,44	0,758
593,65	0,534
593,85	0,638
594,05	0,587
594,25	0,447
594,45	0,346
594,65	0,227
594,85	0,234
595,06	0,306
595,26	0,621
595,46	0,236
595,66	0,327
595,86	0,269
596,06	0,364
596,26	0,258
596,46	0,439
596,66	0,287
596,87	0,192
597,07	0,271
597,27	0,250
597,47	0,343
597,67	0,275
597,87	0,138
598,07	0,296
598,27	0,275
598,47	0,334
598,67	0,290
598,88	0,176
599,08	0,192
599,28	0,432
599,48	0,152
599,68	0,436
599,88	0,326
600,08	0,181
600,28	0,236
600,48	0,170
600,68	0,276
600,88	0,377
601,09	0,218
601,29	0,396
601,49	0,207
601,69	0,192
601,89	0,331
602,09	0,306
602,29	0,181
602,49	0,231
602,69	0,110
602,89	0,190
603,09	0,288
603,29	0,376
603,49	0,268
603,69	0,358
603,90	-0,038
604,10	0,232
604,30	0,255
604,50	0,205
604,70	0,162
604,90	0,194
605,10	0,209
605,30	-0,038
605,50	0,096
605,70	0,448
605,90	0,019
606,10	0,249
606,30	0,117
606,50	0,418
606,70	0,270
606,90	0,062
607,10	0,216
607,30	0,306
607,50	0,174
607,70	0,365
607,90	0,341
608,10	0,433
608,30	0,231
608,50	0,112
608,70	0,332
608,90	0,338
609,11	0,160
609,31	0,280
609,51	0,270
609,71	0,254
609,91	0,144
610,11	0,402
610,31	0,328
610,51	0,350
610,71	0,262
610,91	0,231
611,11	0,102
611,31	0,113
611,51	0,207
611,71	0,095
611,91	0,375
612,11	0,224
612,31	0,332
612,51	0,169
612,71	0,195
612,91	-0,055
613,11	0,187
613,31	0,308
613,51	0,151
613,71	0,203
613,91	0,210
614,11	0,239
614,31	0,047
614,50	0,319
614,70	0,256
614,90	0,064
615,10	0,177
615,30	0,262
615,50	0,163
615,70	0,389
615,90	0,172
616,10	0,156
616,30	0,322
616,50	0,216
616,70	0,080
616,90	0,154
617,10	0,255
617,30	0,036
617,50	0,348
617,70	0,160
617,90	0,147
618,10	0,249
618,30	0,095
618,50	0,258
618,70	0,193
618,90	0,068
619,10	0,140
619,30	-0,036
619,49	0,320
619,69	0,226
619,89	0,265
620,09	0,127
620,29	0,304
620,49	0,333
620,69	0,055
620,89	0,302
621,09	0,097
621,29	0,205
621,49	0,258
621,69	0,086
621,89	0,324
622,09	0,187
622,29	0,097
622,48	0,352
622,68	0,148
622,88	0,191
623,08	0,186
623,28	0,151
623,48	0,191
623,68	0,098
623,88	0,012
624,08	0,215
624,28	0,340
624,48	0,351
624,67	0,070
624,87	0,302
625,07	0,372
625,27	0,119
625,47	0,285
625,67	0,265
625,87	0,118
626,07	0,244
626,27	0,030
626,47	0,151
626,66	0,053
626,86	0,200
627,06	0,265
627,26	0,184
627,46	0,071
627,66	0,075
627,86	0,243
628,06	0,281
628,25	0,233
628,45	0,308
628,65	0,120
628,85	0,153
629,05	0,232
629,25	0,115
629,45	0,165
629,65	0,119
629,84	0,240
630,04	0,176
630,24	0,290
630,44	0,106
630,64	0,356
630,84	0,195
631,04	0,293
631,23	0,223
631,43	0,112
631,63	0,004
631,83	0,251
632,03	0,139
632,23	0,241
632,42	0,090
632,62	0,286
632,82	0,178
633,02	0,303
633,22	0,178
633,42	0,223
633,62	0,069
633,81	0,167
634,01	0,272
634,21	0,295
634,41	0,332
634,61	0,261
634,80	0,181
635,00	0,372
635,20	0,322
635,40	0,048
635,60	0,240
635,80	0,408
635,99	0,402
636,19	0,302
636,39	0,232
636,59	0,180
636,79	0,252
636,98	0,303
637,18	0,185
637,38	0,393
637,58	0,129
637,78	0,427
637,97	0,341
638,17	0,305
638,37	0,571
638,57	-0,006
638,77	0,210
638,96	0,389
639,16	0,433
639,36	0,269
639,56	0,361
639,76	0,153
639,95	0,473
640,15	0,280
640,35	0,012
640,55	0,181
640,75	0,384
640,94	0,188
641,14	0,481
641,34	0,204
641,54	0,315
641,73	0,331
641,93	0,462
642,13	0,387
642,33	0,260
642,53	0,460
642,72	0,364
642,92	0,443
643,12	0,240
643,32	0,732
643,51	0,501
643,71	0,181
643,91	0,406
644,11	0,363
644,30	0,219
644,50	0,467
644,70	0,446
644,90	0,492
645,09	0,602
645,29	0,461
645,49	0,207
645,69	0,251
645,88	0,439
646,08	0,181
646,28	0,657
646,48	0,125
646,67	0,481
646,87	0,376
647,07	0,477
647,26	0,962
647,46	-0,060
647,66	0,205
647,86	0,514
648,05	0,554
648,25	0,710
648,45	0,070
648,65	0,245
648,84	0,161
649,04	0,617
649,24	0,516
649,43	0,173
649,63	0,241
649,83	0,478
650,03	0,565
650,22	0,353
650,42	0,492
650,62	0,411
650,81	0,677
651,01	0,599
651,21	0,556
651,40	0,710
651,60	0,349
651,80	0,727
652,00	0,650
652,19	0,574
652,39	0,309
652,59	0,667
652,78	0,501
652,98	0,116
653,18	0,519
653,37	0,652
653,57	0,400
653,77	0,309
653,96	0,170
654,16	0,513
654,36	0,348
654,55	0,455
654,75	0,423
654,95	0,281
655,14	0,285
655,34	0,777
655,54	0,637
655,73	0,182
655,93	0,602
656,13	0,209
656,32	-0,088
656,52	0,865
656,72	0,573
656,91	0,671
657,11	0,560
657,31	0,383
657,50	0,500
657,70	0,512
657,90	0,626
658,09	0,451
658,29	0,493
658,49	0,323
658,68	0,391
658,88	0,689
659,07	0,654
659,27	0,349
659,47	0,514
659,66	0,230
659,86	0,349
660,06	0,372
660,25	0,433
660,45	0,877
660,64	0,272
660,84	0,383
661,04	0,473
661,23	0,464
661,43	0,299
661,63	0,585
661,82	0,381
662,02	0,816
662,21	0,532
662,41	0,743
662,61	0,957
662,80	0,448
663,00	0,364
663,19	0,725
663,39	0,242
663,59	0,784
663,78	0,730
663,98	0,769
664,17	1,040
664,37	0,715
664,57	0,531
664,76	0,365
664,96	0,358
665,15	0,289
665,35	0,339
665,55	0,427
665,74	0,481
665,94	0,363
666,13	0,249
666,33	0,734
666,53	0,610
666,72	0,270
666,92	0,445
667,11	0,574
667,31	0,206
667,50	0,182
667,70	0,378
667,90	0,261
668,09	0,098
668,29	0,499
668,48	0,423
668,68	0,252
668,87	0,604
669,07	0,000
669,26	0,256
669,46	0,657
669,66	0,530
669,85	0,174
670,05	0,552
670,24	0,376
670,44	0,165
670,63	0,164
670,83	0,476
671,02	0,313
671,22	0,589
671,42	0,201
671,61	0,479
671,81	0,577
672,00	0,545
672,20	0,182
672,39	0,435
672,59	0,225
672,78	0,158
672,98	0,392
673,17	0,348
673,37	0,082
673,56	0,501
673,76	0,189
673,95	0,328
674,15	0,390
674,34	0,286
674,54	0,699
674,73	0,555
674,93	0,376
675,13	0,592
675,32	0,414
675,52	0,434
675,71	0,583
675,91	0,408
676,10	0,446
676,30	0,254
676,49	0,007
676,69	0,548
676,88	0,257
677,08	0,236
677,27	0,378
677,47	0,481
677,66	0,272
677,86	0,365
678,05	0,300
678,24	0,330
678,44	0,642
678,63	0,330
678,83	0,427
679,02	0,547
679,22	0,463
679,41	0,524
679,61	0,249
679,80	0,189
680,00	0,172
680,19	0,322
680,39	0,296
680,58	0,424
680,78	0,201
680,97	0,410
681,17	0,311
681,36	0,124
681,56	0,365
681,75	0,162
681,94	0,165
682,14	0,328
682,33	0,282
682,53	0,227
682,72	0,220
682,92	0,501
683,11	0,158
683,31	0,441
683,50	0,355
683,69	0,365
683,89	0,447
684,08	0,344
684,28	0,245
684,47	0,186
684,67	0,268
684,86	0,439
685,06	0,306
685,25	0,424
685,44	0,242
685,64	0,394
685,83	0,517
686,03	0,366
686,22	0,446
686,42	0,448
686,61	0,418
686,80	0,292
687,00	0,329
687,19	0,351
687,39	0,440
687,58	0,331
687,77	0,704
687,97	0,565
688,16	0,617
688,36	0,430
688,55	0,477
688,74	0,319
688,94	0,406
689,13	0,496
689,33	0,366
689,52	0,470
689,71	0,476
689,91	0,534
690,10	0,472
690,30	0,233
690,49	0,485
690,68	0,591
690,88	0,376
691,07	0,404
691,27	0,580
691,46	0,517
691,65	0,514
691,85	0,460
692,04	0,380
692,23	0,281
692,43	0,463
692,62	0,475
692,82	0,365
693,01	0,378
693,20	0,246
693,40	0,304
693,59	0,268
693,78	0,345
693,98	0,073
694,17	0,295
694,36	0,593
694,56	0,282
694,75	0,145
694,94	0,248
695,14	0,284
695,33	0,360
695,53	0,451
695,72	0,297
695,91	-0,111
696,11	0,263
696,30	0,240
696,49	0,245
696,69	0,046
696,88	0,117
697,07	0,208
697,27	0,181
697,46	0,330
697,65	0,244
697,85	0,088
698,04	0,272
698,23	0,182
698,43	0,368
698,62	0,122
698,81	0,414
699,01	0,356
699,20	0,337
699,39	0,418
699,58	0,413
699,78	0,084
699,97	0,251
700,16	0,339
700,36	0,543
700,55	0,492
700,74	0,779
700,94	0,368
701,13	0,199
701,32	0,330
701,52	0,448
701,71	0,471
701,90	0,523
702,09	0,499
702,29	0,885
702,48	0,387
702,67	0,714
702,87	0,899
703,06	1,265
703,25	0,831
703,44	0,282
703,64	0,691
703,83	0,459
704,02	1,254
704,22	0,517
704,41	0,588
704,60	1,838
704,79	0,449
704,99	1,373
705,18	1,457
705,37	1,224
705,56	1,322
705,76	1,120
705,95	1,590
706,14	0,522
706,33	0,414
706,53	1,622
706,72	0,586
706,91	1,535
707,11	0,559
707,30	0,472
707,49	1,893
707,68	1,591
707,88	1,335
708,07	1,316
708,26	1,019
708,45	1,609
708,64	1,740
708,84	1,456
709,03	1,892
709,22	0,000
709,41	3,495
709,61	0,116
709,80	2,344
709,99	2,194
710,18	3,577
710,38	0,849
710,57	0,508
710,76	0,000
710,95	1,859
711,14	3,409
711,34	2,684
711,53	2,380
711,72	2,677
711,91	3,100
712,11	4,043
712,30	2,193
712,49	1,876
712,68	0,356
712,87	2,327
713,07	2,650
713,26	2,957
713,45	1,332
713,64	1,571
713,83	0,704
714,03	0,492
714,22	0,543
714,41	2,048
714,60	1,898
714,79	0,192
714,99	2,984
715,18	4,636
715,37	2,198
715,56	1,498
715,75	3,002
715,94	4,380
716,14	3,082
716,33	3,382
716,52	2,411
716,71	4,304
716,90	3,385
717,10	2,784
717,29	2,645
717,48	2,336
717,67	1,692
717,86	5,248
718,05	5,094
718,24	4,518
718,44	4,984
718,63	3,102
718,82	1,686
719,01	3,611
719,20	3,619
719,39	3,856
719,59	2,865
719,78	2,538
719,97	1,941
720,16	2,554
720,35	3,579
720,54	0,000
720,73	6,826
720,93	4,049
721,12	0,718
721,31	3,499
721,50	5,236
721,69	3,346
721,88	7,911
722,07	3,526
722,27	6,557
722,46	2,399
722,65	2,621
722,84	0,242
723,03	3,932
723,22	5,479
723,41	2,076
723,60	4,579
723,79	8,003
723,99	6,622
724,18	4,480
724,37	1,453
724,56	3,918
724,75	5,304
724,94	8,699
725,13	3,777
725,32	5,941
725,51	6,140
725,71	7,631
725,90	7,467
726,09	6,941
726,28	6,101
726,47	0,986
726,66	6,498
726,85	7,014
727,04	3,466
727,23	4,680
727,42	11,020
727,61	4,938
727,81	2,486
728,00	4,054
728,19	7,259
728,38	2,511
728,57	7,188
728,76	10,193
728,95	8,750
729,14	3,571
729,33	6,667
729,52	7,762
729,71	7,484
729,90	7,033
730,09	3,279
730,28	5,431
730,48	7,111
730,67	9,487
730,86	9,102
731,05	4,201
731,24	4,512
731,43	10,105
731,62	5,842
731,81	4,654
732,00	7,904
732,19	3,245
732,38	10,897
732,57	6,479
732,76	8,071
732,95	3,475
733,14	-0,143
733,33	2,381
733,52	8,006
733,71	7,891
733,90	2,966
734,09	7,568
734,28	7,087
734,47	12,917
734,66	3,342
734,85	3,286
735,04	10,699
735,23	10,224
735,42	8,470
735,61	8,309
735,81	8,876
736,00	3,134
736,19	6,231
736,38	5,988
736,57	10,562
736,76	10,219
736,95	7,643
737,14	5,901
737,33	14,003
737,52	5,538
737,71	7,869
737,90	12,983
738,09	7,458
738,28	9,567
738,47	1,277
738,66	8,173
738,85	9,760
739,04	5,146
739,22	7,525
739,41	13,603
739,60	8,020
739,79	4,137
739,98	3,763
740,17	8,703
740,36	13,924
740,55	12,580
740,74	12,350
740,93	8,413
741,12	5,714
741,31	7,923
741,50	9,452
741,69	5,310
741,88	2,964
742,07	15,036
742,26	8,571
742,45	14,754
742,64	13,528
742,83	9,735
743,02	5,895
743,21	13,718
743,40	4,762
743,59	13,971
743,78	9,198
743,97	20,192
744,16	11,811
744,34	4,895
744,53	18,557
744,72	7,098
744,91	6,513
745,10	15,723
745,29	16,331
745,48	16,818
745,67	7,517
745,86	13,907
746,05	8,531
746,24	12,990
746,43	12,206
746,62	13,147
746,81	17,079
747,00	12,691
747,18	16,122
747,37	11,368
747,56	19,294
747,75	4,187
747,94	18,932
748,13	27,740
748,32	14,524
748,51	14,721
748,70	13,656
748,89	12,881
749,08	-7,558
749,26	12,115
749,45	8,043
749,64	8,816
749,83	15,506
750,02	18,207
750,21	6,361
750,40	28,138
750,59	17,158
750,78	13,217
750,96	22,099
751,15	17,991
751,34	11,364
751,53	20,219
751,72	12,394
751,91	7,254
752,10	7,592
752,29	9,867
752,47	10,602
752,66	24,444
752,85	20,219
753,04	6,145
753,23	4,644
753,42	12,938
753,61	23,197
753,80	17,869
753,98	25,253
754,17	9,422
754,36	13,548
754,55	15,060
754,74	13,636
754,93	13,499
755,12	22,552
755,30	17,208
755,49	15,116
755,68	26,074
755,87	14,201
756,06	18,056
756,25	19,453
756,43	3,020
756,62	33,230
756,81	21,523
757,00	9,868
757,19	19,792
757,38	13,900
757,56	-0,800
757,75	25,597
757,94	11,027
758,13	14,726
758,32	21,958
758,51	17,845
758,69	7,336
758,88	3,367
759,07	22,156
759,26	12,367
759,45	20,000
759,63	25,108
759,82	19,298
760,01	13,919
760,20	28,931
760,39	25,552
760,57	9,059
760,76	34,146
760,95	23,264
761,14	18,978
761,33	19,032
761,51	27,500
761,70	21,933
761,89	8,889
762,08	34,201
762,27	28,881
762,45	10,507
762,64	16,080
762,83	25,100
763,02	30,870
763,21	8,000
763,39	34,965
763,58	14,498
763,77	20,675
763,96	25,100
764,14	15,833
764,33	-4,762
764,52	18,750
764,71	28,852
764,89	33,036
765,08	6,897
765,27	14,894
765,46	30,045
765,65	29,020
765,83	20,362
766,02	0,476
766,21	8,197
766,40	25,292
766,58	17,989
766,77	17,431
766,96	29,675
767,15	31,092
767,33	24,155
767,52	19,651
767,71	30,702
767,90	10,553
768,08	19,760
768,27	35,366
768,46	37,719
768,64	27,315
768,83	26,471
769,02	15,271
769,21	43,229
769,39	20,000
769,58	31,169
769,77	48,936
769,96	31,532
770,14	24,590
770,33	38,785
770,52	32,374
770,70	32,432
770,89	45,946
771,08	13,253
771,27	27,895
771,45	17,059
771,64	38,788
771,83	26,961
772,01	34,021
772,20	28,856
772,39	37,342
772,57	44,776
772,76	50,000
772,95	24,138
773,14	70,748
773,32	23,729
773,51	14,286
773,70	37,410
773,88	31,613
774,07	37,563
774,26	32,258
774,44	60,902
774,63	43,713
774,82	11,688
775,00	25,234
775,19	29,762
775,38	30,851
775,56	49,689
775,75	43,956
775,94	32,500
776,12	33,333
776,31	17,293
776,50	36,986
776,68	30,645
776,87	49,282
777,06	34,591
777,24	40,336
777,43	52,406
777,62	56,742
777,80	33,962
777,99	63,333
778,18	56,322
778,36	54,237
778,55	27,966
778,74	34,375
778,92	41,358
779,11	90,909
779,29	10,638
779,48	35,461
779,67	40,541
779,85	41,228
780,04	55,072
780,23	28,571
780,41	72,034
780,60	34,228
780,79	47,581
780,97	46,405
781,16	32,447
781,34	68,919
781,53	22,321
781,72	14,414
781,90	53,293
782,09	51,163
782,28	40,816
782,46	60,000
782,65	35,915
782,83	55,346
783,02	65,789
783,21	54,135
783,39	42,857
783,58	93,043
783,76	50,340
783,95	72,535
784,14	96,053
784,32	7,059
784,51	66,216
784,69	20,312
784,88	85,047
785,06	35,099
785,25	67,376
785,44	75,806
785,62	39,286
785,81	55,556
785,99	19,549
786,18	62,162
786,37	89,011
786,55	68,056
786,74	58,182
786,92	39,860
787,11	28,472
787,29	22,321
787,48	47,312
787,67	76,415
787,85	70,886
788,04	41,441
788,22	48,515
788,41	61,417
788,59	57,237
788,78	61,538
788,96	71,074
789,15	37,500
789,34	56,731
789,52	33,871
789,71	58,993
789,89	45,455
790,08	61,250
790,26	63,057
790,45	111,111
790,63	36,782
790,82	75,385
791,00	66,372
791,19	17,600
791,38	46,667
791,56	60,000
791,75	68,056
791,93	50,000
792,12	47,826
792,30	45,255
792,49	42,424
792,67	47,794
792,86	47,200
793,04	63,889
793,23	55,789
793,41	54,348
793,60	72,222
793,78	69,524
793,97	90,972
794,15	84,962
794,34	22,667
794,52	63,441
794,71	58,915
794,89	37,121
795,08	72,800
795,26	78,667
795,45	79,167
795,63	75,806
795,82	65,934
796,00	74,000
796,19	43,902
796,37	48,855
796,56	24,272
796,74	51,579
796,93	90,909
797,11	61,446
797,30	54,444
797,48	67,188
797,67	56,911
797,85	45,385
798,04	43,220
798,22	114,103
798,41	46,154
798,59	64,762
798,77	71,084
798,96	53,704
799,14	73,387
799,33	68,807
799,51	26,389
799,70	106,154
799,88	59,633
800,07	79,389
800,25	110,843
800,44	111,111
800,62	123,611
800,80	45,775
800,99	150,685
801,17	65,517
801,36	97,143
801,54	45,000
801,73	64,211
801,91	53,719
802,10	89,412
802,28	55,200
802,46	43,421
802,65	69,065
802,83	78,667
803,02	47,581
803,20	146,988
803,39	63,218
803,57	37,008
803,75	48,780
803,94	22,222
804,12	80,690
804,31	43,478
804,49	46,400
804,67	32,353
804,86	61,947
805,04	27,711
805,23	69,912
805,41	61,667
805,59	60,959
805,78	83,200
805,96	72,289
806,15	56,436
806,33	64,474
806,51	66,667
806,70	39,850
806,88	90,698
807,07	68,468
807,25	53,846
807,43	36,607
807,62	69,912
807,80	28,571
807,99	66,154
808,17	46,457
808,35	35,000
808,54	44,203
808,72	104,505
808,90	66,438
809,09	31,522
809,27	58,667
809,46	86,813
809,64	82,927
809,82	55,629
810,01	32,031
810,19	26,263
810,37	66,406
810,56	87,778
810,74	54,545
810,92	48,667
811,11	40,351
811,29	81,132
811,48	47,692
811,66	97,753
811,84	27,473
812,03	36,885
812,21	61,404
812,39	37,391
812,58	70,526
812,76	61,871
812,94	39,759
813,13	44,681
813,31	75,000
813,49	53,704
813,68	21,818
813,86	39,326
814,04	47,107
814,23	46,988
814,41	29,213
814,59	53,398
814,78	50,000
814,96	39,623
815,14	56,075
815,33	50,388
815,51	52,756
815,69	71,429
815,87	73,267
816,06	73,913
816,24	36,646
816,42	38,971
816,61	60,377
816,79	41,379
816,97	50,000
817,16	32,544
817,34	90,476
817,52	44,628
817,70	62,376
817,89	52,593
818,07	69,178
818,25	56,122
818,44	38,462
818,62	47,287
818,80	45,113
818,98	69,427
819,17	57,983
819,35	61,170
819,53	58,955
819,72	70,886
819,90	59,690
820,08	40,171
820,26	54,310
820,45	35,570
820,63	89,286
820,81	65,600
820,99	59,574
821,18	61,905
821,36	41,772
821,54	53,793
821,73	71,111
821,91	56,140
822,09	24,194
822,27	52,903
822,46	65,441
822,64	64,800
822,82	53,591
823,00	37,017
823,19	52,747
823,37	40,000
823,55	48,864
823,73	80,000
823,91	61,594
824,10	32,796
824,28	48,241
824,46	37,864
824,64	39,474
824,83	53,416
825,01	46,000
825,19	50,000
825,37	45,217
825,56	44,811
825,74	70,918
825,92	22,293
826,10	57,955
826,28	45,833
826,47	46,316
826,65	79,433
826,83	40,517
827,01	41,040
827,19	36,310
827,38	56,790
827,56	42,614
827,74	33,520
827,92	28,488
828,10	46,795
828,29	52,071
828,47	24,390
828,65	23,077
828,83	24,242
829,01	34,239
829,20	49,451
829,38	48,864
829,56	41,304
829,74	29,560
829,92	37,302
830,10	26,437
830,29	34,171
830,47	33,668
830,65	12,805
830,83	41,964
831,01	41,667
831,20	72,330
831,38	32,536
831,56	55,814
831,74	60,664
831,92	72,368
832,10	37,143
832,29	63,514
832,47	5,618
832,65	41,176
832,83	25,822
833,01	32,500
833,19	30,317
833,37	43,891
833,56	34,177
833,74	24,020
833,92	7,870
834,10	19,087
834,28	36,287
834,46	47,964
834,64	31,944
834,83	28,182
835,01	39,004
835,19	22,000
835,37	32,231
835,55	12,500
835,73	38,424
835,91	38,376
836,09	22,814
836,28	30,627
836,46	22,400
836,64	40,977
836,82	23,529
837,00	36,232
837,18	14,126
837,36	54,582
837,54	25,000
837,72	25,862
837,91	35,448
838,09	23,108
838,27	30,667
838,45	18,794
838,63	22,059
838,81	21,519
838,99	28,629
839,17	19,595
839,35	21,277
839,53	10,175
839,72	24,060
839,90	26,117
840,08	39,077
840,26	26,190
840,44	26,284
840,62	14,483
840,80	33,333
840,98	20,392
841,16	20,913
841,34	22,074
841,52	22,936
841,70	22,769
841,89	14,919
842,07	22,884
842,25	41,379
842,43	2,586
842,61	32,982
842,79	25,989
842,97	23,127
843,15	23,762
843,33	14,196
843,51	9,639
843,69	31,054
843,87	20,522
844,05	21,884
844,23	24,925
844,41	17,555
844,59	28,818
844,77	17,647
844,95	27,457
845,13	17,846
845,31	10,756
845,50	21,466
845,68	22,830
845,86	8,046
846,04	24,860
846,22	12,534
846,40	32,258
846,58	9,117
846,76	2,957
846,94	22,195
847,12	18,653
847,30	19,845
847,48	17,028
847,66	26,108
847,84	11,749
848,02	14,976
848,20	20,930
848,38	25,071
848,56	17,045
848,74	22,434
848,92	17,207
849,10	10,250
849,28	26,113
849,46	21,067
849,64	19,861
849,82	-4,630
850,00	19,393
850,18	18,298
850,36	12,141
850,54	8,521
850,72	20,823
850,90	21,304
851,08	17,287
851,26	17,068
851,44	19,690
851,62	8,605
851,80	26,432
851,98	15,824
852,16	16,548
852,34	12,165
852,52	14,063
852,70	5,011
852,87	6,164
853,05	5,848
853,23	16,495
853,41	21,995
853,59	14,730
853,77	16,468
853,95	21,730
854,13	14,159
854,31	16,222
854,49	13,373
854,67	11,015
854,85	13,458
855,03	15,230
855,21	13,263
855,39	13,883
855,57	13,620
855,75	15,146
855,93	6,078
856,11	22,437
856,28	15,867
856,46	19,039
856,64	18,857
856,82	15,292
857,00	11,562
857,18	10,650
857,36	16,358
857,54	10,381
857,72	14,912
857,90	5,904
858,08	11,373
858,26	7,246
858,44	12,281
858,61	9,408
858,79	12,284
858,97	9,558
859,15	14,087
859,33	15,781
859,51	13,233
859,69	8,408
859,87	10,708
860,05	5,861
860,23	7,955
860,40	11,566
860,58	9,180
860,76	6,508
860,94	12,520
861,12	10,923
861,30	8,163
861,48	15,714
861,66	13,333
861,84	13,154
862,01	19,588
862,19	4,576
862,37	10,439
862,55	8,069
862,73	4,644
862,91	2,937
863,09	7,143
863,27	4,454
863,44	8,181
863,62	11,549
863,80	3,235
863,98	10,089
864,16	-0,434
864,34	13,013
864,52	7,909
864,69	13,596
864,87	6,946
865,05	12,517
865,23	8,366
865,41	5,780
865,59	7,941
865,76	12,678
865,94	16,021
866,12	15,613
866,30	3,647
866,48	11,873
866,66	4,704
866,83	16,794
867,01	7,673
867,19	8,192
867,37	3,105
867,55	5,735
867,73	11,058
867,90	4,671
868,08	3,144
868,26	11,397
868,44	5,510
868,62	6,388
868,79	8,477
868,97	4,156
869,15	-0,116
869,33	6,593
869,51	4,646
869,69	5,854
869,86	9,123
870,04	13,908
870,22	11,697
870,40	3,860
870,57	6,344
870,75	11,160
870,93	8,105
871,11	8,225
871,29	7,078
871,46	8,057
871,64	8,996
871,82	7,320
872,00	13,477
872,18	7,700
872,35	12,071
872,53	6,360
872,71	7,041
872,89	10,191
873,06	10,592
873,24	7,759
873,42	4,067
873,60	5,374
873,77	5,521
873,95	1,965
874,13	3,700
874,31	7,946
874,49	6,099
874,66	4,699
874,84	6,720
875,02	9,533
875,20	11,133
875,37	9,902
875,55	7,443
875,73	3,671
875,91	4,368
876,08	6,490
876,26	4,240
876,44	7,385
876,61	8,461
876,79	6,299
876,97	5,201
877,15	6,872
877,32	2,984
877,50	5,298
877,68	4,799
877,86	3,229
878,03	9,429
878,21	7,759
878,39	5,934
878,56	5,785
878,74	5,657
878,92	1,776
879,10	4,304
879,27	7,402
879,45	5,410
879,63	5,357
879,80	5,539
879,98	3,837
880,16	8,079
880,34	6,853
880,51	6,073
880,69	1,414
880,87	5,453
881,04	4,848
881,22	6,840
881,40	6,368
881,57	9,270
881,75	3,670
881,93	6,797
882,10	3,022
882,28	7,034
882,46	4,863
882,63	6,229
882,81	6,998
882,99	5,215
883,16	4,731
883,34	2,607
883,52	2,817
883,69	4,428
883,87	4,427
884,05	3,532
884,22	2,348
884,40	5,850
884,58	1,483
884,75	4,988
884,93	4,805
885,11	4,488
885,28	3,681
885,46	1,169
885,64	2,490
885,81	3,534
885,99	0,929
886,17	3,900
886,34	6,633
886,52	2,389
886,70	5,401
886,87	3,263
887,05	5,443
887,22	2,214
887,40	5,440
887,58	3,848
887,75	4,770
887,93	3,740
888,11	4,226
888,28	3,875
888,46	2,373
888,63	3,431
888,81	3,960
888,99	5,000
889,16	4,359
889,34	2,237
889,51	3,052
889,69	3,629
889,87	5,368
890,04	3,793
890,22	3,315
890,39	2,184
890,57	3,279
890,75	2,945
890,92	2,340
891,10	3,377
891,27	4,019
891,45	2,548
891,63	2,953
891,80	4,456
891,98	3,172
892,15	3,436
892,33	2,077
892,51	4,650
892,68	4,076
892,86	3,374
893,03	3,066
893,21	4,486
893,38	3,494
893,56	2,422
893,74	4,095
893,91	3,431
894,09	4,756
894,26	1,895
894,44	2,941
894,61	2,339
894,79	2,420
894,96	0,768
895,14	4,492
895,32	3,619
895,49	2,216
895,67	3,970
895,84	3,132
896,02	0,515
896,19	1,816
896,37	2,079
896,54	2,392
896,72	1,136
896,89	3,963
897,07	5,362
897,25	3,015
897,42	2,783
897,60	3,724
897,77	1,891
897,95	2,412
898,12	4,098
898,30	1,893
898,47	1,320
898,65	1,605
898,82	1,593
899,00	1,494
899,17	3,388
899,35	2,009
899,52	4,664
899,70	3,052
899,87	2,673
900,05	2,511
900,22	3,886
900,40	2,118
900,57	2,412
900,75	1,419
900,92	1,372
901,10	3,275
901,27	1,221
901,45	3,927
901,62	4,271
901,80	2,052
901,97	3,129
902,15	3,166
902,32	3,629
902,50	1,973
902,67	4,518
902,85	3,494
903,02	1,868
903,20	2,604
903,37	1,601
903,54	2,694
903,72	3,003
903,89	2,914
904,07	1,070
904,24	3,658
904,42	1,303
904,59	0,571
904,77	3,113
904,94	2,329
905,12	0,638
905,29	1,616
905,47	1,464
905,64	2,686
905,81	1,392
905,99	0,840
906,16	1,665
906,34	1,541
906,51	2,211
906,69	1,829
906,86	2,245
907,03	2,119
907,21	1,262
907,38	2,178
907,56	2,037
907,73	2,574
907,91	1,869
908,08	2,541
908,25	2,873
908,43	0,973
908,60	1,165
908,78	1,344
908,95	2,680
909,13	3,961
909,30	2,626
909,47	1,272
909,65	2,936
909,82	2,539
910,00	2,787
910,17	1,406
910,34	2,433
910,52	2,305
910,69	1,861
910,87	3,352
911,04	1,423
911,21	1,726
911,39	0,395
911,56	1,401
911,73	2,013
911,91	2,987
912,08	2,770
912,26	0,695
912,43	2,160
912,60	1,941
912,78	3,105
912,95	1,680
913,13	2,714
913,30	2,877
913,47	2,780
913,65	2,457
913,82	1,786
913,99	1,426
914,17	2,628
914,34	1,780
914,51	3,401
914,69	2,726
914,86	3,167
915,03	1,613
915,21	1,435
915,38	1,764
915,56	2,084
915,73	1,734
915,90	1,700
916,08	1,980
916,25	1,534
916,42	0,873
916,60	2,779
916,77	2,124
916,94	2,141
917,12	0,591
917,29	1,296
917,46	2,032
917,64	1,641
917,81	2,026
917,98	0,846
918,16	1,953
918,33	2,171
918,50	1,264
918,67	1,970
918,85	1,522
919,02	1,632
919,19	1,433
919,37	0,838
919,54	2,448
919,71	3,033
919,89	0,964
920,06	1,563
920,23	1,765
920,41	2,519
920,58	2,054
920,75	2,348
920,92	2,562
921,10	1,617
921,27	2,274
921,44	3,077
921,62	2,450
921,79	2,333
921,96	1,643
922,13	2,152
922,31	1,726
922,48	1,620
922,65	1,362
922,82	1,652
923,00	2,149
923,17	0,953
923,34	1,309
923,52	1,849
923,69	2,602
923,86	2,958
924,03	2,548
924,21	1,866
924,38	2,585
924,55	2,010
924,72	1,582
924,90	2,073
925,07	2,269
925,24	1,651
925,41	2,800
925,59	0,571
925,76	1,870
925,93	2,089
926,10	1,225
926,28	1,634
926,45	0,998
926,62	1,533
926,79	2,027
926,96	2,981
927,14	2,114
927,31	2,935
927,48	2,621
927,65	2,508
927,83	2,339
928,00	1,981
928,17	1,716
928,34	1,800
928,51	1,293
928,69	1,496
928,86	1,617
929,03	1,954
929,20	1,765
929,37	1,276
929,55	1,772
929,72	1,713
929,89	1,068
930,06	1,795
930,23	2,359
930,41	1,415
930,58	2,104
930,75	1,639
930,92	2,724
931,09	2,150
931,27	1,052
931,44	1,432
931,61	1,715
931,78	1,562
931,95	1,796
932,12	2,445
932,30	1,383
932,47	1,238
932,64	1,888
932,81	1,095
932,98	1,654
933,16	1,834
933,33	2,107
933,50	1,568
933,67	0,909
933,84	3,046
934,01	2,275
934,18	1,707
934,36	1,438
934,53	2,294
934,70	0,402
934,87	1,154
935,04	1,615
935,21	1,164
935,38	1,382
935,56	1,918
935,73	1,357
935,90	1,726
936,07	1,492
936,24	2,214
936,41	0,927
936,58	0,988
936,76	1,277
936,93	1,418
937,10	1,683
937,27	2,480
937,44	1,892
937,61	2,030
937,78	1,820
937,95	2,516
938,13	0,777
938,30	1,406
938,47	2,126
938,64	1,140
938,81	0,755
938,98	1,875
939,15	2,031
939,32	1,654
939,49	0,876
939,66	1,233
939,84	1,878
940,01	1,682
940,18	1,174
940,35	0,308
940,52	0,822
940,69	0,708
940,86	2,111
941,03	1,463
941,20	1,215
941,37	0,419
941,54	2,281
941,71	1,987
941,89	1,529
942,06	1,404
942,23	2,129
942,40	1,368
942,57	1,661
942,74	1,679
942,91	2,489
943,08	2,371
943,25	1,864
943,42	0,644
943,59	2,386
943,76	2,229
943,93	1,188
944,10	0,878
944,27	0,871
944,44	0,714
944,61	1,840
944,79	3,476
944,96	2,455
945,13	2,038
945,30	1,661
945,47	2,292
945,64	1,602
945,81	2,096
945,98	2,035
946,15	2,516
946,32	2,916
946,49	2,024
946,66	2,447
946,83	2,080
947,00	3,403
947,17	1,549
947,34	2,107
947,51	2,727
947,68	2,798
947,85	2,397
948,02	2,713
948,19	0,899
948,36	3,543
948,53	1,281
948,70	2,485
948,87	2,192
949,04	3,789
949,21	2,046
949,38	3,086
949,55	4,630
949,72	4,003
949,89	3,074
950,06	2,725
950,23	2,119
950,40	2,577
950,57	2,726
950,74	3,839
950,91	4,182
951,08	5,410
951,25	3,799
951,42	4,936
951,59	3,457
951,76	3,343
951,93	2,970
952,10	2,580
952,27	3,126
952,44	3,227
952,61	5,136
952,77	5,151
952,94	3,450
953,11	2,938
953,28	6,970
953,45	5,871
953,62	5,524
953,79	3,901
953,96	6,580
954,13	7,599
954,30	8,176
954,47	5,642
954,64	4,288
954,81	8,063
954,98	7,022
955,15	5,865
955,32	6,210
955,49	6,033
955,65	4,537
955,82	3,785
955,99	8,989
956,16	8,845
956,33	3,398
956,50	6,637
956,67	4,430
956,84	7,491
957,01	7,687
957,18	9,049
957,35	6,848
957,52	5,721
957,68	7,921
957,85	9,881
958,02	5,180
958,19	10,122
958,36	8,925
958,53	8,121
958,70	8,093
958,87	5,988
959,04	9,202
959,21	15,485
959,37	12,818
959,54	10,052
959,71	14,129
959,88	5,233
960,05	13,504
960,22	10,440
960,39	7,412
960,56	9,591
960,72	12,742
960,89	16,913
961,06	9,834
961,23	10,703
961,40	14,978
961,57	11,182
961,74	13,210
961,90	13,353
962,07	13,752
962,24	5,778
962,41	13,793
962,58	11,873
962,75	12,308
962,92	11,930
963,08	7,083
963,25	12,550
963,42	20,683
963,59	14,374
963,76	11,332
963,93	26,884
964,10	21,267
964,26	18,810
964,43	22,558
964,60	21,810
964,77	25,056
964,94	26,420
965,10	15,042
965,27	20,112
965,44	23,492
965,61	23,630
965,78	27,950
965,95	30,100
966,11	21,818
966,28	16,201
966,45	38,235
966,62	17,770
966,79	21,160
966,95	31,317
967,12	31,429
967,29	40,123
967,46	39,858
967,63	42,353
967,79	44,631
967,96	30,734
968,13	33,333
968,30	53,498
968,47	47,692
968,63	46,569
968,80	40,613
968,97	31,792
969,14	62,147
969,31	33,673
969,47	47,826
969,64	41,758
969,81	21,935
969,98	43,158
970,14	36,022
970,31	37,736
970,48	73,826
970,65	70,248
970,81	50,350
970,98	60,417
971,15	82,424
971,32	48,485
971,48	84,524
971,65	45,695
971,82	69,091
971,99	77,848
972,15	68,605
972,32	72,222
972,49	77,869
972,66	74,380
972,82	62,329
972,99	70,000
973,16	98,675
973,33	71,111
973,49	74,390
973,66	81,905
973,83	91,358
974,00	100,000
974,16	109,091
974,33	133,333
974,50	137,374
974,67	38,095
974,83	111,224
975,00	192,727
975,17	58,065
975,33	98,851
975,50	139,344
975,67	115,385
975,84	121,951
976,00	88,158
976,17	150,000
976,34	103,529
976,50	78,022
976,67	123,810
976,84	83,333
977,00	78,205
977,17	213,333
977,34	213,462
977,50	129,762
977,67	138,824
977,84	125,424
978,01	117,568
978,17	136,207
978,34	277,778
978,51	288,000
978,67	130,612
978,84	94,545
979,01	107,895
979,17	80,000
979,34	191,304
979,51	150,000
979,67	366,667
979,84	220,339
980,01	142,308
980,17	188,235
980,34	76,712
980,51	855,556
980,67	84,444
980,84	81,429
981,01	194,118
981,17	125,000
981,34	124,286
981,50	146,316
981,67	228,571
981,84	292,857
982,00	4200,000
982,17	176,563
982,34	217,073
982,50	0,000
982,67	-757,143
982,84	450,000
983,00	207,407
983,17	-642,857
983,33	444,444
983,50	195,122
983,67	136,232
983,83	419,048
984,00	256,522
984,17	777,778
984,33	-300,000
984,50	154,054
984,66	118,750
984,83	725,000
985,00	469,231
985,16	287,097
985,33	2800,000
985,49	148,837
985,66	222,500
985,83	-1933,333
985,99	1077,778
986,16	631,579
986,32	108,219
986,49	-1000,000
986,66	900,000
986,82	166,667
986,99	-960,000
987,15	206,061
987,32	676,471
987,49	135,714
987,65	-273,913
987,82	-230,000
987,98	100,000
988,15	471,429
988,31	208,571
988,48	164,706
988,65	820,000
988,81	127,273
988,98	324,324
989,14	840,000
989,31	161,017
989,47	-103,571
989,64	516,667
989,80	145,745
989,97	190,909
990,14	628,571
990,30	-625,000
990,47	-162,500
990,63	286,842
990,80	916,667
990,96	941,667
991,13	213,333
991,29	235,294
991,46	191,667
991,62	0,000
991,79	-580,000
991,95	452,941
992,12	950,000
992,29	-257,143
992,45	280,952
992,62	-92,857
992,78	-350,000
992,95	193,548
993,11	1037,500
993,28	-4100,000
993,44	-172,414
993,61	163,158
993,77	0,000
993,94	269,231
994,10	1285,714
994,27	-89,474
994,43	228,125
994,60	664,286
994,76	315,152
994,93	-670,000
995,09	-381,250
995,26	370,833
995,42	850,000
995,59	283,333
995,75	-591,667
995,92	-1385,714
996,08	-1060,000
996,25	193,939
996,41	1640,000
996,58	276,000
996,74	-650,000
996,91	129,032
997,07	312,000
997,23	154,902
997,40	1316,667
997,56	-2033,333
997,73	313,043
997,89	1520,000
998,06	136,842
998,22	246,809
998,39	255,102
998,55	573,684
998,72	-4200,000
998,88	180,000
999,05	593,333
999,21	523,529
999,37	218,605
999,54	196,774
999,70	280,952
999,87	883,333
1000,03	363,333
1000,20	392,857
1000,36	-587,500
1000,52	3500,000
1000,69	428,000
1000,85	-300,000
1001,02	319,048
1001,18	900,000
1001,35	0,000
1001,51	300,000
1001,67	385,000
1001,84	182,927
1002,00	-136,364
1002,17	975,000
1002,33	-525,000
1002,50	758,333
1002,66	1212,500
1002,82	253,659
1002,99	-200,000
1003,15	-8900,000
1003,32	-450,000
1003,48	-2500,000
1003,64	213,043
1003,81	-284,211
1003,97	201,449
1004,14	-130,909
1004,30	254,545
1004,46	-8400,000
1004,63	-330,769
1004,79	183,784
1004,95	-1520,000
1005,12	-161,538
1005,28	275,000
1005,45	-950,000
1005,61	346,154
1005,77	-857,143
1005,94	291,304
1006,10	-760,000
1006,26	-174,074
1006,43	269,697
1006,59	358,065
1006,76	-240,000
1006,92	339,130
1007,08	98,485
1007,25	177,778
1007,41	209,091
1007,57	-476,471
1007,74	160,870
1007,90	-700,000
1008,06	-120,000
1008,23	-457,895
1008,39	141,667
1008,55	88,235
1008,72	-1300,000
1008,88	-185,714
1009,04	-1277,778
1009,21	368,750
1009,37	403,226
1009,53	-405,000
1009,70	-13,636
1009,86	647,368
1010,02	229,545
1010,19	840,000
1010,35	9800,000
1010,51	271,429
1010,68	386,364
1010,84	545,000
1011,00	550,000
1011,17	3366,667
1011,33	273,077
1011,49	581,250
1011,66	412,500
1011,82	-1075,000
1011,98	666,667
1012,14	238,462
1012,31	225,000
1012,47	-828,571
1012,63	5600,000
1012,80	477,778
1012,96	191,667
1013,12	-218,519
1013,29	445,833
1013,45	-179,412
1013,61	-1580,000
1013,77	-733,333
1013,94	441,667
1014,10	6400,000
1014,26	-58,824
1014,43	284,211
1014,59	0,000
1014,75	870,000
1014,91	240,000
1015,08	326,923
1015,24	340,000
1015,40	393,333
1015,56	717,647
1015,73	259,184
1015,89	922,222
1016,05	240,541
1016,21	325,926
1016,38	221,053
1016,54	-336,000
1016,70	573,684
1016,86	-623,077
1017,03	0,000
1017,19	562,500
1017,35	406,667
1017,51	2000,000
1017,68	1071,429
1017,84	510,526
1018,00	271,429
1018,16	-287,500
1018,33	563,636
1018,49	614,286
1018,65	-545,455
1018,81	-48,780
1018,97	769,231
1019,14	-657,143
1019,30	547,619
1019,46	187,179
1019,62	3350,000
1019,79	-971,429
1019,95	-825,000
1020,11	1220,000
1020,27	155,000
1020,43	-812,500
1020,60	0,000
1020,76	167,647
1020,92	8600,000
1021,08	-117,778
1021,24	-3700,000
1021,41	278,788
1021,57	-204,167
1021,73	0,000
1021,89	-340,909
1022,05	325,714
1022,21	-515,385
1022,38	426,316
1022,54	1380,000
1022,70	314,815
1022,86	-1150,000
1023,02	1044,444
1023,19	-140,000
1023,35	215,094
1023,51	270,968
1023,67	168,421
1023,83	436,364
1023,99	248,571
1024,16	-43,077
1024,32	350,000
1024,48	251,020
1024,64	-720,000
1024,80	641,667
1024,96	200,000
1025,12	2033,333
1025,29	-1600,000
1025,45	329,167
1025,61	3033,333
1025,77	357,143
1025,93	-461,538
1026,09	4700,000
1026,26	-1014,286
1026,42	-1375,000
1026,58	146,154
1026,74	900,000
1026,90	626,316
1027,06	-290,000
1027,22	-608,333
1027,38	688,889
1027,55	-356,000
1027,71	1150,000
1027,87	267,500
1028,03	181,818
1028,19	-190,909
1028,35	101,351
1028,51	-17,742
1028,67	-420,000
1028,83	188,095
1029,00	700,000
1029,16	-593,333
1029,32	76,471
1029,48	3450,000
1029,64	1485,714
1029,80	1150,000
1029,96	221,569
1030,12	-375,000
1030,28	2050,000
1030,44	-4250,000
1030,61	325,000
1030,77	-278,261
1030,93	211,628
1031,09	-400,000
1031,25	-955,556
1031,41	-1900,000
1031,57	100,000
1031,73	900,000
1031,89	-245,455
1032,05	1300,000
1032,21	610,000
1032,37	-76,471
1032,53	-140,000
1032,69	-6100,000
1032,86	1116,667
1033,02	93,750
1033,18	-646,154
1033,34	-438,462
1033,50	348,387
1033,66	-166,667
1033,82	492,857
1033,98	-376,471
1034,14	1211,111
1034,30	-200,000
1034,46	375,000
1034,62	444,444
1034,78	139,683
1034,94	-164,516
1035,10	-454,545
1035,26	-1233,333
1035,42	97,143
1035,58	2300,000
1035,74	-156,667
1035,90	-566,667
1036,06	164,151
1036,22	-360,000
1036,38	560,000
1036,54	570,000
1036,70	-4000,000
1036,86	-592,857
1037,02	-4000,000
1037,18	-185,714
1037,34	486,957
1037,50	-373,333
1037,66	-3100,000
1037,82	-400,000
1037,98	395,238
1038,14	-203,448
1038,30	5,769
1038,46	108,333
1038,62	190,323
1038,78	240,476
1038,94	-81,579
1039,10	-345,833
1039,26	-410,526
1039,42	-1157,143
1039,58	216,981
1039,74	140,625
1039,90	-164,103
1040,06	411,765
>>>>>End Processed Spectral Data<<<<<
