SpectraSuite Data File
++++++++++++++++++++++++++++++++++++
Date: Thu Feb 02 18:06:49 EET 2017
User: optolab
Dark Spectrum Present: Yes
Reference Spectrum Present: Yes
Number of Sampled Component Spectra: 1
Spectrometers: USB4C02475
Integration Time (usec): 100000 (USB4C02475)
Spectra Averaged: 1 (USB4C02475)
Boxcar Smoothing: 0 (USB4C02475)
Correct for Electrical Dark: No (USB4C02475)
Strobe/Lamp Enabled: No (USB4C02475)
Correct for Detector Non-linearity: No (USB4C02475)
Correct for Stray Light: No (USB4C02475)
Number of Pixels in Processed Spectrum: 3648
>>>>>Begin Processed Spectral Data<<<<<
344,91	-1175,000
345,13	-1175,000
345,35	-1175,000
345,57	-252,941
345,79	43,478
346,00	-167,647
346,22	-1128,571
346,44	-45,455
346,66	272,340
346,87	295,652
347,09	646,154
347,31	9100,000
347,53	-1725,000
347,74	-137,209
347,96	-1642,857
348,18	300,000
348,40	435,294
348,61	-212,821
348,83	7400,000
349,05	258,974
349,27	523,529
349,48	-5500,000
349,70	714,286
349,92	414,286
350,14	178,378
350,35	-261,538
350,57	-577,778
350,79	-58,974
351,01	-266,667
351,22	840,000
351,44	600,000
351,66	350,000
351,87	1616,667
352,09	131,579
352,31	278,571
352,53	305,714
352,74	-657,143
352,96	373,684
353,18	178,125
353,40	-550,000
353,61	680,000
353,83	170,833
354,05	293,750
354,26	339,286
354,48	-1300,000
354,70	276,190
354,92	316,667
355,13	-179,070
355,35	166,667
355,57	223,438
355,78	321,429
356,00	208,511
356,22	290,909
356,44	279,070
356,65	121,429
356,87	286,111
357,09	308,571
357,30	140,909
357,52	-1416,667
357,74	245,161
357,95	285,714
358,17	153,623
358,39	380,000
358,60	138,889
358,82	345,455
359,04	348,718
359,26	193,182
359,47	-561,538
359,69	396,429
359,91	460,000
360,12	540,000
360,34	83,333
360,56	-2200,000
360,77	588,889
360,99	404,167
361,21	104,348
361,42	-1700,000
361,64	-274,074
361,86	158,209
362,07	600,000
362,29	217,500
362,51	313,514
362,72	-1260,000
362,94	300,000
363,16	148,571
363,37	1027,273
363,59	-5500,000
363,81	1550,000
364,02	138,667
364,24	206,818
364,46	438,095
364,67	257,143
364,89	529,412
365,11	229,730
365,32	314,815
365,54	443,750
365,76	188,636
365,97	136,585
366,19	66,667
366,41	780,000
366,62	123,000
366,84	741,667
367,05	118,627
367,27	1180,000
367,49	243,590
367,70	711,111
367,92	229,167
368,14	-569,231
368,35	179,412
368,57	115,152
368,79	261,538
369,00	139,744
369,22	266,667
369,43	621,053
369,65	-120,690
369,87	-517,647
370,08	535,000
370,30	307,143
370,51	609,091
370,73	166,667
370,95	415,000
371,16	150,877
371,38	232,075
371,60	313,333
371,81	76,087
372,03	-1675,000
372,24	-287,500
372,46	2433,333
372,68	282,353
372,89	92,661
373,11	141,860
373,32	94,958
373,54	636,364
373,76	416,667
373,97	196,970
374,19	-273,684
374,40	147,143
374,62	547,059
374,84	362,500
375,05	211,538
375,27	275,676
375,48	83,951
375,70	447,059
375,92	166,071
376,13	515,789
376,35	195,833
376,56	280,000
376,78	142,857
376,99	218,182
377,21	275,000
377,43	242,424
377,64	164,000
377,86	262,500
378,07	95,455
378,29	252,778
378,51	80,952
378,72	-109,091
378,94	121,739
379,15	134,091
379,37	537,500
379,58	150,000
379,80	195,455
380,01	156,000
380,23	226,087
380,45	214,583
380,66	143,056
380,88	124,324
381,09	430,435
381,31	276,923
381,52	426,087
381,74	183,929
381,95	357,143
382,17	304,000
382,39	103,226
382,60	641,176
382,82	244,828
383,03	2266,667
383,25	114,815
383,46	850,000
383,68	174,468
383,89	272,727
384,11	194,521
384,32	205,263
384,54	-1057,143
384,76	191,176
384,97	285,000
385,19	321,053
385,40	315,625
385,62	274,194
385,83	212,766
386,05	928,571
386,26	257,692
386,48	769,231
386,69	252,778
386,91	400,000
387,12	223,077
387,34	83,051
387,55	214,286
387,77	260,000
387,98	206,122
388,20	191,549
388,41	149,206
388,63	190,000
388,84	175,000
389,06	174,419
389,27	256,250
389,49	95,181
389,70	181,356
389,92	140,909
390,13	164,103
390,35	94,792
390,56	117,187
390,78	113,636
390,99	175,556
391,21	144,318
391,42	104,348
391,64	-350,000
391,85	201,724
392,07	64,286
392,28	215,385
392,50	1740,000
392,71	5600,000
392,93	117,742
393,14	260,870
393,36	137,179
393,57	245,833
393,79	92,063
394,00	147,945
394,22	184,000
394,43	253,571
394,65	267,857
394,86	184,375
395,08	-812,500
395,29	95,745
395,50	-5300,000
395,72	814,286
395,93	284,000
396,15	-185,714
396,36	126,667
396,58	-309,524
396,79	216,279
397,01	228,571
397,22	147,826
397,44	212,766
397,65	131,081
397,87	151,429
398,08	161,538
398,29	333,333
398,51	263,415
398,72	189,130
398,94	218,605
399,15	170,000
399,37	119,565
399,58	161,905
399,80	420,000
400,01	235,294
400,22	307,143
400,44	109,524
400,65	147,945
400,87	5700,000
401,08	98,876
401,30	122,667
401,51	110,909
401,72	112,903
401,94	156,098
402,15	57,143
402,37	147,727
402,58	158,140
402,80	543,750
403,01	108,333
403,22	109,639
403,44	191,667
403,65	89,796
403,87	154,667
404,08	184,615
404,30	146,875
404,51	107,143
404,72	954,545
404,94	86,747
405,15	141,791
405,37	93,407
405,58	203,226
405,79	428,571
406,01	71,111
406,22	66,667
406,44	115,789
406,65	79,762
406,86	78,000
407,08	50,617
407,29	86,667
407,51	42,308
407,72	111,881
407,93	89,873
408,15	72,727
408,36	217,143
408,58	53,333
408,79	62,016
409,00	55,319
409,22	90,196
409,43	48,649
409,64	50,000
409,86	61,364
410,07	34,783
410,29	37,333
410,50	56,349
410,71	59,677
410,93	54,455
411,14	57,944
411,35	48,611
411,57	10,417
411,78	50,000
412,00	44,000
412,21	33,186
412,42	30,244
412,64	35,556
412,85	20,207
413,06	43,750
413,28	36,471
413,49	46,512
413,70	46,781
413,92	40,000
414,13	13,043
414,34	11,896
414,56	34,894
414,77	23,247
414,98	20,495
415,20	35,125
415,41	26,623
415,63	22,507
415,84	25,485
416,05	21,386
416,27	18,106
416,48	23,697
416,69	8,140
416,91	12,267
417,12	11,765
417,33	10,384
417,55	17,800
417,76	19,239
417,97	15,543
418,19	6,695
418,40	14,499
418,61	17,667
418,83	17,430
419,04	17,364
419,25	13,078
419,46	15,088
419,68	15,044
419,89	20,817
420,10	18,145
420,32	23,046
420,53	26,372
420,74	22,222
420,96	27,251
421,17	26,910
421,38	30,189
421,60	33,226
421,81	30,030
422,02	31,403
422,23	33,777
422,45	35,885
422,66	35,368
422,87	37,998
423,09	36,052
423,30	39,404
423,51	38,216
423,73	39,985
423,94	40,000
424,15	39,650
424,36	39,973
424,58	37,887
424,79	39,818
425,00	41,501
425,22	38,882
425,43	41,081
425,64	45,977
425,85	40,643
426,07	39,874
426,28	45,168
426,49	42,930
426,71	40,909
426,92	41,790
427,13	40,152
427,34	41,955
427,56	44,454
427,77	37,350
427,98	41,650
428,19	38,348
428,41	40,519
428,62	39,752
428,83	37,282
429,04	38,288
429,26	36,862
429,47	38,611
429,68	37,294
429,89	35,555
430,11	38,079
430,32	36,168
430,53	36,018
430,74	37,043
430,96	37,523
431,17	38,085
431,38	36,506
431,59	37,814
431,81	37,192
432,02	36,933
432,23	38,400
432,44	37,842
432,66	37,337
432,87	38,279
433,08	39,414
433,29	38,308
433,51	39,298
433,72	37,529
433,93	38,505
434,14	38,448
434,35	38,363
434,57	39,683
434,78	39,073
434,99	39,460
435,20	42,127
435,42	40,891
435,63	41,574
435,84	41,084
436,05	41,009
436,26	40,969
436,48	41,064
436,69	40,838
436,90	38,089
437,11	38,399
437,32	37,452
437,54	37,788
437,75	38,086
437,96	37,941
438,17	37,998
438,38	37,693
438,60	37,465
438,81	38,064
439,02	39,183
439,23	39,298
439,44	37,820
439,66	38,931
439,87	38,018
440,08	36,289
440,29	35,299
440,50	33,998
440,72	31,522
440,93	29,762
441,14	26,254
441,35	24,008
441,56	21,809
441,77	19,063
441,99	16,532
442,20	14,154
442,41	11,734
442,62	10,712
442,83	9,038
443,04	7,563
443,26	6,783
443,47	5,922
443,68	4,866
443,89	4,210
444,10	3,796
444,31	3,493
444,53	3,037
444,74	2,621
444,95	2,137
445,16	1,975
445,37	1,745
445,58	1,556
445,80	1,663
446,01	1,720
446,22	1,292
446,43	1,142
446,64	0,746
446,85	0,716
447,06	0,830
447,28	0,824
447,49	0,646
447,70	0,911
447,91	0,768
448,12	0,268
448,33	0,551
448,54	0,354
448,76	0,332
448,97	0,577
449,18	0,526
449,39	0,636
449,60	0,479
449,81	0,804
450,02	0,785
450,23	0,427
450,45	0,623
450,66	0,384
450,87	0,806
451,08	0,414
451,29	0,847
451,50	0,470
451,71	0,445
451,92	0,559
452,13	0,572
452,35	0,463
452,56	0,415
452,77	1,001
452,98	0,606
453,19	0,471
453,40	0,509
453,61	0,573
453,82	0,286
454,03	0,649
454,25	0,293
454,46	0,490
454,67	0,439
454,88	0,554
455,09	0,939
455,30	0,514
455,51	0,592
455,72	0,736
455,93	0,602
456,14	0,688
456,35	0,388
456,56	0,632
456,78	0,712
456,99	0,746
457,20	0,582
457,41	0,382
457,62	0,314
457,83	0,416
458,04	0,469
458,25	0,613
458,46	0,728
458,67	0,440
458,88	0,249
459,09	0,364
459,30	0,600
459,51	0,529
459,73	0,207
459,94	0,477
460,15	0,367
460,36	0,186
460,57	0,692
460,78	0,515
460,99	0,295
461,20	0,322
461,41	0,457
461,62	0,197
461,83	0,197
462,04	0,390
462,25	0,458
462,46	0,573
462,67	0,213
462,88	0,490
463,09	0,352
463,30	0,471
463,51	0,339
463,72	0,299
463,93	0,334
464,15	0,478
464,36	0,408
464,57	0,194
464,78	0,306
464,99	0,562
465,20	0,207
465,41	0,375
465,62	0,310
465,83	0,464
466,04	0,449
466,25	0,397
466,46	0,495
466,67	0,303
466,88	0,271
467,09	0,358
467,30	0,283
467,51	0,331
467,72	0,254
467,93	0,310
468,14	0,357
468,35	0,401
468,56	0,282
468,77	0,398
468,98	0,466
469,19	0,362
469,40	0,288
469,61	0,097
469,82	0,266
470,03	0,346
470,24	0,390
470,45	0,474
470,66	0,580
470,87	0,385
471,08	0,441
471,29	0,414
471,50	0,372
471,71	0,206
471,92	0,149
472,13	0,462
472,34	0,203
472,55	0,469
472,76	0,586
472,97	0,383
473,18	0,466
473,39	0,398
473,60	0,370
473,81	0,278
474,01	0,519
474,22	0,438
474,43	0,437
474,64	0,452
474,85	0,223
475,06	0,388
475,27	0,401
475,48	0,341
475,69	0,553
475,90	0,448
476,11	0,495
476,32	0,584
476,53	0,400
476,74	0,476
476,95	0,399
477,16	0,437
477,37	0,493
477,58	0,328
477,79	0,310
478,00	0,325
478,21	0,696
478,41	0,290
478,62	0,348
478,83	0,313
479,04	0,465
479,25	0,426
479,46	0,215
479,67	0,360
479,88	0,439
480,09	0,435
480,30	0,407
480,51	0,746
480,72	0,369
480,93	0,557
481,14	0,327
481,34	0,437
481,55	0,556
481,76	0,502
481,97	0,337
482,18	0,468
482,39	0,321
482,60	0,428
482,81	0,261
483,02	0,396
483,23	0,362
483,44	0,309
483,65	0,242
483,85	0,358
484,06	0,623
484,27	0,451
484,48	0,350
484,69	0,304
484,90	0,431
485,11	0,417
485,32	0,598
485,53	0,288
485,73	0,531
485,94	0,538
486,15	0,478
486,36	0,435
486,57	0,647
486,78	0,725
486,99	0,725
487,20	0,672
487,41	0,585
487,61	0,733
487,82	0,651
488,03	0,829
488,24	0,894
488,45	1,083
488,66	1,080
488,87	1,437
489,08	1,713
489,28	1,925
489,49	2,816
489,70	3,123
489,91	3,990
490,12	4,702
490,33	5,526
490,54	6,741
490,74	7,857
490,95	8,874
491,16	9,902
491,37	11,023
491,58	12,402
491,79	14,182
492,00	14,838
492,20	16,763
492,41	17,757
492,62	18,722
492,83	20,068
493,04	21,594
493,25	22,508
493,45	23,574
493,66	25,304
493,87	26,014
494,08	26,849
494,29	27,805
494,50	29,155
494,70	29,948
494,91	30,928
495,12	31,836
495,33	32,406
495,54	33,646
495,75	34,156
495,95	34,340
496,16	34,767
496,37	35,266
496,58	36,510
496,79	36,890
496,99	37,645
497,20	37,777
497,41	38,789
497,62	39,040
497,83	39,282
498,04	39,795
498,24	40,228
498,45	41,216
498,66	41,648
498,87	41,740
499,08	42,415
499,28	42,598
499,49	43,214
499,70	43,683
499,91	43,284
500,12	44,155
500,32	43,899
500,53	44,093
500,74	44,520
500,95	44,473
501,15	43,805
501,36	43,667
501,57	43,167
501,78	42,899
501,99	42,488
502,19	42,591
502,40	41,681
502,61	40,683
502,82	40,095
503,02	39,977
503,23	38,411
503,44	37,261
503,65	37,097
503,86	35,778
504,06	35,016
504,27	34,409
504,48	33,558
504,69	32,847
504,89	32,323
505,10	32,406
505,31	31,584
505,52	30,494
505,72	30,691
505,93	29,852
506,14	29,170
506,35	28,539
506,55	28,109
506,76	27,233
506,97	26,416
507,18	26,013
507,38	25,008
507,59	24,782
507,80	23,581
508,01	23,324
508,21	22,720
508,42	22,302
508,63	21,229
508,84	21,105
509,04	19,657
509,25	19,285
509,46	18,682
509,67	17,523
509,87	16,907
510,08	16,509
510,29	15,332
510,49	14,430
510,70	13,601
510,91	12,958
511,12	11,999
511,32	11,214
511,53	10,187
511,74	9,338
511,94	8,485
512,15	7,900
512,36	7,052
512,57	6,383
512,77	5,752
512,98	5,239
513,19	4,557
513,39	3,917
513,60	3,166
513,81	2,845
514,01	2,753
514,22	2,017
514,43	1,763
514,64	1,566
514,84	1,389
515,05	1,373
515,26	1,148
515,46	0,768
515,67	0,736
515,88	0,730
516,08	0,816
516,29	0,391
516,50	0,468
516,70	0,440
516,91	0,523
517,12	0,516
517,32	0,279
517,53	0,265
517,74	0,386
517,95	0,480
518,15	0,497
518,36	0,523
518,57	0,361
518,77	0,403
518,98	0,524
519,19	0,347
519,39	0,499
519,60	0,294
519,80	0,231
520,01	0,323
520,22	0,459
520,42	0,275
520,63	0,497
520,84	0,478
521,04	0,374
521,25	0,396
521,46	0,239
521,66	0,473
521,87	0,293
522,08	0,413
522,28	0,328
522,49	0,442
522,70	0,335
522,90	0,287
523,11	0,314
523,31	0,304
523,52	0,414
523,73	0,330
523,93	0,535
524,14	0,394
524,35	0,519
524,55	0,448
524,76	0,321
524,97	0,358
525,17	0,448
525,38	0,456
525,58	0,361
525,79	0,258
526,00	0,443
526,20	0,398
526,41	0,296
526,61	0,486
526,82	0,173
527,03	0,430
527,23	0,410
527,44	0,400
527,64	0,426
527,85	0,202
528,06	0,523
528,26	0,328
528,47	0,272
528,68	0,385
528,88	0,313
529,09	0,384
529,29	0,452
529,50	0,412
529,70	0,543
529,91	0,235
530,12	0,356
530,32	0,304
530,53	0,352
530,73	0,310
530,94	0,343
531,15	0,466
531,35	0,570
531,56	0,536
531,76	0,479
531,97	0,316
532,17	0,434
532,38	0,502
532,59	0,452
532,79	0,456
533,00	0,340
533,20	0,314
533,41	0,278
533,61	0,284
533,82	0,291
534,03	0,338
534,23	0,332
534,44	0,474
534,64	0,494
534,85	0,326
535,05	0,234
535,26	0,340
535,46	0,368
535,67	0,281
535,88	0,442
536,08	0,457
536,29	0,573
536,49	0,619
536,70	0,360
536,90	0,383
537,11	0,337
537,31	0,429
537,52	0,530
537,72	0,363
537,93	0,389
538,13	0,268
538,34	0,452
538,55	0,415
538,75	0,303
538,96	0,406
539,16	0,282
539,37	0,264
539,57	0,504
539,78	0,422
539,98	0,412
540,19	0,445
540,39	0,348
540,60	0,301
540,80	0,321
541,01	0,494
541,21	0,545
541,42	0,477
541,62	0,341
541,83	0,286
542,03	0,373
542,24	0,481
542,44	0,354
542,65	0,270
542,85	0,596
543,06	0,449
543,26	0,363
543,47	0,456
543,67	0,421
543,88	0,162
544,08	0,277
544,29	0,400
544,49	0,285
544,70	0,242
544,90	0,488
545,11	0,312
545,31	0,423
545,52	0,396
545,72	0,475
545,93	0,356
546,13	0,342
546,34	0,469
546,54	0,391
546,75	0,333
546,95	0,651
547,15	0,477
547,36	0,462
547,56	0,383
547,77	0,301
547,97	0,340
548,18	0,368
548,38	0,548
548,59	0,532
548,79	0,516
549,00	0,579
549,20	0,460
549,41	0,671
549,61	0,669
549,81	0,727
550,02	0,873
550,22	0,940
550,43	1,122
550,63	1,268
550,84	1,554
551,04	1,652
551,25	2,094
551,45	2,422
551,65	2,644
551,86	2,987
552,06	3,531
552,27	3,660
552,47	4,784
552,68	5,520
552,88	6,232
553,08	6,909
553,29	7,717
553,49	8,563
553,70	9,479
553,90	11,088
554,11	12,070
554,31	12,937
554,51	14,565
554,72	15,565
554,92	16,456
555,13	17,742
555,33	18,741
555,53	19,516
555,74	21,005
555,94	21,723
556,15	22,485
556,35	22,826
556,56	23,515
556,76	24,219
556,96	24,464
557,17	24,961
557,37	25,460
557,58	25,623
557,78	25,925
557,98	26,753
558,19	27,453
558,39	28,194
558,59	29,316
558,80	29,494
559,00	30,367
559,21	31,389
559,41	32,091
559,61	33,211
559,82	34,411
560,02	35,113
560,23	36,378
560,43	37,267
560,63	37,747
560,84	39,290
561,04	40,670
561,24	40,838
561,45	40,845
561,65	41,669
561,85	42,438
562,06	42,934
562,26	43,178
562,47	44,126
562,67	43,622
562,87	44,523
563,08	44,118
563,28	45,106
563,48	45,640
563,69	44,974
563,89	45,415
564,09	45,728
564,30	45,681
564,50	45,883
564,70	45,674
564,91	46,449
565,11	46,125
565,31	46,278
565,52	46,638
565,72	46,629
565,92	46,848
566,13	45,820
566,33	46,416
566,53	46,495
566,74	45,499
566,94	45,331
567,14	45,681
567,35	44,523
567,55	44,870
567,75	44,406
567,96	43,851
568,16	44,472
568,36	43,931
568,57	43,920
568,77	44,719
568,97	43,729
569,18	44,389
569,38	43,788
569,58	45,007
569,79	44,565
569,99	45,350
570,19	44,891
570,39	45,569
570,60	44,580
570,80	45,128
571,00	45,352
571,21	45,646
571,41	44,987
571,61	44,576
571,82	44,712
572,02	44,770
572,22	44,295
572,42	43,919
572,63	43,129
572,83	42,215
573,03	42,083
573,24	41,256
573,44	41,679
573,64	40,072
573,84	39,295
574,05	38,591
574,25	38,742
574,45	37,315
574,66	38,088
574,86	37,615
575,06	36,994
575,26	36,825
575,47	36,593
575,67	35,795
575,87	35,418
576,07	34,577
576,28	34,378
576,48	33,632
576,68	32,526
576,88	31,495
577,09	30,798
577,29	30,464
577,49	28,570
577,69	27,849
577,90	26,736
578,10	25,157
578,30	24,358
578,50	22,573
578,71	21,455
578,91	19,997
579,11	18,941
579,31	17,851
579,52	16,687
579,72	15,181
579,92	14,061
580,12	12,437
580,33	11,502
580,53	10,000
580,73	8,942
580,93	8,102
581,13	6,933
581,34	5,990
581,54	5,671
581,74	4,878
581,94	3,980
582,15	3,833
582,35	3,058
582,55	2,837
582,75	2,399
582,95	1,942
583,16	1,724
583,36	1,445
583,56	1,407
583,76	1,098
583,96	0,893
584,17	0,747
584,37	0,808
584,57	0,769
584,77	0,416
584,97	0,499
585,18	0,586
585,38	0,428
585,58	0,448
585,78	0,459
585,98	0,533
586,19	0,350
586,39	0,378
586,59	0,395
586,79	0,311
586,99	0,322
587,20	0,245
587,40	0,271
587,60	0,221
587,80	0,244
588,00	0,407
588,20	0,325
588,41	0,413
588,61	0,380
588,81	0,288
589,01	0,339
589,21	0,373
589,41	0,185
589,62	0,241
589,82	0,161
590,02	0,354
590,22	0,311
590,42	0,292
590,62	0,341
590,83	0,205
591,03	0,029
591,23	0,251
591,43	0,495
591,63	0,296
591,83	0,279
592,03	0,336
592,24	0,289
592,44	0,237
592,64	0,180
592,84	0,244
593,04	0,307
593,24	0,181
593,44	0,160
593,65	0,303
593,85	0,501
594,05	0,133
594,25	0,175
594,45	0,245
594,65	0,176
594,85	0,108
595,06	0,113
595,26	0,368
595,46	0,058
595,66	0,248
595,86	0,251
596,06	0,303
596,26	0,232
596,46	0,371
596,66	0,163
596,87	0,318
597,07	0,333
597,27	0,196
597,47	0,168
597,67	0,311
597,87	0,221
598,07	0,274
598,27	0,187
598,47	0,312
598,67	0,235
598,88	0,333
599,08	0,377
599,28	0,317
599,48	0,100
599,68	0,369
599,88	0,200
600,08	0,137
600,28	0,461
600,48	0,274
600,68	0,243
600,88	0,302
601,09	0,191
601,29	0,363
601,49	0,218
601,69	0,342
601,89	0,230
602,09	0,249
602,29	0,249
602,49	0,186
602,69	0,346
602,89	0,289
603,09	0,288
603,29	0,304
603,49	0,387
603,69	0,328
603,90	0,176
604,10	0,338
604,30	0,302
604,50	0,338
604,70	0,038
604,90	0,194
605,10	0,221
605,30	0,107
605,50	0,203
605,70	0,325
605,90	0,073
606,10	0,261
606,30	0,304
606,50	0,344
606,70	0,100
606,90	0,132
607,10	0,197
607,30	0,275
607,50	0,278
607,70	0,365
607,90	0,338
608,10	0,383
608,30	0,255
608,50	0,173
608,70	0,371
608,90	0,260
609,11	0,199
609,31	0,311
609,51	0,435
609,71	0,286
609,91	0,199
610,11	0,410
610,31	0,304
610,51	0,354
610,71	0,333
610,91	0,255
611,11	0,172
611,31	0,204
611,51	0,266
611,71	0,190
611,91	0,284
612,11	0,126
612,31	0,261
612,51	0,283
612,71	0,195
612,91	0,194
613,11	0,242
613,31	0,127
613,51	0,255
613,71	0,282
613,91	0,373
614,11	0,343
614,31	0,177
614,50	0,355
614,70	0,244
614,90	0,359
615,10	0,232
615,30	0,262
615,50	0,115
615,70	0,345
615,90	0,232
616,10	0,355
616,30	0,238
616,50	0,149
616,70	0,243
616,90	0,280
617,10	0,370
617,30	0,147
617,50	0,479
617,70	0,224
617,90	0,317
618,10	0,261
618,30	0,226
618,50	0,369
618,70	0,288
618,90	0,199
619,10	0,055
619,30	0,156
619,49	0,205
619,69	0,253
619,89	0,395
620,09	0,250
620,29	0,229
620,49	0,381
620,69	0,016
620,89	0,171
621,09	0,253
621,29	0,240
621,49	0,227
621,69	0,250
621,89	0,360
622,09	0,191
622,29	0,222
622,48	0,262
622,68	0,109
622,88	0,347
623,08	0,345
623,28	0,109
623,48	0,308
623,68	0,297
623,88	0,275
624,08	0,203
624,28	0,197
624,48	0,312
624,67	0,116
624,87	0,241
625,07	0,284
625,27	0,135
625,47	0,239
625,67	0,334
625,87	0,241
626,07	0,149
626,27	0,148
626,47	0,325
626,66	0,038
626,86	0,234
627,06	0,333
627,26	0,255
627,46	0,086
627,66	0,272
627,86	0,269
628,06	0,154
628,25	0,237
628,45	0,316
628,65	0,206
628,85	0,216
629,05	0,325
629,25	0,074
629,45	0,184
629,65	0,246
629,84	0,079
630,04	0,213
630,24	0,245
630,44	0,008
630,64	0,265
630,84	0,199
631,04	0,339
631,23	0,342
631,43	0,092
631,63	0,226
631,83	0,188
632,03	0,318
632,23	0,193
632,42	0,216
632,62	0,311
632,82	0,328
633,02	0,189
633,22	0,233
633,42	0,291
633,62	0,169
633,81	0,070
634,01	0,380
634,21	0,228
634,41	0,401
634,61	0,192
634,80	0,274
635,00	0,321
635,20	0,438
635,40	0,072
635,60	0,343
635,80	0,271
635,99	0,362
636,19	0,196
636,39	0,071
636,59	0,355
636,79	0,366
636,98	0,381
637,18	0,211
637,38	0,266
637,58	0,210
637,78	0,340
637,97	0,088
638,17	0,293
638,37	0,432
638,57	0,073
638,77	0,312
638,96	0,200
639,16	0,381
639,36	0,212
639,56	0,175
639,76	0,077
639,95	0,272
640,15	0,245
640,35	-0,006
640,55	0,326
640,75	0,384
640,94	0,242
641,14	0,450
641,34	0,247
641,54	0,296
641,73	0,344
641,93	0,228
642,13	0,322
642,33	0,189
642,53	0,279
642,72	0,305
642,92	0,443
643,12	0,253
643,32	0,587
643,51	0,601
643,71	-0,060
643,91	0,460
644,11	0,507
644,30	0,411
644,50	0,391
644,70	0,321
644,90	0,570
645,09	0,439
645,29	0,454
645,49	0,698
645,69	0,410
645,88	0,310
646,08	0,456
646,28	0,767
646,48	0,280
646,67	0,175
646,87	0,524
647,07	0,395
647,26	0,746
647,46	0,363
647,66	0,288
647,86	0,582
648,05	0,349
648,25	0,641
648,45	0,603
648,65	0,420
648,84	0,199
649,04	0,821
649,24	0,624
649,43	0,291
649,63	0,614
649,83	0,415
650,03	0,565
650,22	0,620
650,42	0,421
650,62	0,570
650,81	0,379
651,01	0,551
651,21	0,286
651,40	0,444
651,60	0,243
651,80	0,400
652,00	0,658
652,19	0,303
652,39	0,366
652,59	0,527
652,78	0,443
652,98	0,240
653,18	0,535
653,37	0,702
653,57	0,909
653,77	0,636
653,96	0,212
654,16	0,647
654,36	0,314
654,55	0,303
654,75	0,336
654,95	0,477
655,14	0,457
655,34	1,119
655,54	0,904
655,73	0,513
655,93	0,401
656,13	0,156
656,32	-0,044
656,52	0,627
656,72	0,408
656,91	0,644
657,11	0,345
657,31	0,244
657,50	0,699
657,70	0,252
657,90	0,747
658,09	0,443
658,29	0,476
658,49	0,332
658,68	0,634
658,88	0,575
659,07	0,471
659,27	0,279
659,47	0,418
659,66	0,495
659,86	0,410
660,06	0,216
660,25	0,150
660,45	0,477
660,64	0,483
660,84	0,349
661,04	0,551
661,23	0,567
661,43	0,580
661,63	0,284
661,82	0,329
662,02	1,051
662,21	0,288
662,41	0,472
662,61	1,187
662,80	0,255
663,00	0,061
663,19	0,638
663,39	0,311
663,59	0,990
663,78	0,722
663,98	0,462
664,17	0,613
664,37	0,629
664,57	0,549
664,76	0,976
664,96	0,392
665,15	0,179
665,35	0,449
665,55	0,231
665,74	0,590
665,94	0,616
666,13	0,407
666,33	0,793
666,53	0,660
666,72	0,691
666,92	0,651
667,11	0,474
667,31	0,404
667,50	0,323
667,70	0,575
667,90	0,376
668,09	0,902
668,29	0,229
668,48	0,780
668,68	0,162
668,87	0,685
669,07	0,312
669,26	0,457
669,46	0,473
669,66	0,760
669,85	0,742
670,05	0,552
670,24	0,672
670,44	0,559
670,63	0,265
670,83	0,546
671,02	0,423
671,22	0,418
671,42	0,556
671,61	0,385
671,81	0,639
672,00	0,651
672,20	0,486
672,39	0,630
672,59	0,503
672,78	0,392
672,98	0,617
673,17	0,534
673,37	0,487
673,56	0,450
673,76	0,160
673,95	0,700
674,15	0,946
674,34	0,429
674,54	0,499
674,73	0,761
674,93	0,624
675,13	0,760
675,32	0,757
675,52	0,644
675,71	0,858
675,91	0,572
676,10	0,433
676,30	0,570
676,49	0,285
676,69	0,575
676,88	0,474
677,08	0,589
677,27	0,365
677,47	0,592
677,66	0,692
677,86	0,730
678,05	0,479
678,24	0,686
678,44	0,938
678,63	0,622
678,83	0,198
679,02	0,774
679,22	0,488
679,41	0,637
679,61	0,394
679,80	0,450
680,00	0,385
680,19	0,369
680,39	0,371
680,58	0,285
680,78	0,166
680,97	0,279
681,17	0,391
681,36	0,085
681,56	0,393
681,75	-0,017
681,94	0,099
682,14	0,476
682,33	0,542
682,53	0,179
682,72	0,124
682,92	0,459
683,11	0,184
683,31	0,488
683,50	0,141
683,69	0,190
683,89	0,242
684,08	0,304
684,28	0,173
684,47	0,371
684,67	0,188
684,86	0,257
685,06	0,242
685,25	0,289
685,44	0,334
685,64	0,408
685,83	0,470
686,03	0,122
686,22	0,149
686,42	0,203
686,61	0,355
686,80	0,173
687,00	0,005
687,19	0,222
687,39	0,213
687,58	0,278
687,77	0,226
687,97	0,161
688,16	0,152
688,36	0,074
688,55	0,121
688,74	0,013
688,94	0,137
689,13	0,366
689,33	0,087
689,52	0,255
689,71	0,236
689,91	0,089
690,10	0,045
690,30	0,008
690,49	0,076
690,68	0,254
690,88	0,214
691,07	0,222
691,27	0,180
691,46	0,288
691,65	0,284
691,85	0,259
692,04	0,059
692,23	0,055
692,43	0,293
692,62	0,240
692,82	0,240
693,01	0,096
693,20	0,242
693,40	0,164
693,59	0,191
693,78	0,201
693,98	0,037
694,17	0,087
694,36	0,403
694,56	0,143
694,75	0,077
694,94	0,337
695,14	0,210
695,33	0,277
695,53	0,365
695,72	0,279
695,91	-0,158
696,11	0,198
696,30	0,269
696,49	0,249
696,69	0,208
696,88	0,112
697,07	0,307
697,27	0,372
697,46	0,429
697,65	0,392
697,85	0,111
698,04	0,283
698,23	0,395
698,43	0,162
698,62	0,122
698,81	0,158
699,01	0,301
699,20	0,414
699,39	0,274
699,58	0,330
699,78	0,161
699,97	0,424
700,16	-0,032
700,36	0,451
700,55	0,518
700,74	0,814
700,94	0,404
701,13	0,228
701,32	0,223
701,52	0,369
701,71	0,440
701,90	0,673
702,09	0,997
702,29	0,773
702,48	0,535
702,67	0,797
702,87	0,837
703,06	0,689
703,25	1,194
703,44	0,269
703,64	0,967
703,83	0,702
704,02	1,124
704,22	0,886
704,41	0,573
704,60	0,997
704,79	1,651
704,99	1,125
705,18	2,066
705,37	0,741
705,56	0,597
705,76	1,626
705,95	1,477
706,14	0,890
706,33	0,986
706,53	1,663
706,72	0,774
706,91	1,619
707,11	0,279
707,30	1,055
707,49	1,779
707,68	1,500
707,88	1,383
708,07	-0,146
708,26	1,939
708,45	0,389
708,64	2,311
708,84	1,887
709,03	1,892
709,22	0,279
709,41	2,768
709,61	1,305
709,80	3,055
709,99	2,133
710,18	2,559
710,38	1,227
710,57	1,017
710,76	0,393
710,95	2,130
711,14	2,251
711,34	1,376
711,53	2,625
711,72	2,498
711,91	2,509
712,11	1,552
712,30	1,539
712,49	1,953
712,68	1,425
712,87	3,673
713,07	3,573
713,26	1,249
713,45	1,498
713,64	1,353
713,83	2,199
714,03	0,850
714,22	3,575
714,41	2,793
714,60	3,275
714,79	0,288
714,99	2,037
715,18	2,879
715,37	4,491
715,56	3,595
715,75	5,253
715,94	4,478
716,14	5,255
716,33	2,133
716,52	3,983
716,71	4,145
716,90	2,941
717,10	2,060
717,29	1,576
717,48	3,560
717,67	3,440
717,86	2,999
718,05	4,567
718,24	2,616
718,44	4,673
718,63	3,102
718,82	3,810
719,01	3,425
719,20	1,143
719,39	1,961
719,59	-0,130
719,78	3,474
719,97	3,280
720,16	4,704
720,35	5,093
720,54	1,398
720,73	5,256
720,93	1,952
721,12	-1,149
721,31	1,603
721,50	4,582
721,69	2,900
721,88	6,836
722,07	4,051
722,27	5,152
722,46	3,148
722,65	2,701
722,84	3,065
723,03	4,626
723,22	3,465
723,41	0,498
723,60	2,044
723,79	5,941
723,99	5,784
724,18	8,115
724,37	2,816
724,56	6,048
724,75	4,435
724,94	10,895
725,13	3,004
725,32	7,471
725,51	4,279
725,71	5,413
725,90	4,915
726,09	5,023
726,28	6,959
726,47	2,564
726,66	8,484
726,85	4,834
727,04	0,815
727,23	7,545
727,42	7,930
727,61	3,086
727,81	0,216
728,00	4,262
728,19	6,284
728,38	3,275
728,57	5,313
728,76	2,575
728,95	10,000
729,14	2,489
729,33	6,022
729,52	7,087
729,71	4,121
729,90	8,571
730,09	4,684
730,28	10,011
730,48	7,675
730,67	8,705
730,86	10,284
731,05	6,884
731,24	-4,390
731,43	9,872
731,62	6,529
731,81	5,108
732,00	11,018
732,19	3,966
732,38	1,795
732,57	8,435
732,76	5,062
732,95	1,931
733,14	2,152
733,33	3,836
733,52	4,635
733,71	3,443
733,90	1,271
734,09	7,703
734,28	3,543
734,47	15,139
734,66	5,348
734,85	4,571
735,04	7,989
735,23	6,723
735,42	9,290
735,61	9,767
735,81	9,172
736,00	7,407
736,19	6,535
736,38	4,042
736,57	12,757
736,76	11,679
736,95	8,599
737,14	6,380
737,33	11,174
737,52	6,462
737,71	2,951
737,90	10,046
738,09	8,371
738,28	6,577
738,47	2,372
738,66	8,013
738,85	7,508
739,04	3,774
739,22	10,870
739,41	7,169
739,60	2,560
739,79	-2,698
739,98	8,602
740,17	15,017
740,36	19,892
740,55	12,261
740,74	16,295
740,93	12,046
741,12	14,107
741,31	5,986
741,50	4,159
741,69	13,982
741,88	12,253
742,07	16,667
742,26	6,095
742,45	13,320
742,64	15,539
742,83	10,973
743,02	3,158
743,21	19,675
743,40	3,313
743,59	11,029
743,78	9,785
743,97	11,154
744,16	13,189
744,34	10,023
744,53	15,258
744,72	11,691
744,91	5,042
745,10	20,545
745,29	18,347
745,48	17,500
745,67	15,034
745,86	15,453
746,05	4,028
746,24	16,907
746,43	5,567
746,62	15,733
746,81	11,461
747,00	14,661
747,18	13,943
747,37	13,684
747,56	12,000
747,75	5,665
747,94	22,816
748,13	20,358
748,32	9,286
748,51	7,360
748,70	18,722
748,89	18,267
749,08	8,430
749,26	10,793
749,45	9,115
749,64	11,335
749,83	16,854
750,02	21,739
750,21	17,048
750,40	17,206
750,59	10,456
750,78	11,471
750,96	15,470
751,15	17,056
751,34	3,409
751,53	10,109
751,72	12,394
751,91	18,135
752,10	2,618
752,29	11,467
752,47	7,450
752,66	12,698
752,85	23,497
753,04	13,128
753,23	8,669
753,42	23,989
753,61	26,646
753,80	20,619
753,98	22,980
754,17	6,991
754,36	14,839
754,55	12,349
754,74	11,364
754,93	25,344
755,12	21,958
755,30	5,195
755,49	12,791
755,68	26,687
755,87	11,243
756,06	17,014
756,25	20,973
756,43	12,416
756,62	22,981
756,81	18,543
757,00	6,250
757,19	21,181
757,38	8,494
757,56	1,600
757,75	10,239
757,94	1,901
758,13	14,384
758,32	18,101
758,51	18,519
758,69	18,533
758,88	9,091
759,07	26,048
759,26	22,615
759,45	6,316
759,63	14,286
759,82	20,702
760,01	29,670
760,20	28,302
760,39	28,391
760,57	31,359
760,76	26,829
760,95	40,625
761,14	31,752
761,33	20,323
761,51	26,429
761,70	28,625
761,89	16,889
762,08	37,546
762,27	16,606
762,45	32,609
762,64	13,568
762,83	37,052
763,02	1,739
763,21	7,000
763,39	21,329
763,58	11,896
763,77	27,004
763,96	13,944
764,14	12,500
764,33	16,190
764,52	20,536
764,71	20,656
764,89	23,661
765,08	23,153
765,27	30,213
765,46	29,148
765,65	17,255
765,83	39,819
766,02	7,619
766,21	28,962
766,40	26,848
766,58	29,101
766,77	33,028
766,96	33,740
767,15	34,874
767,33	26,087
767,52	24,891
767,71	22,368
767,90	29,648
768,08	29,940
768,27	25,610
768,46	34,649
768,64	17,593
768,83	30,392
769,02	8,374
769,21	33,854
769,39	19,286
769,58	35,931
769,77	30,851
769,96	39,640
770,14	22,951
770,33	29,907
770,52	12,950
770,70	35,676
770,89	27,027
771,08	9,036
771,27	18,421
771,45	15,294
771,64	36,970
771,83	34,804
772,01	56,701
772,20	33,333
772,39	2,532
772,57	24,876
772,76	3,378
772,95	36,782
773,14	37,415
773,32	36,723
773,51	34,524
773,70	51,799
773,88	28,387
774,07	39,086
774,26	-1,613
774,44	64,662
774,63	53,892
774,82	16,234
775,00	19,626
775,19	39,286
775,38	38,830
775,56	52,174
775,75	31,319
775,94	50,833
776,12	30,719
776,31	18,045
776,50	34,247
776,68	22,581
776,87	51,196
777,06	45,912
777,24	39,496
777,43	39,572
777,62	46,067
777,80	49,686
777,99	57,500
778,18	44,253
778,36	51,695
778,55	9,322
778,74	63,281
778,92	41,358
779,11	54,545
779,29	17,730
779,48	51,064
779,67	55,856
779,85	24,561
780,04	31,159
780,23	42,857
780,41	98,305
780,60	71,812
780,79	42,742
780,97	18,301
781,16	38,298
781,34	50,000
781,53	48,214
781,72	21,622
781,90	26,946
782,09	52,326
782,28	43,537
782,46	87,857
782,65	39,437
782,83	46,541
783,02	53,509
783,21	32,331
783,39	62,185
783,58	50,435
783,76	40,136
783,95	80,282
784,14	84,211
784,32	7,059
784,51	62,838
784,69	5,469
784,88	44,860
785,06	65,563
785,25	48,227
785,44	82,258
785,62	47,143
785,81	62,963
785,99	30,075
786,18	33,333
786,37	50,549
786,55	23,611
786,74	59,091
786,92	34,965
787,11	38,889
787,29	16,071
787,48	43,011
787,67	49,057
787,85	86,076
788,04	63,964
788,22	58,416
788,41	55,118
788,59	59,211
788,78	34,066
788,96	60,331
789,15	55,833
789,34	54,808
789,52	54,839
789,71	68,345
789,89	94,805
790,08	87,500
790,26	35,669
790,45	108,333
790,63	72,414
790,82	50,769
791,00	58,407
791,19	51,200
791,38	31,429
791,56	82,727
791,75	38,889
791,93	86,000
792,12	46,087
792,30	51,095
792,49	54,545
792,67	50,735
792,86	51,200
793,04	77,778
793,23	91,579
793,41	42,754
793,60	53,472
793,78	68,571
793,97	63,889
794,15	84,211
794,34	78,667
794,52	29,032
794,71	56,589
794,89	37,121
795,08	43,200
795,26	56,000
795,45	51,389
795,63	70,968
795,82	15,385
796,00	65,000
796,19	74,797
796,37	60,305
796,56	46,602
796,74	35,789
796,93	143,939
797,11	45,783
797,30	50,556
797,48	46,094
797,67	44,715
797,85	73,077
798,04	29,661
798,22	125,641
798,41	61,538
798,59	52,381
798,77	75,904
798,96	54,938
799,14	83,871
799,33	71,560
799,51	83,333
799,70	75,385
799,88	88,073
800,07	64,885
800,25	9,639
800,44	109,259
800,62	79,167
800,80	33,099
800,99	123,288
801,17	75,000
801,36	73,571
801,54	68,000
801,73	67,368
801,91	86,777
802,10	51,765
802,28	43,200
802,46	32,895
802,65	49,640
802,83	78,667
803,02	93,548
803,20	109,639
803,39	45,977
803,57	40,157
803,75	47,154
803,94	78,571
804,12	61,379
804,31	63,768
804,49	43,200
804,67	41,176
804,86	75,221
805,04	51,807
805,23	69,027
805,41	62,500
805,59	90,411
805,78	88,000
805,96	77,108
806,15	95,050
806,33	97,368
806,51	85,333
806,70	56,391
806,88	53,488
807,07	69,369
807,25	63,736
807,43	70,536
807,62	70,796
807,80	26,667
807,99	53,077
808,17	28,346
808,35	88,000
808,54	65,217
808,72	53,153
808,90	47,260
809,09	56,522
809,27	82,667
809,46	93,407
809,64	84,146
809,82	53,642
810,01	47,656
810,19	82,828
810,37	53,906
810,56	110,000
810,74	49,351
810,92	38,667
811,11	35,088
811,29	62,264
811,48	43,846
811,66	71,910
811,84	26,374
812,03	61,475
812,21	45,614
812,39	34,783
812,58	104,211
812,76	53,237
812,94	79,518
813,13	89,362
813,31	122,000
813,49	59,259
813,68	50,909
813,86	51,685
814,04	60,331
814,23	37,952
814,41	64,045
814,59	58,252
814,78	58,824
814,96	49,057
815,14	47,664
815,33	27,907
815,51	58,268
815,69	48,571
815,87	63,366
816,06	89,565
816,24	73,913
816,42	49,265
816,61	58,491
816,79	53,448
816,97	52,273
817,16	39,645
817,34	54,762
817,52	55,372
817,70	74,257
817,89	41,481
818,07	57,534
818,25	65,306
818,44	41,026
818,62	15,504
818,80	20,301
818,98	44,586
819,17	57,143
819,35	55,319
819,53	48,507
819,72	70,886
819,90	34,109
820,08	-2,564
820,26	43,103
820,45	24,161
820,63	84,821
820,81	52,000
820,99	60,284
821,18	40,816
821,36	34,810
821,54	53,103
821,73	42,778
821,91	40,351
822,09	17,742
822,27	64,516
822,46	47,059
822,64	15,200
822,82	34,254
823,00	23,757
823,19	52,747
823,37	54,545
823,55	27,841
823,73	74,483
823,91	50,725
824,10	30,108
824,28	44,724
824,46	38,835
824,64	40,132
824,83	42,857
825,01	16,667
825,19	21,774
825,37	45,217
825,56	46,226
825,74	47,959
825,92	25,478
826,10	61,932
826,28	27,381
826,47	21,053
826,65	44,681
826,83	39,655
827,01	45,087
827,19	56,548
827,38	48,148
827,56	36,364
827,74	49,162
827,92	26,163
828,10	48,718
828,29	40,237
828,47	38,618
828,65	16,154
828,83	18,182
829,01	31,522
829,20	40,659
829,38	26,705
829,56	31,522
829,74	20,126
829,92	40,476
830,10	59,770
830,29	38,693
830,47	36,683
830,65	45,732
830,83	29,464
831,01	60,119
831,20	46,602
831,38	37,799
831,56	43,721
831,74	50,237
831,92	22,368
832,10	49,524
832,29	42,568
832,47	5,056
832,65	34,804
832,83	40,376
833,01	51,000
833,19	30,317
833,37	20,362
833,56	9,705
833,74	50,980
833,92	25,000
834,10	29,461
834,28	33,333
834,46	32,127
834,64	26,389
834,83	28,636
835,01	41,494
835,19	28,400
835,37	32,645
835,55	16,146
835,73	31,034
835,91	27,306
836,09	24,715
836,28	22,509
836,46	8,800
836,64	25,940
836,82	31,222
837,00	25,000
837,18	9,665
837,36	38,645
837,54	34,091
837,72	27,586
837,91	21,269
838,09	19,124
838,27	22,667
838,45	23,759
838,63	26,103
838,81	14,346
838,99	23,387
839,17	24,662
839,35	38,298
839,53	20,000
839,72	27,820
839,90	30,241
840,08	32,615
840,26	24,206
840,44	18,127
840,62	12,414
840,80	39,796
840,98	26,667
841,16	18,251
841,34	17,391
841,52	23,547
841,70	39,385
841,89	25,806
842,07	25,078
842,25	35,920
842,43	29,310
842,61	27,368
842,79	17,797
842,97	10,098
843,15	25,743
843,33	31,230
843,51	24,096
843,69	25,071
843,87	25,373
844,05	11,246
844,23	23,423
844,41	3,135
844,59	14,409
844,77	19,888
844,95	18,497
845,13	20,923
845,31	5,523
845,50	23,298
845,68	21,543
845,86	20,690
846,04	28,212
846,22	8,719
846,40	21,505
846,58	21,083
846,76	15,323
846,94	18,204
847,12	21,244
847,30	15,206
847,48	23,529
847,66	21,921
847,84	4,645
848,02	22,705
848,20	18,863
848,38	16,809
848,56	25,284
848,74	31,504
848,92	14,963
849,10	9,000
849,28	16,194
849,46	8,800
849,64	14,781
849,82	10,185
850,00	22,664
850,18	27,447
850,36	12,804
850,54	16,040
850,72	21,594
850,90	25,652
851,08	19,256
851,26	13,129
851,44	7,301
851,62	22,791
851,80	11,454
851,98	13,846
852,16	15,130
852,34	10,309
852,52	18,080
852,70	3,417
852,87	17,808
853,05	10,916
853,23	10,309
853,41	15,646
853,59	13,485
853,77	18,849
853,95	19,409
854,13	12,168
854,31	17,659
854,49	15,968
854,67	17,279
854,85	9,317
855,03	16,232
855,21	15,579
855,39	10,865
855,57	13,441
855,75	23,358
855,93	4,314
856,11	18,762
856,28	20,480
856,46	17,438
856,64	18,095
856,82	11,856
857,00	5,274
857,18	10,108
857,36	15,177
857,54	14,533
857,72	12,281
857,90	11,993
858,08	17,647
858,26	4,969
858,44	8,967
858,61	7,143
858,79	21,453
858,97	18,230
859,15	14,241
859,33	8,750
859,51	10,050
859,69	3,220
859,87	9,390
860,05	8,881
860,23	9,903
860,40	8,185
860,58	12,131
860,76	6,508
860,94	14,634
861,12	14,308
861,30	6,750
861,48	11,714
861,66	8,413
861,84	2,990
862,01	16,789
862,19	5,932
862,37	10,893
862,55	12,680
862,73	5,573
862,91	4,993
863,09	10,119
863,27	9,339
863,44	5,642
863,62	7,880
863,80	8,158
863,98	12,760
864,16	9,971
864,34	14,286
864,52	12,332
864,69	8,480
864,87	3,763
865,05	8,027
865,23	8,366
865,41	8,468
865,59	9,960
865,76	12,937
865,94	6,718
866,12	8,645
866,30	4,909
866,48	14,688
866,66	0,134
866,83	14,758
867,01	8,184
867,19	13,654
867,37	7,503
867,55	7,646
867,73	10,337
867,90	9,102
868,08	4,595
868,26	7,721
868,44	5,627
868,62	9,828
868,79	8,362
868,97	6,171
869,15	2,552
869,33	9,280
869,51	7,201
869,69	6,220
869,86	6,550
870,04	12,759
870,22	11,064
870,40	7,368
870,57	1,499
870,75	10,166
870,93	10,000
871,11	9,416
871,29	7,306
871,46	7,285
871,64	11,611
871,82	5,705
872,00	10,185
872,18	6,013
872,35	11,238
872,53	5,044
872,71	9,082
872,89	8,386
873,06	8,204
873,24	9,214
873,42	9,921
873,60	4,215
873,77	5,828
873,95	8,583
874,13	2,537
874,31	5,263
874,49	7,551
874,66	6,297
874,84	3,210
875,02	9,349
875,20	8,768
875,37	7,672
875,55	7,920
875,73	6,381
875,91	4,275
876,08	3,565
876,26	3,534
876,44	6,169
876,61	9,186
876,79	9,974
876,97	5,201
877,15	7,225
877,32	9,207
877,50	4,636
877,68	4,713
877,86	1,699
878,03	7,610
878,21	3,325
878,39	6,816
878,56	2,810
878,74	4,587
878,92	0,323
879,10	5,304
879,27	8,944
879,45	6,955
879,63	4,814
879,80	4,940
879,98	1,354
880,16	5,386
880,34	8,032
880,51	2,445
880,69	2,604
880,87	5,170
881,04	4,052
881,22	3,625
881,40	5,738
881,57	5,688
881,75	3,670
881,93	5,384
882,10	7,309
882,28	4,069
882,46	4,795
882,63	3,711
882,81	4,317
882,99	4,759
883,16	7,622
883,34	5,013
883,52	2,482
883,69	4,560
883,87	4,427
884,05	4,507
884,22	4,566
884,40	6,338
884,58	0,387
884,75	4,868
884,93	5,657
885,11	6,731
885,28	2,807
885,46	1,046
885,64	3,379
885,81	3,769
885,99	1,859
886,17	0,291
886,34	3,623
886,52	3,205
886,70	5,749
886,87	3,480
887,05	4,602
887,22	2,822
887,40	4,780
887,58	2,993
887,75	5,219
887,93	3,575
888,11	5,018
888,28	2,654
888,46	4,378
888,63	2,202
888,81	5,524
888,99	4,293
889,16	4,359
889,34	1,938
889,51	3,852
889,69	3,327
889,87	4,622
890,04	3,695
890,22	3,169
890,39	2,581
890,57	4,993
890,75	3,226
890,92	2,818
891,10	4,081
891,27	2,742
891,45	2,973
891,63	4,522
891,80	2,251
891,98	1,931
892,15	4,306
892,33	3,138
892,51	2,959
892,68	4,710
892,86	1,459
893,03	1,876
893,21	3,670
893,38	1,225
893,56	2,249
893,74	4,860
893,91	3,945
894,09	4,496
894,26	3,570
894,44	2,725
894,61	3,233
894,79	3,312
894,96	2,176
895,14	3,856
895,32	2,537
895,49	2,258
895,67	3,294
895,84	3,555
896,02	1,160
896,19	1,774
896,37	3,035
896,54	2,722
896,72	1,867
896,89	2,426
897,07	4,666
897,25	2,649
897,42	2,624
897,60	4,926
897,77	4,143
897,95	3,925
898,12	3,435
898,30	3,785
898,47	1,825
898,65	1,801
898,82	2,059
899,00	2,320
899,17	3,507
899,35	0,827
899,52	4,958
899,70	2,366
899,87	1,031
900,05	3,120
900,22	2,705
900,40	2,723
900,57	2,672
900,75	2,316
900,92	1,780
901,10	2,754
901,27	1,962
901,45	4,284
901,62	3,934
901,80	1,679
901,97	2,806
902,15	3,588
902,32	3,342
902,50	1,148
902,67	5,056
902,85	3,173
903,02	2,995
903,20	3,139
903,37	2,456
903,54	3,376
903,72	2,658
903,89	3,757
904,07	1,676
904,24	2,692
904,42	3,169
904,59	1,821
904,77	5,023
904,94	3,219
905,12	2,941
905,29	1,089
905,47	2,126
905,64	2,163
905,81	2,192
905,99	0,910
906,16	1,075
906,34	2,533
906,51	2,867
906,69	3,071
906,86	3,484
907,03	2,018
907,21	2,191
907,38	2,723
907,56	2,103
907,73	2,842
907,91	3,125
908,08	3,544
908,25	4,390
908,43	2,148
908,60	1,909
908,78	1,934
908,95	2,745
909,13	3,478
909,30	4,483
909,47	2,741
909,65	3,510
909,82	2,761
910,00	3,128
910,17	3,196
910,34	2,433
910,52	2,336
910,69	2,965
910,87	3,008
911,04	2,423
911,21	3,816
911,39	0,669
911,56	2,646
911,73	1,923
911,91	2,052
912,08	3,722
912,26	0,544
912,43	2,900
912,60	1,912
912,78	2,089
912,95	2,969
913,13	2,223
913,30	3,351
913,47	3,417
913,65	3,238
913,82	2,362
913,99	1,978
914,17	2,684
914,34	0,804
914,51	2,944
914,69	2,640
914,86	3,937
915,03	3,370
915,21	1,607
915,38	2,804
915,56	2,362
915,73	0,370
915,90	2,480
916,08	3,479
916,25	1,785
916,42	3,353
916,60	1,890
916,77	2,868
916,94	1,863
917,12	1,548
917,29	1,958
917,46	2,444
917,64	3,088
917,81	2,081
917,98	1,638
918,16	1,766
918,33	2,859
918,50	2,906
918,67	1,835
918,85	2,364
919,02	2,357
919,19	2,111
919,37	2,488
919,54	1,369
919,71	3,361
919,89	1,771
920,06	2,177
920,23	2,891
920,41	1,721
920,58	2,080
920,75	2,955
920,92	1,648
921,10	1,822
921,27	2,000
921,44	2,806
921,62	1,936
921,79	1,638
921,96	1,472
922,13	1,852
922,31	1,167
922,48	0,810
922,65	2,480
922,82	2,121
923,00	2,632
923,17	1,442
923,34	1,594
923,52	1,451
923,69	1,547
923,86	2,573
924,03	2,430
924,21	1,748
924,38	3,130
924,55	2,735
924,72	2,197
924,90	2,166
925,07	1,796
925,24	2,358
925,41	2,447
925,59	1,393
925,76	1,224
925,93	2,044
926,10	1,928
926,28	1,725
926,45	1,725
926,62	1,240
926,79	2,277
926,96	3,422
927,14	2,664
927,31	1,986
927,48	2,795
927,65	2,551
927,83	2,780
928,00	2,434
928,17	2,998
928,34	2,234
928,51	2,235
928,69	3,269
928,86	2,448
929,03	2,701
929,20	1,700
929,37	2,744
929,55	3,064
929,72	2,602
929,89	3,288
930,06	3,673
930,23	3,498
930,41	3,018
930,58	3,640
930,75	3,154
930,92	4,167
931,09	3,625
931,27	3,859
931,44	3,253
931,61	3,591
931,78	4,079
931,95	3,163
932,12	4,569
932,30	4,027
932,47	3,549
932,64	3,634
932,81	4,158
932,98	4,818
933,16	3,889
933,33	4,357
933,50	3,563
933,67	4,365
933,84	4,669
934,01	4,087
934,18	4,960
934,36	4,254
934,53	4,487
934,70	4,405
934,87	4,453
935,04	4,487
935,21	4,064
935,38	3,987
935,56	4,824
935,73	3,932
935,90	4,701
936,07	4,947
936,24	4,663
936,41	4,713
936,58	3,756
936,76	5,522
936,93	3,800
937,10	4,735
937,27	4,979
937,44	4,959
937,61	5,084
937,78	4,972
937,95	4,695
938,13	4,391
938,30	4,159
938,47	4,634
938,64	4,141
938,81	4,333
938,98	4,408
939,15	5,208
939,32	4,765
939,49	4,639
939,66	6,203
939,84	5,149
940,01	4,600
940,18	5,223
940,35	5,054
940,52	5,815
940,69	4,978
940,86	6,192
941,03	6,101
941,20	5,530
941,37	6,175
941,54	7,175
941,71	7,092
941,89	6,030
942,06	6,519
942,23	8,195
942,40	7,114
942,57	6,793
942,74	7,632
942,91	8,882
943,08	8,759
943,25	9,521
943,42	9,061
943,59	9,612
943,76	9,748
943,93	8,879
944,10	9,068
944,27	10,037
944,44	10,922
944,61	10,902
944,79	12,352
944,96	12,202
945,13	11,478
945,30	11,556
945,47	11,462
945,64	12,303
945,81	14,063
945,98	14,023
946,15	13,499
946,32	14,257
946,49	15,292
946,66	15,830
946,83	15,393
947,00	15,751
947,17	14,538
947,34	17,531
947,51	15,713
947,68	18,080
947,85	17,195
948,02	17,210
948,19	17,478
948,36	18,577
948,53	18,282
948,70	18,195
948,87	19,018
949,04	18,496
949,21	19,176
949,38	19,805
949,55	19,476
949,72	18,907
949,89	19,644
950,06	20,273
950,23	18,634
950,40	20,142
950,57	18,433
950,74	20,101
950,91	19,956
951,08	20,353
951,25	20,596
951,42	22,005
951,59	18,009
951,76	19,857
951,93	20,477
952,10	19,629
952,27	21,546
952,44	21,584
952,61	20,720
952,77	21,912
952,94	21,389
953,11	21,129
953,28	19,499
953,45	22,833
953,62	21,067
953,79	21,185
953,96	20,542
954,13	21,339
954,30	22,484
954,47	20,956
954,64	21,098
954,81	23,460
954,98	20,899
955,15	22,370
955,32	21,126
955,49	21,566
955,65	18,722
955,82	21,703
955,99	22,935
956,16	25,658
956,33	17,476
956,50	22,493
956,67	17,865
956,84	23,958
957,01	18,657
957,18	21,901
957,35	21,617
957,52	24,046
957,68	25,413
957,85	25,043
958,02	24,232
958,19	20,900
958,36	23,137
958,53	21,719
958,70	22,047
958,87	17,665
959,04	25,051
959,21	27,473
959,37	25,636
959,54	24,398
959,71	25,301
959,88	25,349
960,05	22,701
960,22	25,535
960,39	21,357
960,56	22,123
960,72	23,684
960,89	24,161
961,06	21,607
961,23	22,477
961,40	26,432
961,57	27,636
961,74	24,578
961,90	23,222
962,07	27,504
962,24	25,201
962,41	30,517
962,58	22,742
962,75	24,103
962,92	25,789
963,08	29,167
963,25	17,530
963,42	28,916
963,59	29,363
963,76	28,231
963,93	28,310
964,10	32,579
964,26	36,190
964,43	25,349
964,60	36,427
964,77	35,123
964,94	34,568
965,10	35,097
965,27	23,184
965,44	37,143
965,61	25,342
965,78	38,199
965,95	36,070
966,11	34,242
966,28	39,665
966,45	52,941
966,62	28,920
966,79	29,352
966,95	46,619
967,12	41,270
967,29	37,654
967,46	54,448
967,63	63,137
967,79	56,376
967,96	63,303
968,13	48,571
968,30	51,440
968,47	38,077
968,63	54,412
968,80	54,789
968,97	68,786
969,14	38,418
969,31	43,367
969,47	65,217
969,64	33,516
969,81	62,581
969,98	60,526
970,14	38,710
970,31	66,667
970,48	65,772
970,65	77,686
970,81	37,762
970,98	56,771
971,15	88,485
971,32	70,455
971,48	103,571
971,65	50,331
971,82	71,818
971,99	98,734
972,15	63,953
972,32	79,861
972,49	90,984
972,66	77,686
972,82	95,890
972,99	73,750
973,16	76,821
973,33	77,778
973,49	118,293
973,66	103,810
973,83	88,889
974,00	46,835
974,16	121,818
974,33	160,000
974,50	97,980
974,67	104,762
974,83	145,918
975,00	178,182
975,17	175,806
975,33	104,598
975,50	157,377
975,67	178,846
975,84	63,415
976,00	122,368
976,17	150,000
976,34	127,059
976,50	118,681
976,67	78,571
976,84	220,833
977,00	116,667
977,17	162,222
977,34	169,231
977,50	116,667
977,67	115,294
977,84	184,746
978,01	105,405
978,17	98,276
978,34	255,556
978,51	232,000
978,67	204,082
978,84	143,636
979,01	207,895
979,17	60,000
979,34	182,609
979,51	236,364
979,67	329,167
979,84	218,644
980,01	223,077
980,17	211,765
980,34	97,260
980,51	422,222
980,67	175,556
980,84	110,000
981,01	250,000
981,17	154,412
981,34	114,286
981,50	124,211
981,67	138,095
981,84	282,143
982,00	5800,000
982,17	160,938
982,34	260,976
982,50	0,000
982,67	-585,714
982,84	575,000
983,00	109,259
983,17	-771,429
983,33	977,778
983,50	212,195
983,67	120,290
983,83	261,905
984,00	317,391
984,17	1455,556
984,33	-442,857
984,50	216,216
984,66	468,750
984,83	437,500
985,00	323,077
985,16	332,258
985,33	4100,000
985,49	163,953
985,66	150,000
985,83	-3533,333
985,99	744,444
986,16	442,105
986,32	139,726
986,49	-720,000
986,66	640,000
986,82	306,061
986,99	-1420,000
987,15	209,091
987,32	429,412
987,49	357,143
987,65	-260,870
987,82	-200,000
987,98	139,394
988,15	800,000
988,31	231,429
988,48	254,902
988,65	460,000
988,81	176,364
988,98	351,351
989,14	580,000
989,31	138,983
989,47	-107,143
989,64	338,889
989,80	119,149
989,97	185,455
990,14	607,143
990,30	-850,000
990,47	-204,167
990,63	173,684
990,80	1250,000
990,96	1008,333
991,13	233,333
991,29	227,451
991,46	177,083
991,62	0,000
991,79	-270,000
991,95	370,588
992,12	1366,667
992,29	-300,000
992,45	209,524
992,62	-225,000
992,78	-1000,000
992,95	229,032
993,11	1037,500
993,28	-7400,000
993,44	-186,207
993,61	170,175
993,77	0,000
993,94	230,769
994,10	1142,857
994,27	-107,895
994,43	256,250
994,60	742,857
994,76	336,364
994,93	-1060,000
995,09	-400,000
995,26	429,167
995,42	1187,500
995,59	126,667
995,75	-308,333
995,92	-1457,143
996,08	-1220,000
996,25	200,000
996,41	1560,000
996,58	360,000
996,74	-870,000
996,91	217,742
997,07	252,000
997,23	147,059
997,40	1400,000
997,56	-2433,333
997,73	404,348
997,89	660,000
998,06	119,298
998,22	227,660
998,39	157,143
998,55	500,000
998,72	-8500,000
998,88	212,000
999,05	633,333
999,21	341,176
999,37	260,465
999,54	325,806
999,70	390,476
999,87	750,000
1000,03	436,667
1000,20	428,571
1000,36	-500,000
1000,52	350,000
1000,69	464,000
1000,85	-666,667
1001,02	128,571
1001,18	1240,000
1001,35	0,000
1001,51	350,000
1001,67	285,000
1001,84	165,854
1002,00	-336,364
1002,17	1000,000
1002,33	-825,000
1002,50	833,333
1002,66	1550,000
1002,82	282,927
1002,99	-340,909
1003,15	-6100,000
1003,32	-128,571
1003,48	-1866,667
1003,64	326,087
1003,81	-126,316
1003,97	169,565
1004,14	-181,818
1004,30	645,455
1004,46	-10600,000
1004,63	-715,385
1004,79	118,919
1004,95	-1300,000
1005,12	-153,846
1005,28	177,778
1005,45	-616,667
1005,61	376,923
1005,77	-957,143
1005,94	226,087
1006,10	-830,000
1006,26	-137,037
1006,43	272,727
1006,59	387,097
1006,76	-276,000
1006,92	326,087
1007,08	177,273
1007,25	227,778
1007,41	268,182
1007,57	-423,529
1007,74	195,652
1007,90	-378,571
1008,06	-506,667
1008,23	-236,842
1008,39	297,222
1008,55	147,059
1008,72	-1175,000
1008,88	-108,571
1009,04	-1033,333
1009,21	243,750
1009,37	448,387
1009,53	-280,000
1009,70	-0,000
1009,86	468,421
1010,02	236,364
1010,19	760,000
1010,35	8900,000
1010,51	320,000
1010,68	459,091
1010,84	480,000
1011,00	700,000
1011,17	3100,000
1011,33	292,308
1011,49	381,250
1011,66	334,375
1011,82	-1050,000
1011,98	886,667
1012,14	76,923
1012,31	268,182
1012,47	-1257,143
1012,63	4700,000
1012,80	466,667
1012,96	113,889
1013,12	-177,778
1013,29	479,167
1013,45	-170,588
1013,61	-1260,000
1013,77	77,778
1013,94	350,000
1014,10	4600,000
1014,26	-82,353
1014,43	363,158
1014,59	0,000
1014,75	720,000
1014,91	205,714
1015,08	388,462
1015,24	553,333
1015,40	540,000
1015,56	500,000
1015,73	232,653
1015,89	188,889
1016,05	213,514
1016,21	233,333
1016,38	210,526
1016,54	-396,000
1016,70	531,579
1016,86	-515,385
1017,03	0,000
1017,19	1075,000
1017,35	376,667
1017,51	2233,333
1017,68	800,000
1017,84	436,842
1018,00	223,810
1018,16	-618,750
1018,33	745,455
1018,49	585,714
1018,65	-472,727
1018,81	-24,390
1018,97	669,231
1019,14	-842,857
1019,30	271,429
1019,46	287,179
1019,62	3500,000
1019,79	-928,571
1019,95	-1325,000
1020,11	1060,000
1020,27	195,000
1020,43	-712,500
1020,60	0,000
1020,76	144,118
1020,92	7100,000
1021,08	-126,667
1021,24	-2250,000
1021,41	281,818
1021,57	-237,500
1021,73	0,000
1021,89	-309,091
1022,05	314,286
1022,21	-430,769
1022,38	394,737
1022,54	1320,000
1022,70	351,852
1022,86	-2150,000
1023,02	711,111
1023,19	-375,000
1023,35	220,755
1023,51	367,742
1023,67	139,474
1023,83	454,545
1023,99	234,286
1024,16	-46,154
1024,32	550,000
1024,48	230,612
1024,64	-620,000
1024,80	633,333
1024,96	446,154
1025,12	2333,333
1025,29	-2175,000
1025,45	254,167
1025,61	1766,667
1025,77	590,476
1025,93	-307,692
1026,09	4300,000
1026,26	-1128,571
1026,42	-1225,000
1026,58	153,846
1026,74	1357,143
1026,90	263,158
1027,06	-680,000
1027,22	-400,000
1027,38	1011,111
1027,55	-216,000
1027,71	662,500
1027,87	145,000
1028,03	193,939
1028,19	-312,121
1028,35	86,486
1028,51	-62,903
1028,67	-380,000
1028,83	242,857
1029,00	835,714
1029,16	-500,000
1029,32	141,176
1029,48	4500,000
1029,64	1314,286
1029,80	1950,000
1029,96	123,529
1030,12	-825,000
1030,28	1925,000
1030,44	-5250,000
1030,61	246,875
1030,77	-330,435
1030,93	272,093
1031,09	-228,571
1031,25	-766,667
1031,41	-2700,000
1031,57	-5,263
1031,73	627,273
1031,89	-163,636
1032,05	800,000
1032,21	1080,000
1032,37	-117,647
1032,53	-335,000
1032,69	-5500,000
1032,86	1600,000
1033,02	393,750
1033,18	-815,385
1033,34	-292,308
1033,50	406,452
1033,66	-533,333
1033,82	439,286
1033,98	-400,000
1034,14	1033,333
1034,30	-331,818
1034,46	370,833
1034,62	438,889
1034,78	130,159
1034,94	3,226
1035,10	-290,909
1035,26	-844,444
1035,42	100,000
1035,58	1280,000
1035,74	-150,000
1035,90	-483,333
1036,06	198,113
1036,22	-352,000
1036,38	526,667
1036,54	560,000
1036,70	-5150,000
1036,86	-314,286
1037,02	-3200,000
1037,18	-132,143
1037,34	321,739
1037,50	-413,333
1037,66	-3366,667
1037,82	-352,941
1037,98	357,143
1038,14	-217,241
1038,30	53,846
1038,46	208,333
1038,62	270,968
1038,78	207,143
1038,94	-115,789
1039,10	-258,333
1039,26	-136,842
1039,42	-1200,000
1039,58	183,019
1039,74	193,750
1039,90	-100,000
1040,06	464,706
>>>>>End Processed Spectral Data<<<<<
