SpectraSuite Data File
++++++++++++++++++++++++++++++++++++
Date: Thu Feb 02 17:57:53 EET 2017
User: optolab
Dark Spectrum Present: Yes
Reference Spectrum Present: Yes
Number of Sampled Component Spectra: 1
Spectrometers: USB4C02475
Integration Time (usec): 100000 (USB4C02475)
Spectra Averaged: 1 (USB4C02475)
Boxcar Smoothing: 0 (USB4C02475)
Correct for Electrical Dark: No (USB4C02475)
Strobe/Lamp Enabled: No (USB4C02475)
Correct for Detector Non-linearity: No (USB4C02475)
Correct for Stray Light: No (USB4C02475)
Number of Pixels in Processed Spectrum: 3648
>>>>>Begin Processed Spectral Data<<<<<
344,91	-1150,000
345,13	-1150,000
345,35	-1150,000
345,57	-100,000
345,79	13,043
346,00	-200,000
346,22	-1585,714
346,44	-63,636
346,66	229,787
346,87	460,870
347,09	630,769
347,31	6000,000
347,53	-1350,000
347,74	-186,047
347,96	-1371,429
348,18	255,882
348,40	594,118
348,61	-205,128
348,83	8000,000
349,05	238,462
349,27	347,059
349,48	-6200,000
349,70	785,714
349,92	338,095
350,14	254,054
350,35	-407,692
350,57	-577,778
350,79	-97,436
351,01	-246,667
351,22	480,000
351,44	608,333
351,66	305,556
351,87	1083,333
352,09	134,211
352,31	308,929
352,53	262,857
352,74	-985,714
352,96	315,789
353,18	71,875
353,40	-487,500
353,61	526,667
353,83	270,833
354,05	293,750
354,26	378,571
354,48	-1840,000
354,70	414,286
354,92	338,889
355,13	-176,744
355,35	259,259
355,57	234,375
355,78	328,571
356,00	240,426
356,22	354,545
356,44	241,860
356,65	464,286
356,87	258,333
357,09	194,286
357,30	140,909
357,52	-1283,333
357,74	280,645
357,95	251,429
358,17	79,710
358,39	264,000
358,60	197,222
358,82	381,818
359,04	210,256
359,26	202,273
359,47	-623,077
359,69	346,429
359,91	456,000
360,12	335,000
360,34	80,556
360,56	-2600,000
360,77	1022,222
360,99	412,500
361,21	321,739
361,42	-1875,000
361,64	-151,852
361,86	146,269
362,07	753,333
362,29	265,000
362,51	332,432
362,72	-1540,000
362,94	451,852
363,16	142,857
363,37	936,364
363,59	-6200,000
363,81	1287,500
364,02	137,333
364,24	238,636
364,46	495,238
364,67	211,905
364,89	458,824
365,11	251,351
365,32	374,074
365,54	331,250
365,76	209,091
365,97	243,902
366,19	128,070
366,41	1060,000
366,62	117,000
366,84	425,000
367,05	100,980
367,27	1840,000
367,49	335,897
367,70	900,000
367,92	189,583
368,14	-600,000
368,35	198,529
368,57	175,758
368,79	150,000
369,00	138,462
369,22	316,667
369,43	484,211
369,65	-175,862
369,87	-288,235
370,08	440,000
370,30	535,714
370,51	218,182
370,73	244,444
370,95	540,000
371,16	154,386
371,38	218,868
371,60	223,333
371,81	144,565
372,03	-1100,000
372,24	-125,000
372,46	3133,333
372,68	141,176
372,89	135,780
373,11	181,395
373,32	131,092
373,54	409,091
373,76	500,000
373,97	300,000
374,19	-221,053
374,40	140,000
374,62	494,118
374,84	479,167
375,05	232,692
375,27	270,270
375,48	127,160
375,70	517,647
375,92	208,929
376,13	731,579
376,35	362,500
376,56	305,000
376,78	218,367
376,99	396,970
377,21	275,000
377,43	224,242
377,64	124,000
377,86	443,750
378,07	100,000
378,29	197,222
378,51	119,048
378,72	-190,909
378,94	154,348
379,15	195,455
379,37	468,750
379,58	163,333
379,80	129,545
380,01	130,000
380,23	460,870
380,45	189,583
380,66	136,111
380,88	254,054
381,09	321,739
381,31	302,564
381,52	273,913
381,74	196,429
381,95	292,857
382,17	312,000
382,39	162,903
382,60	688,235
382,82	362,069
383,03	2333,333
383,25	81,481
383,46	558,333
383,68	206,383
383,89	468,182
384,11	142,466
384,32	128,947
384,54	-800,000
384,76	170,588
384,97	245,000
385,19	447,368
385,40	290,625
385,62	232,258
385,83	246,809
386,05	1100,000
386,26	380,769
386,48	653,846
386,69	316,667
386,91	200,000
387,12	241,026
387,34	150,847
387,55	185,714
387,77	388,000
387,98	153,061
388,20	166,197
388,41	82,540
388,63	222,857
388,84	272,500
389,06	220,930
389,27	303,125
389,49	79,518
389,70	194,915
389,92	170,455
390,13	197,436
390,35	103,125
390,56	207,812
390,78	318,182
390,99	253,333
391,21	106,818
391,42	165,217
391,64	-1010,000
391,85	208,621
392,07	-135,714
392,28	173,077
392,50	2480,000
392,71	3400,000
392,93	79,032
393,14	210,870
393,36	160,256
393,57	237,500
393,79	209,524
394,00	57,534
394,22	166,000
394,43	303,571
394,65	264,286
394,86	196,875
395,08	-962,500
395,29	170,213
395,50	-3700,000
395,72	942,857
395,93	324,000
396,15	-257,143
396,36	216,667
396,58	-319,048
396,79	134,884
397,01	245,238
397,22	130,435
397,44	182,979
397,65	108,108
397,87	135,714
398,08	215,385
398,29	341,667
398,51	197,561
398,72	208,696
398,94	197,674
399,15	90,000
399,37	163,043
399,58	147,619
399,80	346,667
400,01	258,824
400,22	278,571
400,44	385,714
400,65	131,507
400,87	1000,000
401,08	113,483
401,30	172,000
401,51	103,636
401,72	112,903
401,94	239,024
402,15	112,245
402,37	231,818
402,58	93,023
402,80	468,750
403,01	241,667
403,22	136,145
403,44	219,444
403,65	177,551
403,87	125,333
404,08	169,231
404,30	190,625
404,51	127,143
404,72	1218,182
404,94	134,940
405,15	140,299
405,37	131,868
405,58	293,548
405,79	657,143
406,01	122,963
406,22	122,619
406,44	147,368
406,65	123,810
406,86	139,000
407,08	132,099
407,29	197,333
407,51	89,423
407,72	127,723
407,93	150,633
408,15	177,273
408,36	311,429
408,58	137,500
408,79	96,899
409,00	117,730
409,22	111,765
409,43	136,937
409,64	108,974
409,86	169,318
410,07	106,957
410,29	88,000
410,50	124,603
410,71	92,742
410,93	71,287
411,14	147,664
411,35	86,111
411,57	66,667
411,78	78,676
412,00	60,000
412,21	48,673
412,42	61,463
412,64	57,778
412,85	41,969
413,06	40,179
413,28	38,824
413,49	45,116
413,70	30,472
413,92	33,333
414,13	24,901
414,34	32,714
414,56	31,915
414,77	16,974
414,98	24,028
415,20	33,692
415,41	30,519
415,63	32,194
415,84	24,654
416,05	23,795
416,27	17,270
416,48	27,488
416,69	7,849
416,91	21,067
417,12	10,181
417,33	12,867
417,55	19,600
417,76	17,970
417,97	15,730
418,19	8,996
418,40	4,904
418,61	10,292
418,83	15,141
419,04	9,767
419,25	10,207
419,46	15,409
419,68	13,864
419,89	12,121
420,10	10,215
420,32	11,126
420,53	10,143
420,74	10,753
420,96	14,336
421,17	9,122
421,38	4,440
421,60	4,716
421,81	6,607
422,02	7,360
422,23	8,944
422,45	7,081
422,66	5,769
422,87	5,344
423,09	3,691
423,30	5,157
423,51	6,394
423,73	5,918
423,94	4,404
424,15	4,406
424,36	5,370
424,58	2,826
424,79	3,709
425,00	5,707
425,22	4,824
425,43	3,312
425,64	3,751
425,85	2,706
426,07	3,472
426,28	3,524
426,49	3,662
426,71	2,041
426,92	4,519
427,13	1,471
427,34	3,500
427,56	4,403
427,77	1,325
427,98	1,706
428,19	2,094
428,41	2,399
428,62	2,808
428,83	1,472
429,04	4,452
429,26	2,130
429,47	4,911
429,68	0,964
429,89	1,865
430,11	2,894
430,32	2,539
430,53	0,972
430,74	1,827
430,96	1,323
431,17	2,327
431,38	2,727
431,59	1,903
431,81	2,296
432,02	1,934
432,23	2,794
432,44	2,317
432,66	1,960
432,87	1,332
433,08	1,435
433,29	0,966
433,51	2,080
433,72	1,497
433,93	0,856
434,14	1,015
434,35	0,909
434,57	0,675
434,78	1,861
434,99	1,462
435,20	1,361
435,42	1,087
435,63	0,298
435,84	1,381
436,05	1,118
436,26	0,194
436,48	1,684
436,69	1,310
436,90	0,862
437,11	1,222
437,32	1,177
437,54	0,916
437,75	0,783
437,96	1,011
438,17	1,065
438,38	1,334
438,60	1,459
438,81	0,648
439,02	0,970
439,23	0,733
439,44	0,418
439,66	0,933
439,87	0,675
440,08	0,667
440,29	0,873
440,50	1,275
440,72	0,857
440,93	0,958
441,14	0,935
441,35	0,244
441,56	0,387
441,77	0,911
441,99	0,529
442,20	0,678
442,41	0,579
442,62	0,501
442,83	0,641
443,04	0,199
443,26	0,693
443,47	0,764
443,68	0,477
443,89	0,869
444,10	0,568
444,31	0,926
444,53	0,753
444,74	0,646
444,95	0,394
445,16	0,285
445,37	0,490
445,58	0,354
445,80	0,544
446,01	0,902
446,22	0,577
446,43	0,589
446,64	0,391
446,85	0,473
447,06	0,686
447,28	0,412
447,49	0,433
447,70	0,764
447,91	0,817
448,12	0,330
448,33	0,455
448,54	0,463
448,76	0,517
448,97	0,209
449,18	0,589
449,39	0,779
449,60	0,606
449,81	0,772
450,02	0,670
450,23	0,746
450,45	0,777
450,66	0,677
450,87	0,416
451,08	0,538
451,29	0,952
451,50	0,591
451,71	0,472
451,92	0,579
452,13	0,719
452,35	0,422
452,56	0,395
452,77	0,838
452,98	0,668
453,19	0,950
453,40	0,678
453,61	0,566
453,82	0,748
454,03	0,823
454,25	0,621
454,46	0,490
454,67	0,496
454,88	0,568
455,09	0,762
455,30	0,767
455,51	0,586
455,72	0,750
455,93	0,609
456,14	0,721
456,35	0,368
456,56	0,524
456,78	0,745
456,99	1,182
457,20	0,601
457,41	0,515
457,62	0,522
457,83	0,674
458,04	0,824
458,25	0,583
458,46	0,625
458,67	1,016
458,88	0,843
459,09	0,439
459,30	0,617
459,51	0,709
459,73	0,570
459,94	0,757
460,15	0,362
460,36	0,426
460,57	0,586
460,78	0,596
460,99	0,569
461,20	0,654
461,41	0,825
461,62	0,462
461,83	0,576
462,04	0,512
462,25	0,788
462,46	0,554
462,67	0,448
462,88	0,513
463,09	0,619
463,30	0,618
463,51	0,420
463,72	0,632
463,93	0,810
464,15	0,552
464,36	0,520
464,57	0,626
464,78	0,616
464,99	1,145
465,20	0,918
465,41	0,787
465,62	1,026
465,83	1,003
466,04	1,125
466,25	0,958
466,46	0,961
466,67	0,994
466,88	1,057
467,09	0,998
467,30	1,009
467,51	1,146
467,72	1,022
467,93	0,972
468,14	1,007
468,35	1,354
468,56	1,303
468,77	1,558
468,98	2,342
469,19	3,930
469,40	7,032
469,61	13,220
469,82	22,762
470,03	36,269
470,24	52,422
470,45	68,990
470,66	80,768
470,87	89,614
471,08	96,014
471,29	98,091
471,50	100,447
471,71	100,965
471,92	102,599
472,13	101,845
472,34	102,865
472,55	102,872
472,76	101,634
472,97	101,895
473,18	102,662
473,39	103,232
473,60	101,305
473,81	100,765
474,01	101,663
474,22	103,157
474,43	102,529
474,64	102,865
474,85	102,448
475,06	102,339
475,27	101,982
475,48	102,843
475,69	102,887
475,90	103,179
476,11	103,103
476,32	102,910
476,53	103,491
476,74	103,529
476,95	102,516
477,16	102,433
477,37	102,344
477,58	102,239
477,79	103,293
478,00	102,401
478,21	103,459
478,41	103,311
478,62	103,072
478,83	103,352
479,04	101,140
479,25	100,942
479,46	102,974
479,67	102,931
479,88	103,472
480,09	102,399
480,30	102,994
480,51	102,631
480,72	102,914
480,93	103,751
481,14	103,324
481,34	103,230
481,55	102,493
481,76	102,701
481,97	102,161
482,18	102,148
482,39	103,762
482,60	102,828
482,81	103,667
483,02	101,533
483,23	101,743
483,44	101,224
483,65	100,580
483,85	101,045
484,06	100,018
484,27	100,786
484,48	101,131
484,69	99,754
484,90	101,653
485,11	100,093
485,32	100,554
485,53	100,850
485,73	101,158
485,94	100,831
486,15	102,568
486,36	101,731
486,57	100,626
486,78	100,677
486,99	101,476
487,20	100,659
487,41	100,645
487,61	100,564
487,82	100,835
488,03	100,021
488,24	101,430
488,45	101,096
488,66	100,937
488,87	100,947
489,08	101,920
489,28	101,262
489,49	100,388
489,70	101,237
489,91	100,556
490,12	99,388
490,33	99,031
490,54	100,119
490,74	98,595
490,95	96,977
491,16	95,616
491,37	93,703
491,58	91,339
491,79	89,007
492,00	83,024
492,20	77,210
492,41	66,791
492,62	55,037
492,83	42,492
493,04	29,744
493,25	19,171
493,45	11,631
493,66	7,315
493,87	4,006
494,08	2,464
494,29	1,756
494,50	1,307
494,70	1,119
494,91	0,992
495,12	0,646
495,33	0,874
495,54	0,781
495,75	0,775
495,95	0,627
496,16	0,647
496,37	0,551
496,58	0,529
496,79	0,490
496,99	0,555
497,20	0,541
497,41	0,535
497,62	0,493
497,83	0,558
498,04	0,444
498,24	0,552
498,45	0,577
498,66	0,577
498,87	0,645
499,08	0,651
499,28	0,437
499,49	0,517
499,70	0,506
499,91	0,414
500,12	0,477
500,32	0,643
500,53	0,452
500,74	0,549
500,95	0,318
501,15	0,554
501,36	0,538
501,57	0,432
501,78	0,487
501,99	0,486
502,19	0,392
502,40	0,481
502,61	0,465
502,82	0,466
503,02	0,295
503,23	0,618
503,44	0,612
503,65	0,551
503,86	0,390
504,06	0,401
504,27	0,688
504,48	0,310
504,69	0,576
504,89	0,388
505,10	0,340
505,31	0,601
505,52	0,368
505,72	0,564
505,93	0,554
506,14	0,334
506,35	0,299
506,55	0,332
506,76	0,421
506,97	0,474
507,18	0,407
507,38	0,281
507,59	0,576
507,80	0,466
508,01	0,412
508,21	0,285
508,42	0,318
508,63	0,426
508,84	0,517
509,04	0,415
509,25	0,456
509,46	0,440
509,67	0,505
509,87	0,429
510,08	0,527
510,29	0,423
510,49	0,502
510,70	0,393
510,91	0,472
511,12	0,425
511,32	0,447
511,53	0,334
511,74	0,306
511,94	0,228
512,15	0,281
512,36	0,304
512,57	0,457
512,77	0,380
512,98	0,259
513,19	0,466
513,39	0,359
513,60	0,389
513,81	0,495
514,01	0,545
514,22	0,421
514,43	0,445
514,64	0,404
514,84	0,471
515,05	0,520
515,26	0,392
515,46	0,185
515,67	0,236
515,88	0,485
516,08	0,416
516,29	0,281
516,50	0,242
516,70	0,399
516,91	0,567
517,12	0,495
517,32	0,235
517,53	0,334
517,74	0,520
517,95	0,517
518,15	0,416
518,36	0,390
518,57	0,280
518,77	0,366
518,98	0,402
519,19	0,400
519,39	0,478
519,60	0,359
519,80	0,174
520,01	0,319
520,22	0,410
520,42	0,275
520,63	0,342
520,84	0,368
521,04	0,288
521,25	0,526
521,46	0,279
521,66	0,336
521,87	0,277
522,08	0,454
522,28	0,393
522,49	0,539
522,70	0,380
522,90	0,372
523,11	0,122
523,31	0,324
523,52	0,293
523,73	0,346
523,93	0,441
524,14	0,332
524,35	0,495
524,55	0,461
524,76	0,498
524,97	0,289
525,17	0,399
525,38	0,304
525,58	0,411
525,79	0,450
526,00	0,447
526,20	0,324
526,41	0,436
526,61	0,425
526,82	0,190
527,03	0,364
527,23	0,406
527,44	0,573
527,64	0,451
527,85	0,255
528,06	0,527
528,26	0,385
528,47	0,284
528,68	0,576
528,88	0,276
529,09	0,198
529,29	0,548
529,50	0,247
529,70	0,427
529,91	0,409
530,12	0,402
530,32	0,381
530,53	0,410
530,73	0,297
530,94	0,401
531,15	0,318
531,35	0,353
531,56	0,507
531,76	0,405
531,97	0,304
532,17	0,393
532,38	0,428
532,59	0,403
532,79	0,591
533,00	0,257
533,20	0,188
533,41	0,485
533,61	0,276
533,82	0,209
534,03	0,289
534,23	0,304
534,44	0,421
534,64	0,411
534,85	0,264
535,05	0,318
535,26	0,320
535,46	0,388
535,67	0,190
535,88	0,500
536,08	0,473
536,29	0,441
536,49	0,545
536,70	0,327
536,90	0,396
537,11	0,382
537,31	0,469
537,52	0,353
537,72	0,560
537,93	0,381
538,13	0,434
538,34	0,440
538,55	0,390
538,75	0,287
538,96	0,313
539,16	0,261
539,37	0,471
539,57	0,463
539,78	0,491
539,98	0,578
540,19	0,534
540,39	0,425
540,60	0,367
540,80	0,512
541,01	0,522
541,21	0,532
541,42	0,469
541,62	0,516
541,83	0,314
542,03	0,393
542,24	0,461
542,44	0,363
542,65	0,299
542,85	0,596
543,06	0,498
543,26	0,433
543,47	0,532
543,67	0,678
543,88	0,476
544,08	0,139
544,29	0,539
544,49	0,321
544,70	0,214
544,90	0,480
545,11	0,465
545,31	0,508
545,52	0,501
545,72	0,391
545,93	0,344
546,13	0,439
546,34	0,445
546,54	0,451
546,75	0,464
546,95	0,615
547,15	0,449
547,36	0,610
547,56	0,434
547,77	0,420
547,97	0,340
548,18	0,428
548,38	0,448
548,59	0,405
548,79	0,584
549,00	0,571
549,20	0,412
549,41	0,524
549,61	0,499
549,81	0,399
550,02	0,568
550,22	0,521
550,43	0,525
550,63	0,612
550,84	0,711
551,04	0,629
551,25	0,857
551,45	0,956
551,65	0,930
551,86	0,728
552,06	0,694
552,27	0,705
552,47	0,827
552,68	0,995
552,88	0,925
553,08	0,872
553,29	0,989
553,49	0,849
553,70	1,173
553,90	1,222
554,11	1,959
554,31	2,498
554,51	4,106
554,72	6,483
554,92	10,592
555,13	16,658
555,33	25,540
555,53	36,493
555,74	50,642
555,94	63,105
556,15	75,177
556,35	83,483
556,56	90,318
556,76	93,034
556,96	96,156
557,17	98,324
557,37	98,628
557,58	98,714
557,78	98,563
557,98	99,190
558,19	100,104
558,39	98,893
558,59	100,054
558,80	100,058
559,00	99,347
559,21	100,932
559,41	99,909
559,61	99,693
559,82	101,317
560,02	99,889
560,23	100,540
560,43	100,202
560,63	100,540
560,84	101,212
561,04	100,046
561,24	100,997
561,45	99,235
561,65	99,878
561,85	100,489
562,06	100,986
562,26	101,189
562,47	101,817
562,67	100,446
562,87	101,295
563,08	101,324
563,28	101,899
563,48	100,996
563,69	101,602
563,89	102,437
564,09	101,878
564,30	100,722
564,50	101,200
564,70	101,856
564,91	101,236
565,11	100,356
565,31	100,686
565,52	101,251
565,72	99,277
565,92	100,450
566,13	98,974
566,33	98,438
566,53	99,067
566,74	98,410
566,94	99,174
567,14	98,522
567,35	97,595
567,55	97,903
567,75	96,625
567,96	94,958
568,16	94,063
568,36	91,537
568,57	88,442
568,77	84,668
568,97	78,208
569,18	70,762
569,38	62,164
569,58	51,671
569,79	39,214
569,99	28,015
570,19	18,667
570,39	12,407
570,60	7,699
570,80	5,136
571,00	3,359
571,21	2,506
571,41	1,648
571,61	1,211
571,82	1,097
572,02	0,725
572,22	0,478
572,42	0,655
572,63	0,570
572,83	0,727
573,03	0,456
573,24	0,382
573,44	0,435
573,64	0,482
573,84	0,236
574,05	0,317
574,25	0,419
574,45	0,217
574,66	0,433
574,86	0,470
575,06	0,456
575,26	0,486
575,47	0,362
575,67	0,400
575,87	0,540
576,07	0,203
576,28	0,435
576,48	0,385
576,68	0,484
576,88	0,419
577,09	0,272
577,29	0,581
577,49	0,428
577,69	0,195
577,90	0,396
578,10	0,299
578,30	0,618
578,50	0,212
578,71	0,380
578,91	0,377
579,11	0,372
579,31	0,502
579,52	0,312
579,72	0,287
579,92	0,420
580,12	0,342
580,33	0,392
580,53	0,376
580,73	0,397
580,93	0,281
581,13	0,290
581,34	0,198
581,54	0,395
581,74	0,385
581,94	0,419
582,15	0,569
582,35	0,251
582,55	0,271
582,75	0,337
582,95	0,342
583,16	0,246
583,36	0,355
583,56	0,244
583,76	0,295
583,96	0,309
584,17	0,278
584,37	0,209
584,57	0,312
584,77	0,192
584,97	0,371
585,18	0,221
585,38	0,218
585,58	0,316
585,78	0,448
585,98	0,426
586,19	0,325
586,39	0,320
586,59	0,218
586,79	0,487
586,99	0,121
587,20	0,201
587,40	0,293
587,60	0,191
587,80	0,244
588,00	0,348
588,20	0,339
588,41	0,285
588,61	0,454
588,81	0,263
589,01	0,376
589,21	0,329
589,41	0,149
589,62	0,270
589,82	0,413
590,02	0,310
590,22	0,428
590,42	0,365
590,62	0,359
590,83	0,223
591,03	0,142
591,23	0,207
591,43	0,382
591,63	0,285
591,83	0,304
592,03	0,288
592,24	0,344
592,44	0,328
592,64	0,285
592,84	0,317
593,04	0,199
593,24	0,392
593,44	0,225
593,65	0,292
593,85	0,267
594,05	0,378
594,25	0,218
594,45	0,277
594,65	0,256
594,85	0,198
595,06	0,211
595,26	0,509
595,46	0,181
595,66	0,306
595,86	0,240
596,06	0,310
596,26	0,308
596,46	0,378
596,66	0,457
596,87	0,390
597,07	0,402
597,27	0,232
597,47	0,193
597,67	0,279
597,87	0,101
598,07	0,216
598,27	0,227
598,47	0,532
598,67	0,308
598,88	0,440
599,08	0,340
599,28	0,361
599,48	0,222
599,68	0,369
599,88	0,193
600,08	0,278
600,28	0,428
600,48	0,426
600,68	0,220
600,88	0,287
601,09	0,379
601,29	0,411
601,49	0,237
601,69	0,309
601,89	0,297
602,09	0,532
602,29	0,151
602,49	0,091
602,69	0,278
602,89	0,267
603,09	0,306
603,29	0,433
603,49	0,541
603,69	0,347
603,90	0,238
604,10	0,440
604,30	0,348
604,50	0,475
604,70	0,112
604,90	0,282
605,10	0,240
605,30	0,310
605,50	0,295
605,70	0,475
605,90	0,134
606,10	0,192
606,30	0,214
606,50	0,302
606,70	0,293
606,90	0,085
607,10	0,231
607,30	0,369
607,50	0,244
607,70	0,443
607,90	0,510
608,10	0,527
608,30	0,270
608,50	0,335
608,70	0,491
608,90	0,237
609,11	0,362
609,31	0,427
609,51	0,443
609,71	0,149
609,91	0,226
610,11	0,483
610,31	0,359
610,51	0,357
610,71	0,333
610,91	0,317
611,11	0,235
611,31	0,247
611,51	0,235
611,71	0,281
611,91	0,517
612,11	0,357
612,31	0,431
612,51	0,424
612,71	0,291
612,91	0,226
613,11	0,409
613,31	0,304
613,51	0,271
613,71	0,354
613,91	0,420
614,11	0,423
614,31	0,331
614,50	0,562
614,70	0,284
614,90	0,523
615,10	0,382
615,30	0,381
615,50	0,334
615,70	0,638
615,90	0,460
616,10	0,303
616,30	0,413
616,50	0,310
616,70	0,423
616,90	0,458
617,10	0,485
617,30	0,330
617,50	0,400
617,70	0,459
617,90	0,373
618,10	0,376
618,30	0,226
618,50	0,345
618,70	0,299
618,90	0,271
619,10	0,215
619,30	0,124
619,49	0,336
619,69	0,459
619,89	0,383
620,09	0,286
620,29	0,368
620,49	0,515
620,69	0,300
620,89	0,318
621,09	0,491
621,29	0,359
621,49	0,305
621,69	0,293
621,89	0,459
622,09	0,488
622,29	0,284
622,48	0,528
622,68	0,402
622,88	0,444
623,08	0,449
623,28	0,318
623,48	0,444
623,68	0,469
623,88	0,422
624,08	0,589
624,28	0,781
624,48	0,740
624,67	0,531
624,87	0,674
625,07	0,709
625,27	0,642
625,47	0,893
625,67	0,707
625,87	0,657
626,07	0,694
626,27	0,955
626,47	0,880
626,66	0,996
626,86	1,469
627,06	1,705
627,26	2,650
627,46	4,170
627,66	7,135
627,86	11,325
628,06	17,683
628,25	25,570
628,45	35,308
628,65	47,883
628,85	59,797
629,05	70,091
629,25	78,294
629,45	84,312
629,65	87,978
629,84	91,005
630,04	93,143
630,24	94,956
630,44	95,734
630,64	97,181
630,84	98,263
631,04	97,836
631,23	99,328
631,43	100,385
631,63	102,143
631,83	100,866
632,03	101,936
632,23	102,713
632,42	103,775
632,62	103,366
632,82	103,362
633,02	102,935
633,22	103,461
633,42	102,166
633,62	101,579
633,81	102,022
634,01	100,424
634,21	100,089
634,41	99,904
634,61	99,226
634,80	98,805
635,00	98,059
635,20	98,561
635,40	98,176
635,60	99,186
635,80	99,803
635,99	100,593
636,19	101,065
636,39	100,872
636,59	102,154
636,79	102,219
636,98	102,387
637,18	102,208
637,38	101,954
637,58	101,953
637,78	102,814
637,97	101,074
638,17	102,154
638,37	101,989
638,57	102,480
638,77	102,839
638,96	101,676
639,16	101,823
639,36	101,548
639,56	101,146
639,76	101,249
639,95	102,198
640,15	100,734
640,35	102,458
640,55	101,137
640,75	101,060
640,94	100,321
641,14	101,412
641,34	100,846
641,54	100,902
641,73	99,250
641,93	99,975
642,13	99,942
642,33	99,160
642,53	98,275
642,72	97,701
642,92	97,280
643,12	98,576
643,32	98,793
643,51	99,893
643,71	99,833
643,91	101,402
644,11	101,000
644,30	102,043
644,50	103,251
644,70	101,917
644,90	103,313
645,09	103,678
645,29	101,276
645,49	100,762
645,69	102,120
645,88	100,742
646,08	99,819
646,28	100,416
646,48	99,676
646,67	97,669
646,87	98,465
647,07	98,508
647,26	98,323
647,46	96,636
647,66	95,957
647,86	92,334
648,05	85,662
648,25	80,124
648,45	72,426
648,65	60,014
648,84	49,559
649,04	39,792
649,24	30,114
649,43	22,816
649,63	15,207
649,83	11,001
650,03	8,639
650,22	5,688
650,42	4,429
650,62	3,671
650,81	2,570
651,01	1,893
651,21	1,350
651,40	1,445
651,60	0,689
651,80	1,200
652,00	1,398
652,19	0,688
652,39	0,862
652,59	1,029
652,78	0,657
652,98	0,563
653,18	0,661
653,37	0,786
653,57	1,167
653,77	0,978
653,96	0,814
654,16	1,118
654,36	0,856
654,55	0,556
654,75	0,518
654,95	0,775
655,14	0,845
655,34	1,136
655,54	0,955
655,73	0,669
655,93	0,715
656,13	0,487
656,32	0,317
656,52	0,892
656,72	0,426
656,91	0,847
657,11	1,095
657,31	0,452
657,50	0,949
657,70	0,720
657,90	0,669
658,09	0,894
658,29	0,709
658,49	0,820
658,68	0,730
658,88	0,942
659,07	0,593
659,27	0,916
659,47	0,697
659,66	0,477
659,86	0,533
660,06	0,822
660,25	0,504
660,45	0,642
660,64	0,018
660,84	0,898
661,04	0,324
661,23	0,670
661,43	0,588
661,63	0,525
661,82	0,173
662,02	0,877
662,21	0,654
662,41	0,804
662,61	0,649
662,80	0,702
663,00	0,017
663,19	0,908
663,39	0,242
663,59	0,930
663,78	0,868
663,98	0,675
664,17	0,809
664,37	0,612
664,57	0,523
664,76	0,773
664,96	0,664
665,15	0,613
665,35	0,534
665,55	0,410
665,74	0,557
665,94	0,700
666,13	0,249
666,33	0,726
666,53	0,827
666,72	0,253
666,92	0,470
667,11	0,965
667,31	0,190
667,50	0,406
667,70	0,920
667,90	0,139
668,09	0,443
668,29	0,695
668,48	0,228
668,68	0,601
668,87	0,508
669,07	0,216
669,26	0,417
669,46	0,633
669,66	0,720
669,85	0,615
670,05	0,537
670,24	0,456
670,44	0,346
670,63	0,125
670,83	0,382
671,02	0,282
671,22	0,558
671,42	0,687
671,61	0,526
671,81	0,554
672,00	0,598
672,20	0,296
672,39	0,510
672,59	0,368
672,78	0,226
672,98	0,211
673,17	0,304
673,37	0,449
673,56	0,276
673,76	0,153
673,95	0,430
674,15	0,542
674,34	0,514
674,54	0,621
674,73	0,626
674,93	0,539
675,13	0,662
675,32	0,666
675,52	0,693
675,71	0,494
675,91	0,415
676,10	0,542
676,30	0,309
676,49	0,251
676,69	0,622
676,88	0,283
677,08	0,491
677,27	0,352
677,47	0,364
677,66	0,504
677,86	0,608
678,05	0,396
678,24	0,299
678,44	0,623
678,63	0,380
678,83	0,229
679,02	0,602
679,22	0,358
679,41	0,666
679,61	0,388
679,80	0,432
680,00	0,124
680,19	0,439
680,39	0,476
680,58	0,203
680,78	0,098
680,97	0,364
681,17	0,577
681,36	0,249
681,56	0,275
681,75	0,246
681,94	0,198
682,14	0,569
682,33	0,407
682,53	0,265
682,72	0,452
682,92	0,464
683,11	0,090
683,31	0,462
683,50	0,214
683,69	0,252
683,89	0,452
684,08	0,415
684,28	0,153
684,47	0,321
684,67	0,248
684,86	0,168
685,06	0,227
685,25	0,400
685,44	0,382
685,64	0,455
685,83	0,304
686,03	0,141
686,22	0,418
686,42	0,356
686,61	0,323
686,80	0,096
687,00	0,266
687,19	0,235
687,39	0,129
687,58	0,358
687,77	0,282
687,97	0,269
688,16	0,278
688,36	0,178
688,55	0,225
688,74	0,072
688,94	0,103
689,13	0,277
689,33	0,154
689,52	0,387
689,71	0,228
689,91	0,113
690,10	0,375
690,30	0,080
690,49	0,187
690,68	0,484
690,88	-0,071
691,07	0,174
691,27	0,180
691,46	0,343
691,65	0,217
691,85	0,251
692,04	0,245
692,23	0,234
692,43	0,349
692,62	0,415
692,82	0,289
693,01	0,342
693,20	0,157
693,40	0,080
693,59	0,134
693,78	0,222
693,98	0,151
694,17	0,345
694,36	0,444
694,56	0,270
694,75	0,290
694,94	0,333
695,14	0,205
695,33	0,312
695,53	0,370
695,72	0,448
695,91	0,065
696,11	0,231
696,30	0,269
696,49	0,328
696,69	0,147
696,88	0,249
697,07	0,489
697,27	0,303
697,46	0,627
697,65	0,204
697,85	0,176
698,04	0,496
698,23	0,268
698,43	0,455
698,62	-0,322
698,81	0,651
699,01	0,793
699,20	0,414
699,39	0,505
699,58	0,481
699,78	0,421
699,97	0,495
700,16	0,202
700,36	0,484
700,55	0,621
700,74	0,587
700,94	0,485
701,13	0,464
701,32	0,136
701,52	0,379
701,71	0,686
701,90	0,843
702,09	0,813
702,29	1,076
702,48	0,296
702,67	1,011
702,87	0,887
703,06	0,488
703,25	1,363
703,44	0,699
703,64	0,981
703,83	1,419
704,02	1,715
704,22	0,974
704,41	1,084
704,60	0,857
704,79	1,074
704,99	1,009
705,18	1,778
705,37	0,983
705,56	1,466
705,76	1,608
705,95	1,852
706,14	1,296
706,33	1,243
706,53	1,419
706,72	0,816
706,91	1,177
707,11	0,580
707,30	0,898
707,49	0,798
707,68	1,478
707,88	0,679
708,07	1,048
708,26	1,616
708,45	2,024
708,64	2,207
708,84	1,132
709,03	1,352
709,22	1,700
709,41	2,013
709,61	0,522
709,80	2,581
709,99	2,855
710,18	2,374
710,38	1,038
710,57	1,938
710,76	1,606
710,95	2,164
711,14	2,284
711,34	2,787
711,53	2,835
711,72	3,283
711,91	2,952
712,11	1,444
712,30	0,115
712,49	2,374
712,68	1,187
712,87	2,449
713,07	2,931
713,26	1,624
713,45	2,039
713,64	2,575
713,83	2,419
714,03	0,313
714,22	3,620
714,41	3,864
714,60	1,993
714,79	1,152
714,99	0,805
715,18	3,465
715,37	4,826
715,56	4,194
715,75	3,302
715,94	4,872
716,14	4,396
716,33	4,058
716,52	3,407
716,71	2,710
716,90	2,553
717,10	2,283
717,29	4,389
717,48	3,170
717,67	2,651
717,86	3,345
718,05	4,040
718,24	4,162
718,44	4,611
718,63	2,007
718,82	2,686
719,01	3,487
719,20	3,429
719,39	3,333
719,59	2,539
719,78	2,605
719,97	2,811
720,16	4,234
720,35	4,267
720,54	0,978
720,73	6,212
720,93	4,989
721,12	1,437
721,31	2,259
721,50	4,727
721,69	5,353
721,88	5,837
722,07	1,650
722,27	4,450
722,46	7,796
722,65	5,798
722,84	4,355
723,03	2,159
723,22	1,531
723,41	3,821
723,60	4,007
723,79	4,620
723,99	6,287
724,18	10,059
724,37	2,089
724,56	5,196
724,75	3,565
724,94	8,615
725,13	3,348
725,32	8,911
725,51	1,860
725,71	4,791
725,90	5,671
726,09	7,032
726,28	7,912
726,47	2,959
726,66	2,888
726,85	8,531
727,04	1,325
727,23	7,832
727,42	9,681
727,61	3,807
727,81	-0,973
728,00	3,950
728,19	7,692
728,38	5,895
728,57	6,563
728,76	3,326
728,95	9,479
729,14	6,926
729,33	5,699
729,52	5,849
729,71	9,002
729,90	7,692
730,09	9,133
730,28	9,372
730,48	11,061
730,67	8,371
730,86	6,974
731,05	2,217
731,24	-2,439
731,43	6,969
731,62	6,071
731,81	4,540
732,00	12,934
732,19	2,885
732,38	5,513
732,57	10,636
732,76	5,062
732,95	3,732
733,14	-2,439
733,33	3,571
733,52	11,798
733,71	8,178
733,90	4,661
734,09	7,973
734,28	9,711
734,47	5,417
734,66	7,487
734,85	6,571
735,04	9,700
735,23	13,165
735,42	11,885
735,61	9,767
735,81	7,988
736,00	5,840
736,19	9,271
736,38	6,287
736,57	11,385
736,76	4,088
736,95	10,032
737,14	13,238
737,33	12,588
737,52	7,538
737,71	7,705
737,90	8,192
738,09	10,198
738,28	10,762
738,47	8,577
738,66	10,256
738,85	11,862
739,04	7,547
739,22	10,702
739,41	10,294
739,60	5,119
739,79	1,259
739,98	3,226
740,17	16,212
740,36	8,318
740,55	16,879
740,74	19,039
740,93	14,340
741,12	7,321
741,31	8,451
741,50	3,781
741,69	12,920
741,88	7,905
742,07	12,862
742,26	7,810
742,45	17,213
742,64	11,700
742,83	17,345
743,02	5,053
743,21	21,480
743,40	2,277
743,59	12,500
743,78	9,589
743,97	16,346
744,16	9,252
744,34	3,263
744,53	10,515
744,72	10,856
744,91	4,832
745,10	15,514
745,29	19,355
745,48	11,818
745,67	5,011
745,86	4,857
746,05	20,616
746,24	7,010
746,43	4,497
746,62	11,422
746,81	10,112
747,00	12,691
747,18	7,625
747,37	20,000
747,56	17,882
747,75	8,128
747,94	15,291
748,13	20,582
748,32	12,143
748,51	23,350
748,70	13,216
748,89	16,628
749,08	-1,453
749,26	16,960
749,45	9,651
749,64	10,831
749,83	24,270
750,02	20,652
750,21	9,924
750,40	28,745
750,59	16,890
750,78	15,212
750,96	14,641
751,15	10,981
751,34	11,080
751,53	7,104
751,72	13,521
751,91	19,689
752,10	11,518
752,29	22,400
752,47	4,011
752,66	15,873
752,85	18,579
753,04	6,425
753,23	12,384
753,42	22,911
753,61	16,614
753,80	19,931
753,98	27,273
754,17	11,854
754,36	19,032
754,55	17,169
754,74	9,416
754,93	34,711
755,12	17,211
755,30	12,987
755,49	12,791
755,68	29,755
755,87	14,201
756,06	20,486
756,25	18,237
756,43	15,101
756,62	21,429
756,81	14,238
757,00	15,461
757,19	9,722
757,38	24,710
757,56	8,800
757,75	26,280
757,94	12,928
758,13	24,315
758,32	17,507
758,51	13,468
758,69	13,127
758,88	19,529
759,07	27,844
759,26	14,134
759,45	20,000
759,63	13,853
759,82	33,333
760,01	32,234
760,20	38,365
760,39	18,297
760,57	28,571
760,76	26,132
760,95	17,361
761,14	28,832
761,33	20,323
761,51	16,786
761,70	24,164
761,89	25,778
762,08	40,892
762,27	13,357
762,45	15,942
762,64	19,598
762,83	37,849
763,02	20,000
763,21	11,500
763,39	20,979
763,58	19,703
763,77	15,612
763,96	25,498
764,14	19,583
764,33	17,143
764,52	29,911
764,71	43,279
764,89	43,750
765,08	23,153
765,27	24,681
765,46	34,081
765,65	25,882
765,83	38,462
766,02	0,952
766,21	14,208
766,40	33,074
766,58	21,693
766,77	18,349
766,96	36,179
767,15	30,252
767,33	18,357
767,52	35,808
767,71	13,158
767,90	41,709
768,08	42,515
768,27	37,398
768,46	48,246
768,64	27,315
768,83	25,490
769,02	6,404
769,21	34,375
769,39	0,714
769,58	31,169
769,77	44,149
769,96	11,712
770,14	34,426
770,33	44,860
770,52	43,165
770,70	50,811
770,89	21,081
771,08	18,072
771,27	24,211
771,45	24,706
771,64	28,485
771,83	37,255
772,01	45,876
772,20	20,398
772,39	25,316
772,57	33,831
772,76	23,649
772,95	39,655
773,14	51,020
773,32	38,983
773,51	33,333
773,70	59,712
773,88	43,226
774,07	51,777
774,26	31,452
774,44	47,368
774,63	68,263
774,82	27,922
775,00	38,318
775,19	39,286
775,38	52,660
775,56	55,901
775,75	48,901
775,94	37,500
776,12	20,915
776,31	42,105
776,50	36,986
776,68	31,183
776,87	48,804
777,06	36,478
777,24	57,983
777,43	32,620
777,62	43,258
777,80	43,396
777,99	48,333
778,18	35,057
778,36	64,407
778,55	10,169
778,74	43,750
778,92	44,444
779,11	60,909
779,29	17,730
779,48	49,645
779,67	65,766
779,85	50,877
780,04	65,942
780,23	52,381
780,41	65,254
780,60	56,376
780,79	39,516
780,97	36,601
781,16	26,064
781,34	42,568
781,53	60,714
781,72	41,441
781,90	29,341
782,09	27,907
782,28	52,381
782,46	87,143
782,65	54,225
782,83	7,547
783,02	78,070
783,21	38,346
783,39	57,983
783,58	70,435
783,76	33,333
783,95	56,338
784,14	75,000
784,32	8,235
784,51	66,216
784,69	56,250
784,88	42,991
785,06	29,801
785,25	47,518
785,44	87,097
785,62	41,429
785,81	31,481
785,99	51,128
786,18	82,883
786,37	58,242
786,55	57,639
786,74	40,909
786,92	52,448
787,11	53,472
787,29	49,107
787,48	110,753
787,67	76,415
787,85	74,684
788,04	34,234
788,22	62,376
788,41	100,000
788,59	54,605
788,78	42,857
788,96	43,802
789,15	59,167
789,34	43,269
789,52	43,548
789,71	32,374
789,89	54,545
790,08	122,500
790,26	67,516
790,45	208,333
790,63	81,609
790,82	64,615
791,00	53,097
791,19	35,200
791,38	37,143
791,56	46,364
791,75	77,778
791,93	71,000
792,12	50,435
792,30	47,445
792,49	43,434
792,67	50,735
792,86	64,800
793,04	58,333
793,23	57,895
793,41	49,275
793,60	53,472
793,78	88,571
793,97	63,889
794,15	81,203
794,34	14,667
794,52	0,000
794,71	52,713
794,89	25,758
795,08	38,400
795,26	64,000
795,45	72,222
795,63	63,710
795,82	64,835
796,00	111,000
796,19	34,959
796,37	54,198
796,56	36,893
796,74	72,632
796,93	36,364
797,11	65,060
797,30	47,222
797,48	56,250
797,67	56,098
797,85	84,615
798,04	66,949
798,22	120,513
798,41	45,192
798,59	72,381
798,77	45,783
798,96	58,642
799,14	96,774
799,33	61,468
799,51	31,944
799,70	90,769
799,88	66,055
800,07	70,992
800,25	30,120
800,44	120,370
800,62	83,333
800,80	58,451
800,99	161,644
801,17	50,000
801,36	92,857
801,54	40,000
801,73	72,632
801,91	53,719
802,10	48,235
802,28	45,600
802,46	77,632
802,65	46,763
802,83	129,333
803,02	96,774
803,20	79,518
803,39	71,264
803,57	50,394
803,75	69,919
803,94	38,889
804,12	63,448
804,31	53,623
804,49	65,600
804,67	45,588
804,86	81,416
805,04	27,711
805,23	53,982
805,41	53,333
805,59	71,233
805,78	112,000
805,96	69,880
806,15	49,505
806,33	84,211
806,51	62,667
806,70	57,143
806,88	68,605
807,07	88,288
807,25	76,923
807,43	42,857
807,62	69,027
807,80	24,762
807,99	39,231
808,17	45,669
808,35	75,000
808,54	63,043
808,72	76,577
808,90	49,315
809,09	17,391
809,27	66,667
809,46	123,077
809,64	81,707
809,82	44,371
810,01	59,375
810,19	83,838
810,37	57,813
810,56	134,444
810,74	23,377
810,92	60,667
811,11	28,070
811,29	56,604
811,48	45,385
811,66	68,539
811,84	59,341
812,03	51,639
812,21	59,649
812,39	59,130
812,58	89,474
812,76	102,878
812,94	26,506
813,13	19,149
813,31	63,000
813,49	46,296
813,68	65,455
813,86	41,573
814,04	44,628
814,23	46,386
814,41	51,685
814,59	66,990
814,78	61,029
814,96	57,233
815,14	87,850
815,33	61,240
815,51	55,118
815,69	65,714
815,87	43,564
816,06	81,739
816,24	45,963
816,42	49,265
816,61	68,553
816,79	57,759
816,97	31,818
817,16	57,988
817,34	49,206
817,52	77,686
817,70	81,188
817,89	44,444
818,07	41,096
818,25	61,224
818,44	62,821
818,62	39,535
818,80	47,368
818,98	50,955
819,17	82,353
819,35	48,936
819,53	66,418
819,72	73,418
819,90	56,589
820,08	44,444
820,26	54,310
820,45	30,201
820,63	88,393
820,81	51,200
820,99	39,716
821,18	53,061
821,36	61,392
821,54	36,552
821,73	38,333
821,91	35,088
822,09	14,516
822,27	52,903
822,46	59,559
822,64	60,000
822,82	53,039
823,00	37,569
823,19	30,220
823,37	38,788
823,55	35,795
823,73	67,586
823,91	27,536
824,10	52,688
824,28	50,754
824,46	32,039
824,64	41,447
824,83	33,540
825,01	18,000
825,19	75,000
825,37	86,087
825,56	51,415
825,74	49,490
825,92	33,121
826,10	64,205
826,28	27,976
826,47	35,789
826,65	56,028
826,83	34,483
827,01	58,960
827,19	44,048
827,38	61,728
827,56	43,750
827,74	32,961
827,92	18,023
828,10	35,897
828,29	42,604
828,47	48,374
828,65	43,846
828,83	30,303
829,01	26,087
829,20	48,901
829,38	59,091
829,56	55,978
829,74	21,384
829,92	38,492
830,10	60,920
830,29	29,146
830,47	46,734
830,65	23,171
830,83	26,339
831,01	48,810
831,20	31,068
831,38	25,837
831,56	45,581
831,74	49,289
831,92	75,000
832,10	21,429
832,29	40,541
832,47	11,798
832,65	50,490
832,83	40,845
833,01	30,500
833,19	25,339
833,37	52,036
833,56	24,895
833,74	48,039
833,92	34,722
834,10	24,896
834,28	25,316
834,46	37,104
834,64	27,778
834,83	30,000
835,01	42,739
835,19	34,000
835,37	28,512
835,55	23,958
835,73	33,990
835,91	29,520
836,09	19,392
836,28	31,365
836,46	23,200
836,64	35,714
836,82	31,222
837,00	30,072
837,18	19,331
837,36	33,068
837,54	48,636
837,72	22,845
837,91	25,373
838,09	21,116
838,27	27,333
838,45	36,525
838,63	11,765
838,81	16,034
838,99	16,935
839,17	22,973
839,35	31,206
839,53	15,789
839,72	23,308
839,90	26,117
840,08	30,154
840,26	17,857
840,44	35,045
840,62	10,690
840,80	32,993
840,98	26,275
841,16	29,278
841,34	30,100
841,52	17,737
841,70	25,538
841,89	32,258
842,07	25,078
842,25	27,011
842,43	15,948
842,61	38,596
842,79	22,599
842,97	21,824
843,15	31,683
843,33	11,041
843,51	19,277
843,69	25,641
843,87	11,567
844,05	25,532
844,23	25,225
844,41	20,063
844,59	22,190
844,77	29,412
844,95	29,480
845,13	20,308
845,31	14,535
845,50	25,654
845,68	26,045
845,86	21,839
846,04	23,464
846,22	15,259
846,40	30,914
846,58	23,647
846,76	14,785
846,94	24,439
847,12	25,907
847,30	14,175
847,48	12,074
847,66	22,906
847,84	10,656
848,02	21,981
848,20	15,245
848,38	10,541
848,56	30,398
848,74	25,060
848,92	18,703
849,10	20,250
849,28	18,623
849,46	29,867
849,64	16,859
849,82	9,568
850,00	21,963
850,18	21,277
850,36	17,219
850,54	17,043
850,72	20,308
850,90	19,130
851,08	17,068
851,26	21,444
851,44	11,726
851,62	20,465
851,80	14,317
851,98	14,286
852,16	20,567
852,34	20,412
852,52	16,964
852,70	3,417
852,87	12,557
853,05	11,696
853,23	15,464
853,41	21,995
853,59	13,900
853,77	17,063
853,95	21,519
854,13	10,841
854,31	13,963
854,49	15,768
854,67	10,799
854,85	16,977
855,03	22,445
855,21	16,632
855,39	8,249
855,57	8,602
855,75	15,511
855,93	8,039
856,11	22,244
856,28	12,177
856,46	17,082
856,64	12,952
856,82	17,354
857,00	9,939
857,18	13,357
857,36	15,008
857,54	9,170
857,72	12,105
857,90	6,827
858,08	12,745
858,26	13,665
858,44	8,382
858,61	12,021
858,79	19,377
858,97	14,690
859,15	13,467
859,33	13,438
859,51	15,075
859,69	10,197
859,87	16,969
860,05	-3,375
860,23	14,123
860,40	12,456
860,58	16,557
860,76	7,143
860,94	15,285
861,12	14,154
861,30	10,832
861,48	10,286
861,66	12,857
861,84	11,211
862,01	11,340
862,19	9,322
862,37	4,992
862,55	14,265
862,73	4,180
862,91	8,370
863,09	9,821
863,27	11,925
863,44	8,322
863,62	10,326
863,80	8,861
863,98	10,831
864,16	1,734
864,34	15,417
864,52	10,858
864,69	11,988
864,87	6,223
865,05	9,932
865,23	13,203
865,41	7,661
865,59	11,709
865,76	9,185
865,94	10,724
866,12	17,290
866,30	8,135
866,48	15,912
866,66	11,022
866,83	13,868
867,01	5,243
867,19	10,273
867,37	7,115
867,55	9,558
867,73	7,692
867,90	5,150
868,08	8,827
868,26	7,475
868,44	9,144
868,62	13,882
868,79	8,820
868,97	3,526
869,15	4,640
869,33	6,471
869,51	10,105
869,69	7,927
869,86	7,251
870,04	11,839
870,22	9,273
870,40	6,433
870,57	6,459
870,75	11,823
870,93	9,158
871,11	11,147
871,29	7,534
871,46	4,415
871,64	11,611
871,82	10,226
872,00	10,905
872,18	6,013
872,35	9,677
872,53	5,263
872,71	11,224
872,89	9,979
873,06	9,242
873,24	12,415
873,42	8,631
873,60	7,271
873,77	8,896
873,95	4,654
874,13	4,757
874,31	7,018
874,49	9,293
874,66	4,699
874,84	8,526
875,02	8,433
875,20	5,616
875,37	8,207
875,55	5,630
875,73	2,535
875,91	2,230
876,08	5,576
876,26	6,007
876,44	3,823
876,61	6,930
876,79	9,711
876,97	3,741
877,15	5,991
877,32	5,541
877,50	3,560
877,68	3,856
877,86	3,653
878,03	8,023
878,21	5,622
878,39	6,175
878,56	3,471
878,74	7,034
878,92	0,565
879,10	3,997
879,27	7,402
879,45	6,337
879,63	5,435
879,80	5,015
879,98	1,731
880,16	7,278
880,34	9,064
880,51	2,918
880,69	2,232
880,87	3,258
881,04	5,137
881,22	5,335
881,40	5,808
881,57	5,548
881,75	3,670
881,93	6,662
882,10	3,373
882,28	5,862
882,46	5,274
882,63	8,019
882,81	7,390
882,99	5,997
883,16	4,599
883,34	3,275
883,52	2,817
883,69	5,155
883,87	3,711
884,05	2,801
884,22	3,327
884,40	4,327
884,58	0,322
884,75	6,370
884,93	4,380
885,11	4,912
885,28	4,866
885,46	-0,062
885,64	4,979
885,81	3,651
885,99	4,337
886,17	2,736
886,34	4,348
886,52	3,030
886,70	6,272
886,87	3,208
887,05	5,780
887,22	2,214
887,40	3,791
887,58	5,559
887,75	4,770
887,93	3,245
888,11	4,807
888,28	2,760
888,46	3,376
888,63	3,175
888,81	3,804
888,99	5,152
889,16	5,018
889,34	1,690
889,51	1,301
889,69	4,385
889,87	5,169
890,04	4,286
890,22	3,462
890,39	1,787
890,57	4,699
890,75	2,665
890,92	3,343
891,10	2,345
891,27	3,121
891,45	5,097
891,63	5,307
891,80	4,134
891,98	3,494
892,15	3,298
892,33	2,953
892,51	4,180
892,68	3,895
892,86	1,550
893,03	4,989
893,21	3,489
893,38	2,586
893,56	3,374
893,74	3,870
893,91	3,945
894,09	5,577
894,26	4,407
894,44	3,547
894,61	2,425
894,79	2,208
894,96	4,181
895,14	4,068
895,32	4,451
895,49	2,855
895,67	3,843
895,84	2,328
896,02	1,804
896,19	3,083
896,37	4,283
896,54	1,361
896,72	1,867
896,89	2,507
897,07	4,789
897,25	3,545
897,42	3,340
897,60	4,125
897,77	3,902
897,95	2,208
898,12	4,137
898,30	3,864
898,47	1,863
898,65	1,331
898,82	2,331
899,00	2,674
899,17	3,270
899,35	1,576
899,52	5,252
899,70	2,862
899,87	1,604
900,05	1,636
900,22	4,076
900,40	2,042
900,57	3,377
900,75	1,718
900,92	2,595
901,10	3,015
901,27	1,591
901,45	3,570
901,62	3,147
901,80	2,575
901,97	4,496
902,15	2,955
902,32	3,485
902,50	1,220
902,67	3,693
902,85	3,672
903,02	3,171
903,20	2,034
903,37	1,601
903,54	1,114
903,72	4,315
903,89	3,617
904,07	1,747
904,24	2,381
904,42	2,500
904,59	1,464
904,77	3,007
904,94	1,747
905,12	1,665
905,29	1,264
905,47	2,719
905,64	2,372
905,81	2,644
905,99	1,190
906,16	0,902
906,34	1,814
906,51	2,556
906,69	1,587
906,86	2,077
907,03	3,498
907,21	3,021
907,38	2,417
907,56	2,563
907,73	3,076
907,91	2,062
908,08	3,109
908,25	2,518
908,43	1,376
908,60	1,877
908,78	1,443
908,95	2,389
909,13	3,961
909,30	3,298
909,47	1,729
909,65	3,350
909,82	1,872
910,00	1,456
910,17	2,685
910,34	2,033
910,52	2,585
910,69	2,208
910,87	3,947
911,04	0,666
911,21	4,088
911,39	0,851
911,56	2,864
911,73	0,631
911,91	2,746
912,08	2,889
912,26	0,815
912,43	2,723
912,60	2,001
912,78	2,467
912,95	3,569
913,13	1,848
913,30	1,987
913,47	3,099
913,65	3,382
913,82	1,930
913,99	1,862
914,17	1,482
914,34	1,493
914,51	2,001
914,69	1,349
914,86	2,425
915,03	1,671
915,21	1,550
915,38	1,185
915,56	2,223
915,73	1,563
915,90	1,700
916,08	3,847
916,25	1,701
916,42	1,803
916,60	2,779
916,77	1,241
916,94	2,225
917,12	0,676
917,29	1,599
917,46	1,318
917,64	1,252
917,81	1,862
917,98	1,255
918,16	2,168
918,33	2,330
918,50	1,507
918,67	1,781
918,85	1,332
919,02	2,409
919,19	1,303
919,37	1,336
919,54	2,738
919,71	2,173
919,89	2,006
920,06	1,793
920,23	1,637
920,41	1,945
920,58	1,846
920,75	3,081
920,92	1,902
921,10	1,489
921,27	0,600
921,44	2,953
921,62	1,691
921,79	0,993
921,96	1,545
922,13	2,252
922,31	1,143
922,48	0,123
922,65	2,431
922,82	1,455
923,00	1,618
923,17	0,929
923,34	1,499
923,52	0,936
923,69	2,016
923,86	2,020
924,03	1,581
924,21	1,843
924,38	2,182
924,55	1,940
924,72	0,709
924,90	1,654
925,07	1,513
925,24	2,028
925,41	1,788
925,59	0,525
925,76	0,508
925,93	1,590
926,10	1,860
926,28	1,135
926,45	1,679
926,62	1,803
926,79	1,048
926,96	2,959
927,14	2,708
927,31	0,971
927,48	1,885
927,65	1,254
927,83	1,324
928,00	1,874
928,17	2,064
928,34	1,085
928,51	1,381
928,69	1,175
928,86	1,180
929,03	1,713
929,20	0,710
929,37	1,000
929,55	1,355
929,72	1,481
929,89	1,382
930,06	1,628
930,23	2,380
930,41	1,436
930,58	1,368
930,75	0,477
930,92	2,337
931,09	1,085
931,27	0,908
931,44	0,736
931,61	1,715
931,78	1,360
931,95	1,122
932,12	1,543
932,30	1,790
932,47	1,754
932,64	1,583
932,81	1,095
932,98	1,427
933,16	1,189
933,33	1,398
933,50	1,384
933,67	1,697
933,84	1,603
934,01	1,490
934,18	1,787
934,36	1,357
934,53	1,831
934,70	1,408
934,87	0,486
935,04	1,974
935,21	1,598
935,38	1,242
935,56	1,666
935,73	0,998
935,90	1,805
936,07	2,042
936,24	1,920
936,41	0,730
936,58	1,028
936,76	1,454
936,93	0,807
937,10	1,213
937,27	2,128
937,44	1,414
937,61	2,090
937,78	1,468
937,95	1,486
938,13	0,758
938,30	1,089
938,47	0,682
938,64	0,800
938,81	1,729
938,98	1,197
939,15	0,925
939,32	1,181
939,49	0,717
939,66	1,014
939,84	0,525
940,01	1,216
940,18	1,012
940,35	0,575
940,52	0,781
940,69	0,546
940,86	1,827
941,03	1,422
941,20	1,742
941,37	0,837
941,54	2,323
941,71	2,678
941,89	1,380
942,06	1,132
942,23	0,774
942,40	1,558
942,57	1,409
942,74	1,403
942,91	2,188
943,08	1,602
943,25	1,553
943,42	0,844
943,59	2,007
943,76	1,688
943,93	0,673
944,10	0,968
944,27	-0,252
944,44	1,567
944,61	1,955
944,79	2,086
944,96	1,251
945,13	0,960
945,30	1,006
945,47	1,979
945,64	0,825
945,81	1,804
945,98	1,911
946,15	1,469
946,32	1,211
946,49	1,230
946,66	1,937
946,83	1,482
947,00	1,547
947,17	1,250
947,34	1,378
947,51	2,268
947,68	2,826
947,85	1,240
948,02	2,576
948,19	0,928
948,36	3,053
948,53	0,815
948,70	0,888
948,87	1,791
949,04	2,316
949,21	1,557
949,38	2,928
949,55	2,363
949,72	1,692
949,89	2,718
950,06	3,224
950,23	2,018
950,40	2,442
950,57	1,840
950,74	3,296
950,91	1,357
951,08	2,429
951,25	1,341
951,42	3,240
951,59	1,254
951,76	-0,080
951,93	2,149
952,10	2,620
952,27	2,662
952,44	2,682
952,61	3,029
952,77	1,440
952,94	2,530
953,11	3,078
953,28	4,237
953,45	5,033
953,62	4,260
953,79	4,000
953,96	3,516
954,13	3,875
954,30	5,241
954,47	4,567
954,64	3,030
954,81	3,583
954,98	4,045
955,15	1,693
955,32	5,049
955,49	4,493
955,65	3,834
955,82	6,309
955,99	5,750
956,16	5,537
956,33	4,230
956,50	5,678
956,67	5,084
956,84	7,703
957,01	6,045
957,18	7,985
957,35	6,518
957,52	5,141
957,68	4,373
957,85	9,455
958,02	3,775
958,19	7,123
958,36	7,106
958,53	6,799
958,70	7,163
958,87	3,094
959,04	7,566
959,21	9,990
959,37	13,530
959,54	11,099
959,71	13,472
959,88	2,093
960,05	10,943
960,22	7,044
960,39	9,296
960,56	7,801
960,72	4,017
960,89	15,839
961,06	6,925
961,23	2,905
961,40	7,636
961,57	11,981
961,74	9,831
961,90	8,708
962,07	7,922
962,24	7,384
962,41	12,414
962,58	11,706
962,75	12,308
962,92	10,877
963,08	10,417
963,25	6,574
963,42	17,871
963,59	9,035
963,76	22,266
963,93	12,627
964,10	13,348
964,26	11,429
964,43	5,581
964,60	15,545
964,77	28,412
964,94	7,901
965,10	10,306
965,27	7,263
965,44	28,889
965,61	6,507
965,78	17,081
965,95	20,647
966,11	14,848
966,28	23,464
966,45	24,183
966,62	22,648
966,79	6,485
966,95	19,929
967,12	31,429
967,29	32,407
967,46	42,349
967,63	21,569
967,79	27,181
967,96	42,661
968,13	8,571
968,30	32,099
968,47	28,846
968,63	31,863
968,80	35,249
968,97	31,792
969,14	9,040
969,31	28,571
969,47	38,043
969,64	0,549
969,81	3,871
969,98	24,211
970,14	22,043
970,31	40,881
970,48	40,940
970,65	33,058
970,81	9,790
970,98	46,354
971,15	61,212
971,32	21,970
971,48	67,262
971,65	31,126
971,82	34,545
971,99	55,696
972,15	19,767
972,32	59,028
972,49	41,803
972,66	40,496
972,82	71,918
972,99	62,500
973,16	80,795
973,33	38,519
973,49	87,805
973,66	74,286
973,83	53,086
974,00	62,025
974,16	80,000
974,33	30,667
974,50	25,253
974,67	30,952
974,83	75,510
975,00	107,273
975,17	183,871
975,33	89,655
975,50	103,279
975,67	80,769
975,84	45,122
976,00	110,526
976,17	136,957
976,34	80,000
976,50	79,121
976,67	53,571
976,84	175,000
977,00	96,154
977,17	137,778
977,34	213,462
977,50	114,286
977,67	103,529
977,84	186,441
978,01	87,838
978,17	156,897
978,34	177,778
978,51	172,000
978,67	140,816
978,84	92,727
979,01	97,368
979,17	77,143
979,34	171,739
979,51	197,727
979,67	329,167
979,84	184,746
980,01	140,385
980,17	179,412
980,34	139,726
980,51	422,222
980,67	75,556
980,84	112,857
981,01	226,471
981,17	125,000
981,34	87,143
981,50	116,842
981,67	195,238
981,84	107,143
982,00	3600,000
982,17	146,875
982,34	100,000
982,50	0,000
982,67	-485,714
982,84	495,000
983,00	166,667
983,17	-1214,286
983,33	455,556
983,50	180,488
983,67	92,754
983,83	323,810
984,00	278,261
984,17	844,444
984,33	-392,857
984,50	67,568
984,66	400,000
984,83	462,500
985,00	-161,538
985,16	135,484
985,33	3900,000
985,49	77,907
985,66	142,500
985,83	-2466,667
985,99	633,333
986,16	347,368
986,32	75,342
986,49	-740,000
986,66	360,000
986,82	224,242
986,99	-420,000
987,15	112,121
987,32	364,706
987,49	317,857
987,65	-173,913
987,82	-190,000
987,98	131,818
988,15	628,571
988,31	231,429
988,48	180,392
988,65	480,000
988,81	141,818
988,98	356,757
989,14	640,000
989,31	91,525
989,47	-210,714
989,64	361,111
989,80	98,936
989,97	176,364
990,14	607,143
990,30	-1025,000
990,47	-179,167
990,63	278,947
990,80	1700,000
990,96	825,000
991,13	153,333
991,29	201,961
991,46	189,583
991,62	0,000
991,79	-750,000
991,95	535,294
992,12	1100,000
992,29	-328,571
992,45	171,429
992,62	-89,286
992,78	-1200,000
992,95	316,129
993,11	912,500
993,28	-5100,000
993,44	-117,241
993,61	200,000
993,77	0,000
993,94	317,949
994,10	871,429
994,27	-118,421
994,43	306,250
994,60	685,714
994,76	209,091
994,93	-590,000
995,09	-481,250
995,26	279,167
995,42	487,500
995,59	356,667
995,75	-566,667
995,92	-1085,714
996,08	-540,000
996,25	363,636
996,41	1820,000
996,58	348,000
996,74	-240,000
996,91	224,194
997,07	280,000
997,23	145,098
997,40	1833,333
997,56	-3366,667
997,73	373,913
997,89	1040,000
998,06	163,158
998,22	146,809
998,39	175,510
998,55	452,632
998,72	-6600,000
998,88	208,000
999,05	620,000
999,21	470,588
999,37	158,140
999,54	283,871
999,70	228,571
999,87	1116,667
1000,03	270,000
1000,20	228,571
1000,36	-1187,500
1000,52	2350,000
1000,69	524,000
1000,85	-450,000
1001,02	157,143
1001,18	1560,000
1001,35	0,000
1001,51	528,571
1001,67	420,000
1001,84	102,439
1002,00	-109,091
1002,17	1650,000
1002,33	-400,000
1002,50	591,667
1002,66	1175,000
1002,82	236,585
1002,99	-436,364
1003,15	-5000,000
1003,32	-435,714
1003,48	-1500,000
1003,64	495,652
1003,81	-200,000
1003,97	169,565
1004,14	-109,091
1004,30	509,091
1004,46	-6000,000
1004,63	-700,000
1004,79	108,108
1004,95	-880,000
1005,12	-407,692
1005,28	255,556
1005,45	-1183,333
1005,61	238,462
1005,77	-600,000
1005,94	308,696
1006,10	-860,000
1006,26	-100,000
1006,43	148,485
1006,59	341,935
1006,76	-176,000
1006,92	386,957
1007,08	159,091
1007,25	211,111
1007,41	290,909
1007,57	-405,882
1007,74	426,087
1007,90	-250,000
1008,06	-460,000
1008,23	-305,263
1008,39	222,222
1008,55	122,353
1008,72	-825,000
1008,88	-108,571
1009,04	-588,889
1009,21	315,625
1009,37	393,548
1009,53	-290,000
1009,70	3,030
1009,86	463,158
1010,02	245,455
1010,19	826,667
1010,35	6400,000
1010,51	300,000
1010,68	313,636
1010,84	310,000
1011,00	657,143
1011,17	2766,667
1011,33	373,077
1011,49	418,750
1011,66	393,750
1011,82	-900,000
1011,98	393,333
1012,14	292,308
1012,31	243,182
1012,47	-757,143
1012,63	9000,000
1012,80	372,222
1012,96	163,889
1013,12	-218,519
1013,29	375,000
1013,45	-126,471
1013,61	-1440,000
1013,77	-566,667
1013,94	429,167
1014,10	7000,000
1014,26	-176,471
1014,43	226,316
1014,59	0,000
1014,75	660,000
1014,91	202,857
1015,08	426,923
1015,24	533,333
1015,40	693,333
1015,56	429,412
1015,73	214,286
1015,89	355,556
1016,05	313,514
1016,21	248,148
1016,38	255,263
1016,54	-228,000
1016,70	531,579
1016,86	-384,615
1017,03	0,000
1017,19	1212,500
1017,35	320,000
1017,51	1266,667
1017,68	1371,429
1017,84	331,579
1018,00	176,190
1018,16	-631,250
1018,33	518,182
1018,49	421,429
1018,65	-445,455
1018,81	-107,317
1018,97	792,308
1019,14	-900,000
1019,30	185,714
1019,46	192,308
1019,62	4650,000
1019,79	-614,286
1019,95	-2075,000
1020,11	620,000
1020,27	185,000
1020,43	-987,500
1020,60	0,000
1020,76	125,000
1020,92	11500,000
1021,08	-131,111
1021,24	-3250,000
1021,41	227,273
1021,57	-358,333
1021,73	0,000
1021,89	-318,182
1022,05	271,429
1022,21	-707,692
1022,38	426,316
1022,54	1200,000
1022,70	329,630
1022,86	-2850,000
1023,02	1055,556
1023,19	-235,000
1023,35	213,208
1023,51	296,774
1023,67	250,000
1023,83	800,000
1023,99	254,286
1024,16	-61,538
1024,32	443,750
1024,48	226,531
1024,64	-1060,000
1024,80	791,667
1024,96	469,231
1025,12	2600,000
1025,29	-1625,000
1025,45	312,500
1025,61	2566,667
1025,77	395,238
1025,93	-461,538
1026,09	4200,000
1026,26	-1271,429
1026,42	-2425,000
1026,58	209,615
1026,74	657,143
1026,90	357,895
1027,06	-330,000
1027,22	-750,000
1027,38	900,000
1027,55	-240,000
1027,71	1050,000
1027,87	252,500
1028,03	92,424
1028,19	-209,091
1028,35	116,216
1028,51	-19,355
1028,67	-480,000
1028,83	273,810
1029,00	657,143
1029,16	-533,333
1029,32	441,176
1029,48	3950,000
1029,64	728,571
1029,80	1383,333
1029,96	166,667
1030,12	-300,000
1030,28	2175,000
1030,44	-2700,000
1030,61	203,125
1030,77	-386,957
1030,93	176,744
1031,09	-128,571
1031,25	-1011,111
1031,41	-2450,000
1031,57	-84,211
1031,73	654,545
1031,89	-184,848
1032,05	1071,429
1032,21	710,000
1032,37	-200,000
1032,53	-450,000
1032,69	-6500,000
1032,86	1416,667
1033,02	281,250
1033,18	-461,538
1033,34	-346,154
1033,50	222,581
1033,66	-466,667
1033,82	403,571
1033,98	-647,059
1034,14	855,556
1034,30	-350,000
1034,46	254,167
1034,62	561,111
1034,78	95,238
1034,94	-93,548
1035,10	-381,818
1035,26	-766,667
1035,42	48,571
1035,58	1200,000
1035,74	-146,667
1035,90	-100,000
1036,06	167,925
1036,22	-232,000
1036,38	606,667
1036,54	910,000
1036,70	-3850,000
1036,86	-550,000
1037,02	-2250,000
1037,18	-100,000
1037,34	434,783
1037,50	-613,333
1037,66	-4233,333
1037,82	-229,412
1037,98	557,143
1038,14	-251,724
1038,30	-50,000
1038,46	102,083
1038,62	93,548
1038,78	254,762
1038,94	-115,789
1039,10	-287,500
1039,26	-226,316
1039,42	-1171,429
1039,58	169,811
1039,74	265,625
1039,90	-100,000
1040,06	417,647
>>>>>End Processed Spectral Data<<<<<
