SpectraSuite Data File
++++++++++++++++++++++++++++++++++++
Date: Thu Feb 02 18:51:56 EET 2017
User: optolab
Dark Spectrum Present: Yes
Reference Spectrum Present: Yes
Number of Sampled Component Spectra: 1
Spectrometers: USB4C02475
Integration Time (usec): 151411 (USB4C02475)
Spectra Averaged: 1 (USB4C02475)
Boxcar Smoothing: 0 (USB4C02475)
Correct for Electrical Dark: No (USB4C02475)
Strobe/Lamp Enabled: No (USB4C02475)
Correct for Detector Non-linearity: No (USB4C02475)
Correct for Stray Light: No (USB4C02475)
Number of Pixels in Processed Spectrum: 3648
>>>>>Begin Processed Spectral Data<<<<<
344,91	170,370
345,13	170,370
345,35	170,370
345,57	-450,000
345,79	238,462
346,00	-48,000
346,22	48,649
346,44	-223,077
346,66	-1300,000
346,87	140,000
347,09	-300,000
347,31	-1300,000
347,53	84,615
347,74	312,500
347,96	477,778
348,18	2,439
348,40	-166,667
348,61	149,020
348,83	16,667
349,05	-23,636
349,27	55,882
349,48	43,137
349,70	70,909
349,92	-43,902
350,14	150,000
350,35	50,000
350,57	14,706
350,79	59,574
351,01	77,419
351,22	-257,143
351,44	53,333
351,66	63,415
351,87	2,273
352,09	-11,538
352,31	-4,348
352,53	67,742
352,74	-21,875
352,96	5,102
353,18	45,455
353,40	53,571
353,61	21,667
353,83	0,000
354,05	-48,276
354,26	-31,818
354,48	281,818
354,70	75,000
354,92	39,683
355,13	77,551
355,35	-550,000
355,57	101,299
355,78	132,500
356,00	111,628
356,22	52,239
356,44	0,000
356,65	76,923
356,87	30,864
357,09	-14,493
357,30	86,486
357,52	5,714
357,74	55,385
357,95	38,889
358,17	27,778
358,39	700,000
358,60	31,579
358,82	37,500
359,04	16,667
359,26	51,111
359,47	63,793
359,69	1200,000
359,91	-4,687
360,12	55,556
360,34	115,789
360,56	33,684
360,77	90,741
360,99	95,000
361,21	58,974
361,42	-110,000
361,64	74,242
361,86	38,462
362,07	48,515
362,29	-107,143
362,51	-3,704
362,72	52,500
362,94	-20,000
363,16	71,014
363,37	54,687
363,59	-4,396
363,81	-11,864
364,02	-27,273
364,24	66,154
364,46	80,000
364,67	-2,778
364,89	-35,135
365,11	-400,000
365,32	-8,772
365,54	-143,478
365,76	31,250
365,97	64,286
366,19	52,632
366,41	12,308
366,62	68,571
366,84	100,000
367,05	38,889
367,27	-77,273
367,49	27,273
367,70	17,391
367,92	7,595
368,14	62,366
368,35	1,235
368,57	27,778
368,79	18,919
369,00	45,000
369,22	44,792
369,43	22,449
369,65	69,048
369,87	16,049
370,08	10,145
370,30	28,235
370,51	44,275
370,73	23,810
370,95	57,732
371,16	15,152
371,38	2,740
371,60	-38,372
371,81	60,000
372,03	45,455
372,24	50,000
372,46	-53,333
372,68	72,152
372,89	22,807
373,11	-12,963
373,32	30,159
373,54	53,125
373,76	21,008
373,97	29,268
374,19	66,667
374,40	32,174
374,62	29,545
374,84	2,913
375,05	49,474
375,27	51,190
375,48	68,831
375,70	25,676
375,92	-9,783
376,13	59,048
376,35	40,244
376,56	-3,205
376,78	24,615
376,99	-20,779
377,21	6,349
377,43	23,958
377,64	29,661
377,86	37,634
378,07	49,474
378,29	8,182
378,51	26,563
378,72	-8,333
378,94	45,455
379,15	39,437
379,37	40,146
379,58	37,607
379,80	21,547
380,01	14,000
380,23	0,746
380,45	47,000
380,66	43,056
380,88	30,588
381,09	-10,227
381,31	34,118
381,52	53,378
381,74	31,447
381,95	-98,684
382,17	8,427
382,39	22,289
382,60	8,633
382,82	17,021
383,03	30,833
383,25	18,440
383,46	10,435
383,68	24,684
383,89	49,451
384,11	6,548
384,32	61,429
384,54	-15,238
384,76	33,526
384,97	30,682
385,19	30,400
385,40	6,548
385,62	35,106
385,83	21,290
386,05	29,371
386,26	23,810
386,48	18,182
386,69	33,600
386,91	5,946
387,12	31,915
387,34	7,735
387,55	-33,333
387,77	9,091
387,98	37,500
388,20	41,667
388,41	16,466
388,63	29,524
388,84	11,409
389,06	4,918
389,27	26,728
389,49	16,019
389,70	-1,064
389,92	30,049
390,13	-14,865
390,35	20,982
390,56	13,934
390,78	15,481
390,99	-3,109
391,21	20,098
391,42	4,453
391,64	11,950
391,85	16,410
392,07	29,121
392,28	52,381
392,50	6,154
392,71	0,503
392,93	-4,979
393,14	7,650
393,36	17,117
393,57	9,013
393,79	5,023
394,00	5,294
394,22	16,583
394,43	17,181
394,65	30,290
394,86	27,376
395,08	15,029
395,29	8,444
395,50	-0,439
395,72	1,702
395,93	38,017
396,15	25,455
396,36	16,337
396,58	20,628
396,79	18,493
397,01	2,954
397,22	20,599
397,44	15,190
397,65	21,555
397,87	28,958
398,08	29,126
398,29	14,141
398,51	25,664
398,72	18,750
398,94	12,414
399,15	27,734
399,37	9,932
399,58	37,647
399,80	40,230
400,01	18,237
400,22	19,732
400,44	-13,808
400,65	13,333
400,87	28,758
401,08	13,805
401,30	24,232
401,51	25,843
401,72	18,015
401,94	12,587
402,15	21,471
402,37	14,835
402,58	11,371
402,80	25,886
403,01	21,842
403,22	23,864
403,44	19,048
403,65	2,448
403,87	-2,462
404,08	25,329
404,30	13,202
404,51	12,113
404,72	24,159
404,94	13,528
405,15	23,469
405,37	5,817
405,58	27,696
405,79	26,064
406,01	10,028
406,22	6,853
406,44	14,173
406,65	12,833
406,86	18,140
407,08	16,713
407,29	5,587
407,51	22,105
407,72	13,263
407,93	10,818
408,15	17,422
408,36	24,634
408,58	22,581
408,79	21,299
409,00	14,775
409,22	17,292
409,43	24,750
409,64	14,412
409,86	23,666
410,07	13,537
410,29	13,778
410,50	19,388
410,71	14,127
410,93	13,636
411,14	17,570
411,35	18,501
411,57	3,881
411,78	17,517
412,00	17,927
412,21	18,005
412,42	7,907
412,64	5,567
412,85	2,921
413,06	9,592
413,28	15,658
413,49	15,287
413,70	11,111
413,92	10,364
414,13	14,868
414,34	12,121
414,56	10,769
414,77	19,536
414,98	15,140
415,20	11,868
415,41	13,201
415,63	11,992
415,84	15,162
416,05	11,287
416,27	12,956
416,48	8,840
416,69	11,867
416,91	9,109
417,12	12,952
417,33	4,869
417,55	13,238
417,76	18,805
417,97	17,678
418,19	4,869
418,40	10,417
418,61	17,992
418,83	15,169
419,04	11,424
419,25	15,873
419,46	8,905
419,68	21,290
419,89	10,247
420,10	15,015
420,32	16,074
420,53	6,352
420,74	15,772
420,96	12,649
421,17	12,203
421,38	18,310
421,60	14,263
421,81	8,939
422,02	16,203
422,23	18,302
422,45	13,235
422,66	11,003
422,87	12,874
423,09	4,545
423,30	9,969
423,51	8,540
423,73	19,684
423,94	15,702
424,15	15,449
424,36	12,725
424,58	12,940
424,79	15,476
425,00	11,628
425,22	13,291
425,43	11,126
425,64	6,812
425,85	20,000
426,07	14,033
426,28	14,389
426,49	17,363
426,71	13,168
426,92	12,180
427,13	7,605
427,34	16,420
427,56	15,704
427,77	11,029
427,98	8,426
428,19	10,422
428,41	11,086
428,62	11,663
428,83	10,056
429,04	9,606
429,26	12,542
429,47	11,339
429,68	5,930
429,89	6,526
430,11	15,864
430,32	8,879
430,53	7,502
430,74	6,346
430,96	12,748
431,17	13,491
431,38	11,503
431,59	9,973
431,81	15,925
432,02	14,946
432,23	7,975
432,44	8,252
432,66	9,520
432,87	15,331
433,08	13,586
433,29	11,885
433,51	10,667
433,72	8,637
433,93	7,705
434,14	11,644
434,35	9,719
434,57	14,871
434,78	3,574
434,99	9,104
435,20	11,481
435,42	7,059
435,63	11,334
435,84	10,634
436,05	8,459
436,26	10,284
436,48	10,127
436,69	10,964
436,90	8,328
437,11	11,058
437,32	9,204
437,54	9,286
437,75	7,541
437,96	6,655
438,17	8,137
438,38	9,505
438,60	6,319
438,81	9,967
439,02	9,351
439,23	8,628
439,44	6,288
439,66	8,326
439,87	6,933
440,08	7,923
440,29	8,314
440,50	6,188
440,72	5,936
440,93	6,059
441,14	7,180
441,35	7,167
441,56	6,366
441,77	5,567
441,99	7,109
442,20	5,989
442,41	7,096
442,62	6,418
442,83	6,191
443,04	4,741
443,26	4,093
443,47	6,232
443,68	5,358
443,89	7,136
444,10	4,828
444,31	5,676
444,53	5,968
444,74	5,250
444,95	5,357
445,16	4,426
445,37	5,168
445,58	5,480
445,80	6,691
446,01	5,500
446,22	6,198
446,43	4,413
446,64	4,955
446,85	6,179
447,06	5,351
447,28	4,834
447,49	4,855
447,70	3,598
447,91	5,182
448,12	5,001
448,33	5,689
448,54	4,024
448,76	3,821
448,97	4,281
449,18	3,880
449,39	4,099
449,60	3,519
449,81	4,002
450,02	3,844
450,23	3,740
450,45	3,269
450,66	3,555
450,87	3,690
451,08	3,802
451,29	4,114
451,50	2,597
451,71	3,429
451,92	3,183
452,13	3,273
452,35	3,517
452,56	3,453
452,77	2,593
452,98	3,193
453,19	3,366
453,40	2,677
453,61	2,584
453,82	2,739
454,03	3,043
454,25	1,943
454,46	2,683
454,67	2,555
454,88	2,820
455,09	2,359
455,30	2,758
455,51	2,567
455,72	2,274
455,93	2,348
456,14	2,358
456,35	2,821
456,56	2,497
456,78	2,481
456,99	2,270
457,20	1,850
457,41	2,416
457,62	2,035
457,83	1,953
458,04	1,854
458,25	2,114
458,46	1,741
458,67	1,703
458,88	1,906
459,09	1,819
459,30	1,798
459,51	1,845
459,73	1,621
459,94	1,636
460,15	1,830
460,36	1,585
460,57	1,977
460,78	1,793
460,99	1,747
461,20	1,521
461,41	1,514
461,62	1,437
461,83	1,972
462,04	1,406
462,25	1,710
462,46	1,807
462,67	1,584
462,88	1,707
463,09	1,702
463,30	1,591
463,51	1,645
463,72	1,583
463,93	1,793
464,15	1,402
464,36	1,674
464,57	1,447
464,78	1,487
464,99	1,697
465,20	1,451
465,41	1,680
465,62	1,627
465,83	1,526
466,04	1,187
466,25	1,608
466,46	1,588
466,67	1,686
466,88	1,460
467,09	1,322
467,30	1,404
467,51	1,358
467,72	1,556
467,93	1,532
468,14	1,672
468,35	1,363
468,56	1,360
468,77	1,525
468,98	1,800
469,19	1,447
469,40	1,535
469,61	1,757
469,82	1,610
470,03	1,480
470,24	1,662
470,45	1,814
470,66	1,800
470,87	1,721
471,08	1,777
471,29	1,515
471,50	1,639
471,71	1,817
471,92	1,874
472,13	1,729
472,34	1,973
472,55	1,873
472,76	1,855
472,97	1,857
473,18	1,906
473,39	2,136
473,60	1,964
473,81	1,950
474,01	2,031
474,22	1,973
474,43	2,122
474,64	2,250
474,85	2,236
475,06	2,175
475,27	2,014
475,48	2,374
475,69	2,332
475,90	2,439
476,11	2,382
476,32	2,490
476,53	2,766
476,74	2,685
476,95	2,600
477,16	2,506
477,37	2,685
477,58	2,662
477,79	2,786
478,00	2,535
478,21	2,739
478,41	2,737
478,62	2,417
478,83	2,525
479,04	2,863
479,25	3,047
479,46	2,867
479,67	3,082
479,88	2,590
480,09	3,055
480,30	3,013
480,51	3,199
480,72	3,224
480,93	3,122
481,14	3,081
481,34	3,033
481,55	3,171
481,76	3,064
481,97	3,138
482,18	3,369
482,39	3,111
482,60	3,084
482,81	3,348
483,02	3,118
483,23	3,234
483,44	3,407
483,65	3,189
483,85	3,640
484,06	3,476
484,27	3,123
484,48	3,466
484,69	3,334
484,90	3,500
485,11	3,184
485,32	3,482
485,53	3,692
485,73	3,449
485,94	3,729
486,15	3,499
486,36	3,555
486,57	3,779
486,78	3,786
486,99	3,499
487,20	3,573
487,41	3,591
487,61	3,509
487,82	3,569
488,03	3,424
488,24	3,597
488,45	3,531
488,66	3,456
488,87	3,486
489,08	3,487
489,28	3,876
489,49	3,505
489,70	3,961
489,91	3,671
490,12	3,794
490,33	3,573
490,54	3,715
490,74	3,790
490,95	4,039
491,16	4,023
491,37	3,647
491,58	4,050
491,79	3,995
492,00	3,876
492,20	3,880
492,41	3,694
492,62	3,907
492,83	4,061
493,04	4,248
493,25	4,083
493,45	3,823
493,66	4,234
493,87	3,880
494,08	3,898
494,29	4,117
494,50	4,216
494,70	4,214
494,91	4,235
495,12	4,183
495,33	4,244
495,54	4,211
495,75	4,110
495,95	4,433
496,16	4,204
496,37	4,325
496,58	4,044
496,79	4,184
496,99	4,371
497,20	4,056
497,41	4,229
497,62	4,186
497,83	4,297
498,04	4,487
498,24	4,452
498,45	4,433
498,66	4,574
498,87	4,395
499,08	4,508
499,28	4,227
499,49	4,551
499,70	4,429
499,91	4,446
500,12	4,619
500,32	4,192
500,53	4,465
500,74	4,479
500,95	4,459
501,15	4,569
501,36	4,457
501,57	4,353
501,78	4,556
501,99	4,592
502,19	4,400
502,40	4,493
502,61	4,771
502,82	4,702
503,02	4,664
503,23	4,640
503,44	4,737
503,65	4,544
503,86	4,961
504,06	4,791
504,27	4,633
504,48	4,833
504,69	4,726
504,89	4,602
505,10	5,013
505,31	4,939
505,52	5,174
505,72	4,866
505,93	5,429
506,14	5,225
506,35	5,116
506,55	4,751
506,76	4,886
506,97	4,891
507,18	4,795
507,38	5,092
507,59	5,220
507,80	5,324
508,01	5,341
508,21	5,349
508,42	5,126
508,63	5,036
508,84	4,938
509,04	5,245
509,25	5,355
509,46	5,102
509,67	5,100
509,87	5,021
510,08	5,362
510,29	5,114
510,49	5,085
510,70	5,539
510,91	5,426
511,12	5,557
511,32	5,332
511,53	5,210
511,74	5,496
511,94	5,458
512,15	5,376
512,36	5,609
512,57	5,357
512,77	5,701
512,98	5,588
513,19	5,298
513,39	5,444
513,60	5,435
513,81	5,463
514,01	5,264
514,22	5,428
514,43	5,532
514,64	5,681
514,84	5,840
515,05	5,551
515,26	5,461
515,46	5,649
515,67	5,912
515,88	6,110
516,08	5,862
516,29	5,722
516,50	5,679
516,70	6,106
516,91	6,077
517,12	6,034
517,32	5,863
517,53	6,277
517,74	5,943
517,95	5,844
518,15	5,927
518,36	6,408
518,57	6,132
518,77	5,828
518,98	6,243
519,19	6,450
519,39	6,642
519,60	6,519
519,80	6,264
520,01	6,481
520,22	6,312
520,42	6,419
520,63	6,424
520,84	5,975
521,04	6,265
521,25	6,814
521,46	6,441
521,66	6,394
521,87	6,548
522,08	6,689
522,28	6,632
522,49	6,796
522,70	6,659
522,90	6,771
523,11	6,751
523,31	6,932
523,52	7,043
523,73	6,740
523,93	7,130
524,14	6,881
524,35	6,681
524,55	7,001
524,76	7,409
524,97	7,023
525,17	6,938
525,38	6,980
525,58	7,186
525,79	7,497
526,00	7,394
526,20	7,284
526,41	7,808
526,61	7,705
526,82	7,930
527,03	7,416
527,23	7,666
527,44	7,531
527,64	7,718
527,85	7,493
528,06	7,234
528,26	7,652
528,47	7,573
528,68	7,566
528,88	7,893
529,09	7,876
529,29	7,833
529,50	8,077
529,70	7,780
529,91	8,000
530,12	7,819
530,32	8,131
530,53	8,280
530,73	8,037
530,94	8,035
531,15	7,967
531,35	8,025
531,56	8,435
531,76	8,404
531,97	8,466
532,17	8,260
532,38	7,994
532,59	8,535
532,79	8,641
533,00	8,584
533,20	8,370
533,41	8,546
533,61	8,239
533,82	8,539
534,03	8,649
534,23	8,483
534,44	8,794
534,64	8,879
534,85	8,377
535,05	9,033
535,26	8,753
535,46	9,063
535,67	9,272
535,88	9,340
536,08	9,354
536,29	9,134
536,49	9,371
536,70	9,045
536,90	9,129
537,11	9,134
537,31	9,158
537,52	9,053
537,72	9,178
537,93	9,288
538,13	9,175
538,34	9,577
538,55	9,325
538,75	9,449
538,96	9,705
539,16	9,236
539,37	9,659
539,57	9,261
539,78	8,833
539,98	9,596
540,19	9,338
540,39	9,326
540,60	9,864
540,80	9,575
541,01	9,818
541,21	9,601
541,42	9,986
541,62	9,705
541,83	9,780
542,03	10,165
542,24	9,738
542,44	9,939
542,65	9,928
542,85	9,989
543,06	10,135
543,26	10,146
543,47	10,535
543,67	10,100
543,88	10,482
544,08	10,632
544,29	10,024
544,49	10,265
544,70	10,181
544,90	10,363
545,11	9,766
545,31	10,593
545,52	10,135
545,72	10,728
545,93	10,701
546,13	10,632
546,34	10,155
546,54	10,362
546,75	10,308
546,95	10,193
547,15	10,546
547,36	10,777
547,56	10,826
547,77	10,948
547,97	10,694
548,18	10,333
548,38	10,909
548,59	10,723
548,79	10,434
549,00	11,156
549,20	10,547
549,41	11,123
549,61	10,937
549,81	10,887
550,02	11,244
550,22	10,880
550,43	11,075
550,63	11,228
550,84	11,426
551,04	11,194
551,25	11,116
551,45	11,011
551,65	11,036
551,86	11,130
552,06	11,382
552,27	11,039
552,47	11,172
552,68	11,517
552,88	10,771
553,08	10,982
553,29	10,965
553,49	10,599
553,70	11,460
553,90	11,380
554,11	10,947
554,31	11,259
554,51	11,511
554,72	11,505
554,92	11,785
555,13	11,535
555,33	11,459
555,53	11,527
555,74	11,699
555,94	11,173
556,15	11,757
556,35	11,520
556,56	11,375
556,76	11,407
556,96	11,453
557,17	11,606
557,37	11,568
557,58	11,538
557,78	11,433
557,98	11,360
558,19	11,298
558,39	11,513
558,59	11,950
558,80	11,420
559,00	11,289
559,21	11,859
559,41	11,591
559,61	11,733
559,82	11,513
560,02	11,908
560,23	11,751
560,43	11,522
560,63	11,841
560,84	11,569
561,04	11,736
561,24	11,157
561,45	11,811
561,65	11,217
561,85	12,019
562,06	11,622
562,26	11,503
562,47	11,339
562,67	11,748
562,87	11,575
563,08	11,792
563,28	12,260
563,48	11,806
563,69	11,938
563,89	11,556
564,09	11,632
564,30	11,240
564,50	11,800
564,70	11,952
564,91	11,943
565,11	11,785
565,31	11,857
565,52	12,055
565,72	12,330
565,92	11,341
566,13	11,405
566,33	11,604
566,53	11,840
566,74	11,839
566,94	11,267
567,14	11,864
567,35	11,677
567,55	11,461
567,75	12,096
567,96	12,174
568,16	11,716
568,36	11,970
568,57	11,997
568,77	11,483
568,97	12,072
569,18	11,967
569,38	12,201
569,58	11,809
569,79	11,895
569,99	12,797
570,19	12,058
570,39	12,196
570,60	11,932
570,80	12,182
571,00	11,869
571,21	11,628
571,41	11,934
571,61	12,187
571,82	12,696
572,02	12,516
572,22	12,327
572,42	11,732
572,63	11,436
572,83	11,850
573,03	11,677
573,24	11,411
573,44	11,761
573,64	11,778
573,84	11,935
574,05	11,999
574,25	11,726
574,45	11,728
574,66	11,400
574,86	12,300
575,06	11,990
575,26	12,046
575,47	11,682
575,67	12,065
575,87	12,590
576,07	12,358
576,28	12,053
576,48	12,019
576,68	11,997
576,88	12,023
577,09	11,665
577,29	11,640
577,49	11,437
577,69	11,866
577,90	12,122
578,10	11,928
578,30	11,675
578,50	11,647
578,71	12,052
578,91	11,713
579,11	11,839
579,31	11,977
579,52	11,440
579,72	11,939
579,92	11,640
580,12	11,820
580,33	11,373
580,53	11,494
580,73	11,630
580,93	11,696
581,13	11,723
581,34	11,725
581,54	11,651
581,74	11,647
581,94	11,951
582,15	12,098
582,35	11,896
582,55	11,498
582,75	11,388
582,95	11,134
583,16	11,351
583,36	11,953
583,56	11,185
583,76	11,369
583,96	11,639
584,17	11,474
584,37	11,197
584,57	11,662
584,77	11,781
584,97	11,434
585,18	11,297
585,38	11,342
585,58	11,440
585,78	11,349
585,98	11,236
586,19	11,075
586,39	11,720
586,59	11,104
586,79	11,117
586,99	11,376
587,20	11,091
587,40	11,231
587,60	11,079
587,80	10,762
588,00	10,909
588,20	10,992
588,41	10,986
588,61	10,760
588,81	10,969
589,01	11,017
589,21	11,313
589,41	11,038
589,62	10,888
589,82	11,109
590,02	10,973
590,22	10,473
590,42	10,524
590,62	10,637
590,83	10,834
591,03	11,155
591,23	10,514
591,43	10,799
591,63	10,604
591,83	10,504
592,03	10,653
592,24	10,435
592,44	10,499
592,64	10,588
592,84	9,893
593,04	10,489
593,24	10,257
593,44	9,868
593,65	10,063
593,85	10,050
594,05	10,632
594,25	10,135
594,45	9,948
594,65	10,218
594,85	10,368
595,06	10,132
595,26	9,964
595,46	10,284
595,66	10,119
595,86	10,205
596,06	10,389
596,26	10,241
596,46	10,105
596,66	10,299
596,87	9,890
597,07	9,616
597,27	10,045
597,47	10,175
597,67	10,285
597,87	10,143
598,07	10,242
598,27	10,262
598,47	10,264
598,67	10,287
598,88	10,231
599,08	10,200
599,28	10,769
599,48	10,718
599,68	10,821
599,88	10,994
600,08	11,141
600,28	10,676
600,48	11,073
600,68	10,989
600,88	11,306
601,09	11,219
601,29	10,840
601,49	11,478
601,69	11,288
601,89	11,581
602,09	11,818
602,29	11,598
602,49	11,598
602,69	11,861
602,89	11,841
603,09	12,241
603,29	11,727
603,49	11,699
603,69	11,452
603,90	11,306
604,10	11,477
604,30	11,532
604,50	11,685
604,70	11,633
604,90	11,470
605,10	11,710
605,30	12,452
605,50	12,061
605,70	12,527
605,90	12,238
606,10	12,155
606,30	12,408
606,50	12,424
606,70	12,395
606,90	12,025
607,10	12,264
607,30	12,617
607,50	12,297
607,70	12,637
607,90	12,575
608,10	12,657
608,30	12,332
608,50	12,070
608,70	12,042
608,90	12,310
609,11	12,231
609,31	12,309
609,51	12,336
609,71	12,532
609,91	12,517
610,11	12,320
610,31	12,472
610,51	12,417
610,71	12,492
610,91	12,248
611,11	12,921
611,31	12,694
611,51	12,396
611,71	12,932
611,91	12,648
612,11	12,805
612,31	12,533
612,51	12,973
612,71	13,232
612,91	13,272
613,11	13,398
613,31	13,074
613,51	13,133
613,71	13,094
613,91	13,126
614,11	13,161
614,31	12,975
614,50	13,734
614,70	13,316
614,90	12,880
615,10	13,207
615,30	12,731
615,50	13,498
615,70	13,389
615,90	13,194
616,10	13,661
616,30	13,256
616,50	13,250
616,70	13,314
616,90	12,824
617,10	13,344
617,30	13,483
617,50	13,353
617,70	13,061
617,90	13,125
618,10	13,397
618,30	13,324
618,50	13,172
618,70	13,327
618,90	12,891
619,10	13,424
619,30	13,466
619,49	13,522
619,69	14,033
619,89	14,023
620,09	13,322
620,29	13,779
620,49	13,846
620,69	13,715
620,89	14,027
621,09	13,669
621,29	13,420
621,49	14,128
621,69	13,981
621,89	14,004
622,09	14,270
622,29	14,244
622,48	14,606
622,68	14,763
622,88	15,119
623,08	15,277
623,28	16,742
623,48	16,929
623,68	17,063
623,88	18,101
624,08	19,030
624,28	19,589
624,48	21,188
624,67	21,509
624,87	23,282
625,07	24,336
625,27	26,247
625,47	27,096
625,67	28,335
625,87	29,859
626,07	30,308
626,27	31,781
626,47	33,020
626,66	33,861
626,86	35,048
627,06	36,164
627,26	36,760
627,46	38,249
627,66	39,119
627,86	40,081
628,06	41,166
628,25	41,392
628,45	42,098
628,65	42,639
628,85	43,560
629,05	43,405
629,25	44,633
629,45	45,428
629,65	45,228
629,84	45,304
630,04	46,238
630,24	46,658
630,44	46,065
630,64	46,435
630,84	46,437
631,04	46,943
631,23	47,537
631,43	47,825
631,63	48,246
631,83	48,737
632,03	49,301
632,23	50,035
632,42	50,971
632,62	52,470
632,82	53,528
633,02	55,376
633,22	56,129
633,42	59,053
633,62	60,083
633,81	61,164
634,01	62,843
634,21	64,178
634,41	66,234
634,61	67,578
634,80	68,944
635,00	70,085
635,20	71,444
635,40	71,996
635,60	72,892
635,80	74,707
635,99	73,988
636,19	74,222
636,39	75,079
636,59	74,804
636,79	74,154
636,98	74,043
637,18	73,029
637,38	72,123
637,58	71,135
637,78	68,742
637,97	67,829
638,17	67,114
638,37	65,824
638,57	64,455
638,77	64,001
638,96	63,289
639,16	62,438
639,36	59,319
639,56	59,635
639,76	58,424
639,95	57,849
640,15	57,121
640,35	56,205
640,55	55,520
640,75	53,940
640,94	53,821
641,14	53,082
641,34	52,535
641,54	52,080
641,73	49,838
641,93	50,986
642,13	49,801
642,33	49,235
642,53	47,919
642,72	47,532
642,92	45,986
643,12	44,759
643,32	43,349
643,51	41,746
643,71	40,779
643,91	39,108
644,11	37,636
644,30	36,082
644,50	33,962
644,70	32,350
644,90	30,629
645,09	28,837
645,29	27,330
645,49	25,550
645,69	24,032
645,88	22,640
646,08	21,665
646,28	20,628
646,48	19,882
646,67	19,014
646,87	18,250
647,07	17,229
647,26	16,836
647,46	16,346
647,66	15,614
647,86	15,431
648,05	15,317
648,25	15,263
648,45	15,020
648,65	14,792
648,84	14,650
649,04	14,554
649,24	14,323
649,43	14,511
649,63	14,435
649,83	14,117
650,03	14,008
650,22	13,443
650,42	13,664
650,62	13,825
650,81	13,442
651,01	13,490
651,21	13,020
651,40	13,059
651,60	13,425
651,80	13,083
652,00	13,322
652,19	13,489
652,39	13,453
652,59	13,167
652,78	13,332
652,98	13,558
653,18	13,365
653,37	13,266
653,57	13,209
653,77	13,365
653,96	12,963
654,16	13,085
654,36	12,690
654,55	12,661
654,75	13,231
654,95	12,828
655,14	12,987
655,34	12,873
655,54	12,852
655,73	12,631
655,93	13,324
656,13	12,793
656,32	12,801
656,52	13,245
656,72	13,088
656,91	12,965
657,11	12,765
657,31	12,841
657,50	12,770
657,70	12,340
657,90	12,797
658,09	12,420
658,29	12,833
658,49	12,321
658,68	12,068
658,88	12,114
659,07	11,855
659,27	12,294
659,47	12,117
659,66	12,131
659,86	12,715
660,06	13,106
660,25	12,994
660,45	12,881
660,64	12,561
660,84	12,488
661,04	12,342
661,23	12,766
661,43	12,460
661,63	12,163
661,82	12,532
662,02	12,404
662,21	12,400
662,41	12,373
662,61	12,449
662,80	12,468
663,00	12,228
663,19	12,435
663,39	12,549
663,59	12,610
663,78	12,414
663,98	12,743
664,17	12,526
664,37	12,494
664,57	12,887
664,76	12,291
664,96	12,619
665,15	12,213
665,35	12,622
665,55	12,373
665,74	12,645
665,94	12,344
666,13	12,748
666,33	12,648
666,53	12,856
666,72	13,060
666,92	12,479
667,11	12,726
667,31	12,747
667,50	12,509
667,70	12,715
667,90	12,003
668,09	12,337
668,29	12,155
668,48	12,381
668,68	12,253
668,87	11,967
669,07	12,194
669,26	11,992
669,46	12,103
669,66	12,378
669,85	12,097
670,05	12,479
670,24	11,880
670,44	12,326
670,63	12,444
670,83	12,237
671,02	12,231
671,22	12,328
671,42	12,373
671,61	12,665
671,81	12,515
672,00	12,332
672,20	12,570
672,39	12,444
672,59	12,177
672,78	12,822
672,98	12,392
673,17	12,192
673,37	12,481
673,56	12,688
673,76	12,540
673,95	12,395
674,15	12,392
674,34	12,094
674,54	12,505
674,73	12,285
674,93	11,946
675,13	12,363
675,32	12,219
675,52	11,744
675,71	12,118
675,91	12,397
676,10	12,050
676,30	12,713
676,49	12,424
676,69	12,655
676,88	12,637
677,08	12,603
677,27	12,029
677,47	12,685
677,66	12,429
677,86	12,493
678,05	12,682
678,24	12,262
678,44	12,543
678,63	12,266
678,83	12,775
679,02	12,481
679,22	12,619
679,41	13,167
679,61	12,308
679,80	12,550
680,00	12,671
680,19	12,721
680,39	12,457
680,58	12,068
680,78	12,374
680,97	12,634
681,17	12,390
681,36	12,615
681,56	12,415
681,75	12,694
681,94	12,594
682,14	12,501
682,33	12,182
682,53	12,010
682,72	12,567
682,92	11,898
683,11	12,267
683,31	12,567
683,50	12,413
683,69	12,764
683,89	12,094
684,08	12,688
684,28	11,995
684,47	12,347
684,67	12,307
684,86	12,069
685,06	12,009
685,25	12,449
685,44	12,528
685,64	12,585
685,83	12,320
686,03	12,215
686,22	11,847
686,42	12,225
686,61	12,425
686,80	12,253
687,00	12,312
687,19	12,247
687,39	12,574
687,58	12,036
687,77	12,645
687,97	12,401
688,16	12,430
688,36	12,565
688,55	12,181
688,74	12,163
688,94	12,453
689,13	11,908
689,33	12,132
689,52	12,819
689,71	12,508
689,91	12,666
690,10	12,136
690,30	12,388
690,49	12,258
690,68	12,362
690,88	12,212
691,07	11,819
691,27	12,464
691,46	12,184
691,65	12,488
691,85	12,119
692,04	12,532
692,23	12,299
692,43	12,436
692,62	12,648
692,82	12,327
693,01	12,199
693,20	11,872
693,40	12,532
693,59	12,000
693,78	12,316
693,98	12,300
694,17	12,215
694,36	12,112
694,56	12,262
694,75	12,565
694,94	12,343
695,14	12,306
695,33	12,137
695,53	12,108
695,72	12,436
695,91	12,215
696,11	12,311
696,30	12,100
696,49	12,502
696,69	12,122
696,88	12,518
697,07	11,972
697,27	12,202
697,46	12,278
697,65	12,567
697,85	12,330
698,04	12,551
698,23	12,644
698,43	12,591
698,62	12,349
698,81	12,346
699,01	12,768
699,20	11,937
699,39	11,789
699,58	12,021
699,78	11,887
699,97	11,904
700,16	12,246
700,36	11,900
700,55	11,892
700,74	12,286
700,94	12,340
701,13	12,505
701,32	11,852
701,52	12,088
701,71	12,357
701,90	12,439
702,09	12,471
702,29	12,275
702,48	12,586
702,67	12,454
702,87	12,438
703,06	12,129
703,25	12,294
703,44	12,249
703,64	12,469
703,83	12,613
704,02	12,260
704,22	12,417
704,41	12,079
704,60	12,441
704,79	12,021
704,99	12,208
705,18	12,436
705,37	12,548
705,56	11,890
705,76	12,001
705,95	12,315
706,14	12,137
706,33	12,475
706,53	12,315
706,72	12,203
706,91	12,129
707,11	12,181
707,30	12,139
707,49	11,801
707,68	12,061
707,88	11,619
708,07	11,980
708,26	12,341
708,45	11,869
708,64	12,494
708,84	11,791
709,03	11,879
709,22	12,190
709,41	12,533
709,61	12,786
709,80	12,483
709,99	12,549
710,18	12,803
710,38	12,529
710,57	12,616
710,76	12,429
710,95	12,756
711,14	12,311
711,34	12,297
711,53	11,977
711,72	11,866
711,91	12,294
712,11	12,602
712,30	12,437
712,49	11,674
712,68	11,984
712,87	12,032
713,07	11,922
713,26	11,963
713,45	12,058
713,64	12,617
713,83	12,063
714,03	12,289
714,22	12,057
714,41	12,523
714,60	12,033
714,79	12,330
714,99	11,959
715,18	12,274
715,37	12,141
715,56	12,602
715,75	12,267
715,94	12,417
716,14	12,126
716,33	12,266
716,52	12,016
716,71	12,239
716,90	12,181
717,10	12,119
717,29	12,413
717,48	12,460
717,67	12,422
717,86	12,305
718,05	11,851
718,24	12,227
718,44	12,136
718,63	12,286
718,82	12,301
719,01	11,698
719,20	11,702
719,39	11,438
719,59	11,588
719,78	11,965
719,97	12,065
720,16	12,279
720,35	12,040
720,54	11,897
720,73	11,712
720,93	11,957
721,12	12,167
721,31	12,108
721,50	12,342
721,69	11,614
721,88	12,104
722,07	12,303
722,27	12,325
722,46	12,335
722,65	11,998
722,84	12,187
723,03	11,779
723,22	12,076
723,41	11,933
723,60	12,132
723,79	11,944
723,99	11,941
724,18	12,119
724,37	12,341
724,56	12,425
724,75	12,331
724,94	12,096
725,13	12,260
725,32	12,248
725,51	12,217
725,71	12,526
725,90	12,391
726,09	12,268
726,28	12,411
726,47	12,226
726,66	12,253
726,85	12,538
727,04	12,116
727,23	12,209
727,42	11,812
727,61	11,880
727,81	11,982
728,00	11,794
728,19	11,685
728,38	11,833
728,57	12,170
728,76	11,928
728,95	12,092
729,14	12,117
729,33	12,396
729,52	12,292
729,71	12,322
729,90	12,360
730,09	11,757
730,28	12,319
730,48	12,264
730,67	12,238
730,86	12,042
731,05	12,451
731,24	12,125
731,43	12,400
731,62	12,552
731,81	12,285
732,00	12,328
732,19	12,213
732,38	12,009
732,57	12,145
732,76	12,014
732,95	12,158
733,14	12,096
733,33	12,058
733,52	12,674
733,71	12,489
733,90	12,220
734,09	12,274
734,28	12,268
734,47	12,235
734,66	12,193
734,85	11,915
735,04	12,515
735,23	12,490
735,42	12,644
735,61	12,179
735,81	12,079
736,00	12,375
736,19	12,065
736,38	12,347
736,57	12,040
736,76	12,061
736,95	11,622
737,14	12,723
737,33	12,451
737,52	12,261
737,71	12,450
737,90	12,271
738,09	12,668
738,28	12,427
738,47	12,368
738,66	12,928
738,85	12,298
739,04	12,412
739,22	13,057
739,41	12,488
739,60	12,830
739,79	13,051
739,98	12,689
740,17	12,805
740,36	12,348
740,55	12,841
740,74	12,914
740,93	12,787
741,12	12,762
741,31	12,316
741,50	12,929
741,69	13,310
741,88	13,005
742,07	13,407
742,26	13,219
742,45	13,061
742,64	13,596
742,83	13,144
743,02	13,745
743,21	13,754
743,40	13,626
743,59	13,809
743,78	13,590
743,97	14,364
744,16	14,091
744,34	13,693
744,53	14,174
744,72	14,426
744,91	13,971
745,10	14,332
745,29	14,827
745,48	14,630
745,67	15,313
745,86	15,367
746,05	15,564
746,24	16,001
746,43	15,744
746,62	16,783
746,81	16,719
747,00	16,296
747,18	16,673
747,37	17,047
747,56	17,218
747,75	17,833
747,94	17,622
748,13	17,248
748,32	17,583
748,51	18,182
748,70	18,280
748,89	18,033
749,08	18,888
749,26	18,959
749,45	18,709
749,64	19,203
749,83	19,670
750,02	20,030
750,21	20,202
750,40	21,102
750,59	21,381
750,78	22,415
750,96	22,826
751,15	23,119
751,34	24,529
751,53	24,853
751,72	25,691
751,91	26,537
752,10	28,020
752,29	28,699
752,47	29,153
752,66	31,401
752,85	32,446
753,04	34,396
753,23	35,471
753,42	37,315
753,61	39,197
753,80	41,377
753,98	42,272
754,17	44,166
754,36	45,922
754,55	47,410
754,74	49,242
754,93	51,918
755,12	53,491
755,30	54,714
755,49	57,516
755,68	58,532
755,87	59,777
756,06	60,967
756,25	63,557
756,43	64,699
756,62	66,645
756,81	67,592
757,00	69,252
757,19	69,492
757,38	72,386
757,56	72,005
757,75	74,585
757,94	75,610
758,13	75,712
758,32	77,373
758,51	76,840
758,69	78,397
758,88	79,131
759,07	80,037
759,26	80,305
759,45	80,246
759,63	80,202
759,82	80,318
760,01	80,140
760,20	80,350
760,39	77,941
760,57	79,348
760,76	79,304
760,95	79,593
761,14	79,337
761,33	80,106
761,51	78,853
761,70	78,914
761,89	78,041
762,08	77,259
762,27	76,704
762,45	76,796
762,64	74,748
762,83	74,171
763,02	73,319
763,21	72,088
763,39	70,387
763,58	70,263
763,77	68,689
763,96	67,537
764,14	66,274
764,33	66,094
764,52	65,451
764,71	62,490
764,89	62,392
765,08	60,677
765,27	60,841
765,46	59,417
765,65	58,600
765,83	57,547
766,02	57,378
766,21	56,480
766,40	55,585
766,58	54,191
766,77	53,538
766,96	51,813
767,15	52,486
767,33	51,243
767,52	50,644
767,71	49,454
767,90	48,785
768,08	48,452
768,27	47,914
768,46	47,227
768,64	46,221
768,83	46,263
769,02	45,180
769,21	44,848
769,39	43,964
769,58	42,825
769,77	42,528
769,96	41,803
770,14	41,489
770,33	39,974
770,52	38,149
770,70	38,628
770,89	36,606
771,08	35,466
771,27	35,437
771,45	33,642
771,64	31,973
771,83	31,666
772,01	30,486
772,20	29,512
772,39	28,477
772,57	27,481
772,76	26,245
772,95	25,021
773,14	24,178
773,32	22,891
773,51	22,627
773,70	21,993
773,88	21,343
774,07	21,027
774,26	20,236
774,44	19,199
774,63	19,334
774,82	18,460
775,00	17,536
775,19	17,363
775,38	16,672
775,56	16,404
775,75	15,805
775,94	15,696
776,12	15,249
776,31	15,350
776,50	14,747
776,68	14,431
776,87	14,416
777,06	13,799
777,24	14,287
777,43	14,147
777,62	14,026
777,80	13,476
777,99	13,297
778,18	13,356
778,36	13,227
778,55	12,935
778,74	13,304
778,92	13,249
779,11	12,917
779,29	12,464
779,48	13,497
779,67	13,662
779,85	13,287
780,04	12,891
780,23	13,122
780,41	12,637
780,60	12,738
780,79	12,871
780,97	13,268
781,16	12,975
781,34	12,955
781,53	13,088
781,72	12,882
781,90	13,226
782,09	12,563
782,28	12,808
782,46	12,497
782,65	12,708
782,83	12,472
783,02	12,404
783,21	12,534
783,39	12,495
783,58	12,690
783,76	12,688
783,95	12,211
784,14	12,955
784,32	12,145
784,51	12,367
784,69	12,035
784,88	12,695
785,06	12,521
785,25	12,075
785,44	11,915
785,62	12,247
785,81	12,317
785,99	12,803
786,18	12,089
786,37	12,883
786,55	12,576
786,74	12,556
786,92	12,494
787,11	12,349
787,29	12,223
787,48	12,004
787,67	12,002
787,85	11,926
788,04	11,934
788,22	11,829
788,41	12,321
788,59	12,183
788,78	12,178
788,96	11,851
789,15	12,124
789,34	11,935
789,52	12,228
789,71	12,277
789,89	12,339
790,08	12,176
790,26	12,600
790,45	12,169
790,63	12,622
790,82	12,384
791,00	12,010
791,19	12,687
791,38	11,935
791,56	11,919
791,75	12,571
791,93	12,424
792,12	12,428
792,30	12,164
792,49	12,673
792,67	12,397
792,86	11,992
793,04	12,366
793,23	11,691
793,41	12,125
793,60	12,388
793,78	12,730
793,97	12,451
794,15	12,705
794,34	12,172
794,52	12,840
794,71	12,326
794,89	12,318
795,08	12,700
795,26	12,560
795,45	12,929
795,63	12,463
795,82	12,272
796,00	11,994
796,19	12,740
796,37	11,628
796,56	11,852
796,74	11,926
796,93	11,824
797,11	11,572
797,30	11,785
797,48	11,882
797,67	12,138
797,85	12,264
798,04	12,042
798,22	12,171
798,41	12,007
798,59	11,923
798,77	11,476
798,96	12,111
799,14	12,031
799,33	11,913
799,51	11,621
799,70	11,908
799,88	12,008
800,07	11,729
800,25	12,301
800,44	11,569
800,62	11,647
800,80	11,654
800,99	11,732
801,17	12,059
801,36	11,711
801,54	11,522
801,73	11,862
801,91	11,647
802,10	12,191
802,28	12,143
802,46	12,100
802,65	12,488
802,83	11,945
803,02	12,011
803,20	12,233
803,39	12,429
803,57	12,374
803,75	12,281
803,94	11,759
804,12	12,210
804,31	11,951
804,49	12,258
804,67	12,186
804,86	11,965
805,04	11,626
805,23	12,050
805,41	12,109
805,59	12,215
805,78	11,840
805,96	12,180
806,15	11,993
806,33	11,981
806,51	11,432
806,70	11,453
806,88	11,951
807,07	11,815
807,25	11,893
807,43	11,782
807,62	11,834
807,80	12,060
807,99	12,242
808,17	11,405
808,35	12,185
808,54	11,556
808,72	11,884
808,90	12,402
809,09	11,626
809,27	11,867
809,46	12,599
809,64	11,953
809,82	12,022
810,01	12,148
810,19	11,823
810,37	11,573
810,56	11,818
810,74	11,462
810,92	11,730
811,11	11,730
811,29	11,767
811,48	12,088
811,66	12,109
811,84	12,205
812,03	12,223
812,21	11,893
812,39	12,243
812,58	11,992
812,76	12,096
812,94	12,051
813,13	11,608
813,31	11,958
813,49	12,248
813,68	11,877
813,86	11,759
814,04	11,465
814,23	11,411
814,41	11,475
814,59	11,182
814,78	11,164
814,96	11,296
815,14	11,067
815,33	11,313
815,51	11,874
815,69	11,411
815,87	11,446
816,06	11,647
816,24	12,031
816,42	11,670
816,61	11,751
816,79	12,138
816,97	12,068
817,16	11,574
817,34	11,528
817,52	11,684
817,70	11,493
817,89	11,366
818,07	11,640
818,25	11,225
818,44	11,413
818,62	11,929
818,80	11,177
818,98	11,309
819,17	11,586
819,35	10,832
819,53	11,248
819,72	11,702
819,90	11,906
820,08	11,976
820,26	11,323
820,45	11,719
820,63	11,927
820,81	11,497
820,99	11,889
821,18	11,518
821,36	11,038
821,54	12,208
821,73	11,050
821,91	11,584
822,09	12,133
822,27	12,033
822,46	11,906
822,64	12,370
822,82	11,695
823,00	11,997
823,19	11,734
823,37	11,991
823,55	11,930
823,73	12,021
823,91	12,148
824,10	11,634
824,28	12,144
824,46	12,054
824,64	11,951
824,83	12,172
825,01	12,346
825,19	11,579
825,37	11,931
825,56	12,448
825,74	11,986
825,92	12,504
826,10	12,568
826,28	12,127
826,47	12,043
826,65	13,068
826,83	12,528
827,01	12,274
827,19	13,008
827,38	13,088
827,56	12,607
827,74	12,168
827,92	12,259
828,10	12,599
828,29	12,495
828,47	11,859
828,65	12,203
828,83	12,167
829,01	12,463
829,20	12,421
829,38	12,947
829,56	11,967
829,74	11,946
829,92	12,544
830,10	12,020
830,29	12,654
830,47	12,163
830,65	12,134
830,83	12,221
831,01	12,002
831,20	11,937
831,38	12,503
831,56	12,596
831,74	12,808
831,92	12,434
832,10	12,931
832,29	12,820
832,47	12,713
832,65	13,177
832,83	12,840
833,01	13,327
833,19	12,611
833,37	12,656
833,56	12,978
833,74	12,875
833,92	12,337
834,10	13,538
834,28	13,253
834,46	13,038
834,64	13,197
834,83	12,807
835,01	13,122
835,19	13,576
835,37	12,874
835,55	13,156
835,73	14,175
835,91	12,749
836,09	13,496
836,28	14,216
836,46	14,199
836,64	13,274
836,82	14,039
837,00	14,185
837,18	14,238
837,36	14,414
837,54	14,552
837,72	13,979
837,91	14,312
838,09	14,719
838,27	15,007
838,45	15,176
838,63	15,370
838,81	15,520
838,99	15,960
839,17	16,135
839,35	15,952
839,53	16,271
839,72	16,794
839,90	16,441
840,08	16,684
840,26	16,581
840,44	16,696
840,62	16,873
840,80	17,553
840,98	16,907
841,16	17,592
841,34	17,614
841,52	17,128
841,70	17,327
841,89	16,974
842,07	17,458
842,25	17,875
842,43	17,568
842,61	18,630
842,79	18,466
842,97	18,553
843,15	18,732
843,33	18,761
843,51	18,620
843,69	18,676
843,87	19,396
844,05	19,950
844,23	19,492
844,41	19,277
844,59	18,848
844,77	19,716
844,95	20,776
845,13	20,290
845,31	20,620
845,50	21,110
845,68	20,772
845,86	20,767
846,04	21,038
846,22	20,589
846,40	21,078
846,58	21,878
846,76	22,873
846,94	23,107
847,12	22,922
847,30	23,779
847,48	23,962
847,66	24,993
847,84	25,134
848,02	25,176
848,20	27,827
848,38	27,085
848,56	28,284
848,74	29,208
848,92	29,847
849,10	29,518
849,28	31,868
849,46	33,353
849,64	34,487
849,82	35,668
850,00	36,403
850,18	38,967
850,36	40,116
850,54	41,312
850,72	42,403
850,90	44,378
851,08	45,964
851,26	46,122
851,44	48,395
851,62	49,384
851,80	50,128
851,98	53,049
852,16	54,033
852,34	55,460
852,52	55,171
852,70	58,482
852,87	59,200
853,05	60,844
853,23	61,946
853,41	63,140
853,59	63,520
853,77	65,607
853,95	65,734
854,13	66,732
854,31	66,956
854,49	68,495
854,67	69,878
854,85	69,492
855,03	72,757
855,21	70,277
855,39	70,989
855,57	71,899
855,75	72,226
855,93	72,023
856,11	70,893
856,28	70,981
856,46	71,787
856,64	71,666
856,82	71,377
857,00	71,672
857,18	71,565
857,36	71,555
857,54	70,223
857,72	69,970
857,90	69,094
858,08	68,565
858,26	68,551
858,44	68,539
858,61	67,375
858,79	64,681
858,97	63,998
859,15	62,697
859,33	62,539
859,51	62,957
859,69	61,267
859,87	58,807
860,05	59,424
860,23	57,634
860,40	57,398
860,58	56,029
860,76	54,567
860,94	55,053
861,12	52,633
861,30	51,476
861,48	51,596
861,66	50,172
861,84	50,152
862,01	48,859
862,19	48,478
862,37	47,900
862,55	45,824
862,73	46,171
862,91	44,626
863,09	43,147
863,27	42,446
863,44	42,037
863,62	42,529
863,80	40,262
863,98	39,330
864,16	38,150
864,34	38,168
864,52	36,942
864,69	36,433
864,87	34,807
865,05	33,105
865,23	32,375
865,41	31,689
865,59	31,289
865,76	29,223
865,94	28,394
866,12	27,405
866,30	26,615
866,48	25,132
866,66	24,513
866,83	23,688
867,01	22,786
867,19	21,707
867,37	21,307
867,55	20,688
867,73	19,041
867,90	18,898
868,08	18,548
868,26	16,736
868,44	17,367
868,62	15,835
868,79	15,545
868,97	15,313
869,15	15,642
869,33	15,213
869,51	14,551
869,69	13,942
869,86	14,054
870,04	13,165
870,22	13,438
870,40	13,577
870,57	12,843
870,75	12,027
870,93	12,623
871,11	12,929
871,29	11,959
871,46	12,548
871,64	12,470
871,82	12,580
872,00	11,639
872,18	11,712
872,35	11,898
872,53	12,221
872,71	11,503
872,89	11,880
873,06	11,688
873,24	11,752
873,42	11,416
873,60	11,900
873,77	11,783
873,95	11,956
874,13	11,043
874,31	11,722
874,49	11,163
874,66	11,893
874,84	11,769
875,02	11,228
875,20	11,112
875,37	11,909
875,55	11,566
875,73	11,224
875,91	11,271
876,08	11,507
876,26	12,063
876,44	11,310
876,61	11,585
876,79	11,664
876,97	10,824
877,15	11,169
877,32	11,332
877,50	11,465
877,68	11,480
877,86	10,789
878,03	11,410
878,21	11,219
878,39	11,212
878,56	11,271
878,74	11,036
878,92	10,921
879,10	11,127
879,27	11,854
879,45	10,858
879,63	11,071
879,80	11,176
879,98	11,282
880,16	11,332
880,34	11,121
880,51	11,395
880,69	10,834
880,87	11,137
881,04	11,710
881,22	11,125
881,40	11,209
881,57	11,462
881,75	11,992
881,93	11,458
882,10	10,576
882,28	11,267
882,46	11,519
882,63	11,110
882,81	10,432
882,99	11,275
883,16	10,987
883,34	10,191
883,52	10,268
883,69	10,544
883,87	10,719
884,05	10,594
884,22	10,336
884,40	10,278
884,58	10,841
884,75	11,024
884,93	10,443
885,11	10,098
885,28	10,544
885,46	10,265
885,64	10,044
885,81	10,460
885,99	10,087
886,17	10,599
886,34	9,792
886,52	10,365
886,70	10,133
886,87	9,952
887,05	10,107
887,22	10,607
887,40	9,911
887,58	9,975
887,75	10,080
887,93	10,685
888,11	9,800
888,28	9,753
888,46	10,733
888,63	9,684
888,81	10,341
888,99	9,694
889,16	9,756
889,34	9,641
889,51	10,257
889,69	9,943
889,87	10,037
890,04	9,440
890,22	10,211
890,39	9,840
890,57	9,852
890,75	9,661
890,92	10,655
891,10	9,366
891,27	9,230
891,45	9,182
891,63	9,820
891,80	9,312
891,98	9,656
892,15	9,835
892,33	9,644
892,51	9,154
892,68	9,064
892,86	9,309
893,03	9,448
893,21	9,212
893,38	9,743
893,56	9,675
893,74	9,111
893,91	9,249
894,09	9,973
894,26	8,796
894,44	9,797
894,61	8,637
894,79	9,797
894,96	9,382
895,14	9,495
895,32	9,727
895,49	9,828
895,67	9,578
895,84	9,201
896,02	9,513
896,19	9,681
896,37	9,288
896,54	9,000
896,72	9,374
896,89	8,667
897,07	8,873
897,25	9,036
897,42	8,983
897,60	9,772
897,77	8,977
897,95	8,589
898,12	8,830
898,30	8,819
898,47	8,223
898,65	8,750
898,82	8,796
899,00	8,763
899,17	8,313
899,35	9,255
899,52	9,647
899,70	9,056
899,87	9,526
900,05	9,283
900,22	9,515
900,40	8,975
900,57	9,303
900,75	9,215
900,92	8,779
901,10	8,389
901,27	8,277
901,45	9,136
901,62	8,821
901,80	8,852
901,97	8,314
902,15	8,666
902,32	8,715
902,50	7,636
902,67	8,903
902,85	8,259
903,02	8,489
903,20	8,505
903,37	9,149
903,54	8,858
903,72	8,292
903,89	8,815
904,07	8,694
904,24	8,740
904,42	8,315
904,59	9,155
904,77	9,074
904,94	8,424
905,12	8,660
905,29	8,344
905,47	8,445
905,64	9,311
905,81	8,196
905,99	8,628
906,16	8,758
906,34	8,548
906,51	8,100
906,69	8,722
906,86	8,542
907,03	8,324
907,21	8,642
907,38	7,975
907,56	8,319
907,73	8,712
907,91	8,481
908,08	8,537
908,25	8,617
908,43	8,506
908,60	8,149
908,78	8,894
908,95	8,112
909,13	8,239
909,30	7,748
909,47	7,623
909,65	7,976
909,82	7,890
910,00	7,913
910,17	7,331
910,34	8,158
910,52	7,886
910,69	8,215
910,87	7,878
911,04	8,095
911,21	8,258
911,39	7,455
911,56	7,916
911,73	7,639
911,91	7,684
912,08	8,075
912,26	7,339
912,43	7,974
912,60	7,859
912,78	7,586
912,95	7,527
913,13	7,486
913,30	7,905
913,47	7,670
913,65	7,478
913,82	7,729
913,99	6,885
914,17	8,188
914,34	8,346
914,51	7,586
914,69	7,285
914,86	8,154
915,03	7,809
915,21	7,541
915,38	7,797
915,56	7,404
915,73	7,047
915,90	7,204
916,08	7,556
916,25	7,298
916,42	7,691
916,60	7,816
916,77	7,067
916,94	7,137
917,12	7,232
917,29	6,820
917,46	7,718
917,64	7,417
917,81	7,791
917,98	7,474
918,16	6,828
918,33	7,928
918,50	7,858
918,67	6,668
918,85	7,073
919,02	7,136
919,19	7,335
919,37	6,889
919,54	7,253
919,71	7,676
919,89	7,469
920,06	7,362
920,23	7,946
920,41	7,483
920,58	6,692
920,75	7,323
920,92	7,479
921,10	6,626
921,27	6,695
921,44	7,039
921,62	6,652
921,79	6,483
921,96	7,803
922,13	7,400
922,31	6,946
922,48	7,076
922,65	7,133
922,82	6,844
923,00	7,223
923,17	6,689
923,34	6,419
923,52	6,760
923,69	6,671
923,86	6,500
924,03	6,595
924,21	6,504
924,38	6,717
924,55	6,484
924,72	6,366
924,90	6,662
925,07	6,694
925,24	5,875
925,41	6,654
925,59	6,013
925,76	6,167
925,93	5,981
926,10	5,953
926,28	6,433
926,45	5,738
926,62	6,267
926,79	6,470
926,96	6,197
927,14	6,295
927,31	6,201
927,48	6,242
927,65	6,788
927,83	6,311
928,00	6,465
928,17	6,238
928,34	5,835
928,51	6,059
928,69	5,851
928,86	6,526
929,03	6,029
929,20	6,480
929,37	5,514
929,55	6,286
929,72	5,731
929,89	6,029
930,06	6,087
930,23	6,327
930,41	5,845
930,58	6,058
930,75	6,244
930,92	6,264
931,09	5,803
931,27	5,999
931,44	6,621
931,61	5,918
931,78	6,285
931,95	5,714
932,12	6,790
932,30	6,233
932,47	5,833
932,64	6,074
932,81	5,416
932,98	6,414
933,16	5,682
933,33	6,239
933,50	5,389
933,67	5,849
933,84	5,234
934,01	5,338
934,18	5,280
934,36	5,211
934,53	5,830
934,70	6,433
934,87	5,891
935,04	6,190
935,21	5,690
935,38	6,253
935,56	5,414
935,73	5,693
935,90	5,726
936,07	5,737
936,24	5,509
936,41	6,101
936,58	5,355
936,76	5,971
936,93	5,417
937,10	5,502
937,27	5,812
937,44	5,631
937,61	5,942
937,78	4,775
937,95	5,669
938,13	5,314
938,30	5,354
938,47	5,610
938,64	6,039
938,81	5,422
938,98	5,305
939,15	5,769
939,32	5,648
939,49	5,322
939,66	5,829
939,84	5,970
940,01	4,894
940,18	5,657
940,35	5,170
940,52	4,874
940,69	5,419
940,86	5,673
941,03	5,113
941,20	5,733
941,37	5,986
941,54	4,940
941,71	5,801
941,89	5,644
942,06	5,390
942,23	5,153
942,40	5,348
942,57	5,929
942,74	5,437
942,91	4,952
943,08	5,551
943,25	4,821
943,42	4,054
943,59	5,753
943,76	5,797
943,93	5,440
944,10	6,059
944,27	5,197
944,44	5,350
944,61	5,712
944,79	6,248
944,96	5,844
945,13	5,276
945,30	4,712
945,47	5,253
945,64	5,306
945,81	4,816
945,98	5,346
946,15	5,604
946,32	5,676
946,49	5,456
946,66	4,570
946,83	4,822
947,00	5,525
947,17	5,602
947,34	5,475
947,51	5,680
947,68	4,932
947,85	5,288
948,02	5,775
948,19	5,569
948,36	5,641
948,53	4,924
948,70	5,525
948,87	5,412
949,04	5,354
949,21	4,972
949,38	6,238
949,55	6,233
949,72	5,558
949,89	4,763
950,06	4,879
950,23	5,384
950,40	6,332
950,57	5,612
950,74	5,665
950,91	5,377
951,08	5,312
951,25	5,745
951,42	5,702
951,59	5,762
951,76	6,243
951,93	5,075
952,10	6,302
952,27	6,162
952,44	5,874
952,61	5,968
952,77	5,863
952,94	6,404
953,11	6,259
953,28	5,945
953,45	5,832
953,62	5,552
953,79	5,872
953,96	6,087
954,13	6,865
954,30	6,941
954,47	5,297
954,64	6,637
954,81	6,634
954,98	6,749
955,15	6,632
955,32	5,403
955,49	6,228
955,65	7,620
955,82	5,767
955,99	6,264
956,16	6,527
956,33	7,444
956,50	6,111
956,67	7,192
956,84	6,882
957,01	6,451
957,18	5,658
957,35	5,857
957,52	6,832
957,68	7,277
957,85	6,479
958,02	7,570
958,19	6,630
958,36	6,976
958,53	8,435
958,70	7,468
958,87	7,877
959,04	8,327
959,21	6,500
959,37	7,539
959,54	7,938
959,71	7,578
959,88	8,147
960,05	8,486
960,22	7,591
960,39	8,168
960,56	6,999
960,72	8,480
960,89	10,178
961,06	9,105
961,23	9,207
961,40	8,519
961,57	7,733
961,74	8,512
961,90	7,997
962,07	9,375
962,24	8,649
962,41	6,020
962,58	8,379
962,75	7,395
962,92	7,167
963,08	8,933
963,25	8,974
963,42	10,278
963,59	7,270
963,76	6,866
963,93	9,979
964,10	9,126
964,26	9,280
964,43	7,518
964,60	6,577
964,77	8,534
964,94	10,264
965,10	8,387
965,27	7,609
965,44	9,596
965,61	8,967
965,78	9,643
965,95	10,563
966,11	10,563
966,28	7,755
966,45	8,106
966,62	8,926
966,79	7,456
966,95	8,682
967,12	10,303
967,29	6,315
967,46	11,018
967,63	7,871
967,79	9,207
967,96	8,905
968,13	7,962
968,30	8,693
968,47	7,519
968,63	8,988
968,80	8,417
968,97	9,529
969,14	8,954
969,31	9,546
969,47	9,929
969,64	10,064
969,81	7,089
969,98	7,362
970,14	9,247
970,31	10,058
970,48	7,111
970,65	9,196
970,81	8,128
970,98	7,388
971,15	10,511
971,32	9,793
971,48	8,343
971,65	10,008
971,82	10,270
971,99	9,119
972,15	9,600
972,32	10,617
972,49	11,647
972,66	11,165
972,82	8,869
972,99	7,668
973,16	9,557
973,33	11,039
973,49	8,477
973,66	8,280
973,83	10,127
974,00	10,127
974,16	9,557
974,33	7,956
974,50	9,320
974,67	9,290
974,83	7,552
975,00	9,772
975,17	10,151
975,33	9,878
975,50	9,644
975,67	7,075
975,84	8,692
976,00	10,072
976,17	8,313
976,34	7,846
976,50	9,832
976,67	10,103
976,84	9,403
977,00	8,246
977,17	11,476
977,34	6,910
977,50	8,642
977,67	9,350
977,84	8,233
978,01	10,241
978,17	8,422
978,34	10,842
978,51	9,983
978,67	10,114
978,84	9,325
979,01	9,222
979,17	8,659
979,34	10,478
979,51	10,545
979,67	11,050
979,84	9,522
980,01	9,316
980,17	8,555
980,34	10,891
980,51	11,111
980,67	10,965
980,84	8,126
981,01	8,296
981,17	8,357
981,34	9,377
981,50	8,163
981,67	9,556
981,84	8,472
982,00	7,217
982,17	8,923
982,34	8,851
982,50	10,797
982,67	9,737
982,84	7,990
983,00	9,480
983,17	8,384
983,33	9,863
983,50	7,074
983,67	11,220
983,83	9,384
984,00	8,583
984,17	7,849
984,33	8,905
984,50	8,721
984,66	10,947
984,83	8,312
985,00	8,986
985,16	11,889
985,33	7,444
985,49	10,902
985,66	10,627
985,83	7,388
985,99	6,854
986,16	12,255
986,32	10,267
986,49	8,831
986,66	8,576
986,82	8,933
986,99	6,098
987,15	8,993
987,32	10,998
987,49	8,982
987,65	11,056
987,82	7,882
987,98	9,856
988,15	11,778
988,31	9,598
988,48	11,272
988,65	9,968
988,81	9,429
988,98	10,245
989,14	10,573
989,31	12,021
989,47	10,873
989,64	9,587
989,80	8,303
989,97	11,778
990,14	9,745
990,30	10,608
990,47	12,710
990,63	11,867
990,80	9,136
990,96	11,703
991,13	8,747
991,29	9,423
991,46	11,611
991,62	9,863
991,79	8,399
991,95	12,324
992,12	8,486
992,29	10,871
992,45	9,483
992,62	7,936
992,78	5,526
992,95	9,524
993,11	10,781
993,28	12,369
993,44	8,516
993,61	9,899
993,77	7,512
993,94	9,774
994,10	9,988
994,27	11,067
994,43	12,050
994,60	8,836
994,76	10,000
994,93	11,010
995,09	11,473
995,26	11,747
995,42	7,391
995,59	12,863
995,75	12,548
995,92	9,696
996,08	12,523
996,25	11,298
996,41	9,407
996,58	10,136
996,74	11,259
996,91	8,907
997,07	8,803
997,23	10,060
997,40	9,892
997,56	10,794
997,73	8,657
997,89	8,736
998,06	10,852
998,22	10,190
998,39	9,211
998,55	12,134
998,72	10,021
998,88	10,946
999,05	9,037
999,21	11,612
999,37	11,527
999,54	12,207
999,70	12,224
999,87	12,278
1000,03	10,541
1000,20	10,000
1000,36	9,430
1000,52	11,591
1000,69	11,610
1000,85	11,362
1001,02	8,998
1001,18	11,588
1001,35	11,362
1001,51	9,268
1001,67	9,266
1001,84	9,005
1002,00	7,801
1002,17	13,874
1002,33	9,418
1002,50	9,880
1002,66	10,711
1002,82	6,206
1002,99	8,117
1003,15	11,520
1003,32	10,627
1003,48	10,428
1003,64	10,605
1003,81	13,360
1003,97	12,266
1004,14	12,734
1004,30	8,033
1004,46	9,850
1004,63	11,810
1004,79	12,812
1004,95	5,897
1005,12	12,510
1005,28	15,129
1005,45	11,422
1005,61	10,773
1005,77	10,834
1005,94	13,443
1006,10	13,169
1006,26	7,542
1006,43	12,511
1006,59	7,831
1006,76	11,831
1006,92	10,342
1007,08	10,694
1007,25	12,392
1007,41	6,738
1007,57	10,979
1007,74	9,677
1007,90	10,174
1008,06	9,058
1008,23	10,035
1008,39	8,355
1008,55	10,513
1008,72	10,422
1008,88	4,227
1009,04	12,226
1009,21	5,957
1009,37	7,362
1009,53	13,410
1009,70	11,121
1009,86	9,771
1010,02	7,035
1010,19	3,596
1010,35	9,767
1010,51	9,857
1010,68	8,728
1010,84	9,123
1011,00	12,931
1011,17	9,437
1011,33	9,025
1011,49	10,256
1011,66	10,620
1011,82	8,813
1011,98	4,685
1012,14	7,347
1012,31	16,932
1012,47	9,141
1012,63	10,603
1012,80	11,582
1012,96	11,787
1013,12	5,963
1013,29	12,020
1013,45	14,956
1013,61	9,773
1013,77	8,594
1013,94	7,445
1014,10	10,532
1014,26	7,957
1014,43	9,751
1014,59	10,206
1014,75	8,739
1014,91	16,186
1015,08	11,782
1015,24	11,890
1015,40	13,340
1015,56	8,601
1015,73	9,192
1015,89	9,302
1016,05	4,597
1016,21	7,505
1016,38	4,943
1016,54	10,094
1016,70	11,575
1016,86	9,081
1017,03	5,761
1017,19	10,480
1017,35	9,438
1017,51	8,824
1017,68	4,287
1017,84	7,388
1018,00	12,101
1018,16	9,410
1018,33	11,746
1018,49	5,448
1018,65	8,425
1018,81	13,039
1018,97	13,182
1019,14	9,081
1019,30	8,918
1019,46	10,364
1019,62	4,768
1019,79	8,218
1019,95	10,736
1020,11	11,137
1020,27	9,091
1020,43	8,501
1020,60	5,093
1020,76	11,948
1020,92	9,948
1021,08	12,210
1021,24	14,129
1021,41	4,119
1021,57	11,331
1021,73	7,593
1021,89	7,528
1022,05	16,988
1022,21	11,728
1022,38	13,939
1022,54	11,358
1022,70	13,919
1022,86	11,765
1023,02	6,080
1023,19	8,488
1023,35	2,044
1023,51	14,216
1023,67	7,743
1023,83	17,119
1023,99	12,596
1024,16	9,902
1024,32	-2,981
1024,48	11,199
1024,64	12,784
1024,80	10,345
1024,96	5,007
1025,12	15,696
1025,29	6,082
1025,45	9,536
1025,61	10,066
1025,77	-1,014
1025,93	10,349
1026,09	13,269
1026,26	4,386
1026,42	9,836
1026,58	7,123
1026,74	6,780
1026,90	14,631
1027,06	7,289
1027,22	10,414
1027,38	9,829
1027,55	9,103
1027,71	10,043
1027,87	10,739
1028,03	12,680
1028,19	4,985
1028,35	13,906
1028,51	10,204
1028,67	13,102
1028,83	5,215
1029,00	11,206
1029,16	8,955
1029,32	8,806
1029,48	7,396
1029,64	12,312
1029,80	8,586
1029,96	3,883
1030,12	4,859
1030,28	7,227
1030,44	7,989
1030,61	10,443
1030,77	11,039
1030,93	12,821
1031,09	9,851
1031,25	6,387
1031,41	4,984
1031,57	12,763
1031,73	6,504
1031,89	10,099
1032,05	12,919
1032,21	3,333
1032,37	6,801
1032,53	10,064
1032,69	7,216
1032,86	3,640
1033,02	12,648
1033,18	3,938
1033,34	9,632
1033,50	16,694
1033,66	5,072
1033,82	10,940
1033,98	7,387
1034,14	4,378
1034,30	10,445
1034,46	3,936
1034,62	11,429
1034,78	11,512
1034,94	13,566
1035,10	8,118
1035,26	10,018
1035,42	-1,822
1035,58	14,098
1035,74	9,600
1035,90	2,718
1036,06	6,598
1036,22	13,036
1036,38	6,744
1036,54	6,362
1036,70	3,808
1036,86	9,195
1037,02	6,095
1037,18	9,057
1037,34	8,932
1037,50	1,446
1037,66	14,990
1037,82	7,219
1037,98	14,231
1038,14	4,478
1038,30	11,984
1038,46	4,398
1038,62	-1,891
1038,78	4,898
1038,94	18,393
1039,10	16,732
1039,26	-0,928
1039,42	24,449
1039,58	12,860
1039,74	-4,147
1039,90	11,089
1040,06	11,702
>>>>>End Processed Spectral Data<<<<<
