SpectraSuite Data File
++++++++++++++++++++++++++++++++++++
Date: Thu Feb 02 17:49:52 EET 2017
User: optolab
Dark Spectrum Present: Yes
Reference Spectrum Present: Yes
Number of Sampled Component Spectra: 1
Spectrometers: USB4C02475
Integration Time (usec): 100000 (USB4C02475)
Spectra Averaged: 1 (USB4C02475)
Boxcar Smoothing: 0 (USB4C02475)
Correct for Electrical Dark: No (USB4C02475)
Strobe/Lamp Enabled: No (USB4C02475)
Correct for Detector Non-linearity: No (USB4C02475)
Correct for Stray Light: No (USB4C02475)
Number of Pixels in Processed Spectrum: 3648
>>>>>Begin Processed Spectral Data<<<<<
344,91	-400,000
345,13	-400,000
345,35	-400,000
345,57	-194,118
345,79	-8,696
346,00	-158,824
346,22	-1457,143
346,44	-87,879
346,66	263,830
346,87	386,957
347,09	953,846
347,31	8600,000
347,53	-1875,000
347,74	-234,884
347,96	-1100,000
348,18	226,471
348,40	517,647
348,61	-225,641
348,83	8100,000
349,05	176,923
349,27	494,118
349,48	-3600,000
349,70	585,714
349,92	185,714
350,14	100,000
350,35	-507,692
350,57	-411,111
350,79	-82,051
351,01	-260,000
351,22	810,000
351,44	850,000
351,66	288,889
351,87	1716,667
352,09	107,895
352,31	248,214
352,53	314,286
352,74	-357,143
352,96	326,316
353,18	125,000
353,40	-900,000
353,61	666,667
353,83	191,667
354,05	309,375
354,26	360,714
354,48	-740,000
354,70	257,143
354,92	380,556
355,13	-220,930
355,35	138,889
355,57	243,750
355,78	242,857
356,00	172,340
356,22	268,182
356,44	241,860
356,65	692,857
356,87	313,889
357,09	314,286
357,30	150,000
357,52	-700,000
357,74	280,645
357,95	242,857
358,17	127,536
358,39	260,000
358,60	183,333
358,82	295,455
359,04	325,641
359,26	168,182
359,47	-284,615
359,69	400,000
359,91	444,000
360,12	360,000
360,34	116,667
360,56	-2800,000
360,77	788,889
360,99	350,000
361,21	326,087
361,42	-2150,000
361,64	-229,630
361,86	119,403
362,07	946,667
362,29	180,000
362,51	302,703
362,72	-1340,000
362,94	329,630
363,16	130,000
363,37	909,091
363,59	-7900,000
363,81	1250,000
364,02	84,000
364,24	222,727
364,46	433,333
364,67	171,429
364,89	523,529
365,11	321,622
365,32	322,222
365,54	431,250
365,76	190,909
365,97	143,902
366,19	161,404
366,41	810,000
366,62	113,000
366,84	525,000
367,05	82,353
367,27	1180,000
367,49	353,846
367,70	344,444
367,92	170,833
368,14	-169,231
368,35	169,118
368,57	169,697
368,79	296,154
369,00	124,359
369,22	411,111
369,43	457,895
369,65	-220,690
369,87	-394,118
370,08	460,000
370,30	521,429
370,51	245,455
370,73	166,667
370,95	415,000
371,16	133,333
371,38	247,170
371,60	213,333
371,81	111,957
372,03	-2100,000
372,24	-171,875
372,46	3533,333
372,68	235,294
372,89	118,349
373,11	146,512
373,32	117,647
373,54	590,909
373,76	405,556
373,97	245,455
374,19	-200,000
374,40	155,714
374,62	523,529
374,84	341,667
375,05	225,000
375,27	218,919
375,48	97,531
375,70	447,059
375,92	128,571
376,13	673,684
376,35	445,833
376,56	220,000
376,78	214,286
376,99	260,606
377,21	212,500
377,43	275,758
377,64	106,000
377,86	500,000
378,07	170,455
378,29	161,111
378,51	147,619
378,72	-400,000
378,94	117,391
379,15	204,545
379,37	400,000
379,58	60,000
379,80	45,455
380,01	152,000
380,23	256,522
380,45	275,000
380,66	91,667
380,88	289,189
381,09	582,609
381,31	271,795
381,52	321,739
381,74	150,000
381,95	317,857
382,17	300,000
382,39	112,903
382,60	741,176
382,82	317,241
383,03	2233,333
383,25	95,062
383,46	616,667
383,68	172,340
383,89	381,818
384,11	94,521
384,32	186,842
384,54	-1185,714
384,76	223,529
384,97	330,000
385,19	336,842
385,40	262,500
385,62	196,774
385,83	193,617
386,05	1185,714
386,26	423,077
386,48	561,538
386,69	252,778
386,91	530,000
387,12	248,718
387,34	118,644
387,55	314,286
387,77	344,000
387,98	134,694
388,20	145,070
388,41	138,095
388,63	182,857
388,84	290,000
389,06	237,209
389,27	153,125
389,49	112,048
389,70	210,169
389,92	145,455
390,13	184,615
390,35	69,792
390,56	178,125
390,78	272,727
390,99	166,667
391,21	72,727
391,42	91,304
391,64	210,000
391,85	181,034
392,07	-192,857
392,28	130,769
392,50	1000,000
392,71	8600,000
392,93	104,839
393,14	208,696
393,36	126,923
393,57	316,667
393,79	98,413
394,00	90,411
394,22	82,000
394,43	117,857
394,65	192,857
394,86	175,000
395,08	-962,500
395,29	78,723
395,50	-5300,000
395,72	728,571
395,93	392,000
396,15	-392,857
396,36	83,333
396,58	-485,714
396,79	193,023
397,01	264,286
397,22	121,739
397,44	212,766
397,65	128,378
397,87	117,143
398,08	211,538
398,29	100,000
398,51	168,293
398,72	126,087
398,94	106,977
399,15	125,000
399,37	136,957
399,58	161,905
399,80	306,667
400,01	270,588
400,22	321,429
400,44	304,762
400,65	156,164
400,87	6300,000
401,08	97,753
401,30	152,000
401,51	140,000
401,72	132,258
401,94	221,951
402,15	130,612
402,37	184,091
402,58	258,140
402,80	450,000
403,01	91,667
403,22	126,506
403,44	122,222
403,65	189,796
403,87	142,667
404,08	176,923
404,30	256,250
404,51	117,143
404,72	1018,182
404,94	127,711
405,15	204,478
405,37	167,033
405,58	177,419
405,79	871,429
406,01	108,148
406,22	132,143
406,44	207,018
406,65	117,857
406,86	134,000
407,08	125,926
407,29	162,667
407,51	93,269
407,72	125,743
407,93	188,608
408,15	79,545
408,36	217,143
408,58	121,667
408,79	79,845
409,00	85,106
409,22	103,922
409,43	74,775
409,64	62,179
409,86	110,227
410,07	65,217
410,29	50,667
410,50	64,286
410,71	54,032
410,93	67,327
411,14	72,897
411,35	45,139
411,57	45,833
411,78	25,735
412,00	22,667
412,21	46,460
412,42	32,195
412,64	33,333
412,85	31,606
413,06	36,607
413,28	47,843
413,49	24,651
413,70	45,923
413,92	22,857
414,13	22,134
414,34	39,405
414,56	37,872
414,77	19,926
414,98	7,067
415,20	29,749
415,41	31,169
415,63	25,356
415,84	27,701
416,05	12,048
416,27	11,421
416,48	22,275
416,69	17,151
416,91	16,533
417,12	8,145
417,33	11,287
417,55	21,800
417,76	18,182
417,97	19,476
418,19	11,297
418,40	-1,066
418,61	13,208
418,83	20,599
419,04	13,953
419,25	10,207
419,46	12,841
419,68	10,914
419,89	12,121
420,10	8,737
420,32	5,828
420,53	6,444
420,74	10,753
420,96	6,872
421,17	6,157
421,38	6,215
421,60	7,824
421,81	2,102
422,02	2,453
422,23	9,800
422,45	4,211
422,66	6,522
422,87	7,973
423,09	3,691
423,30	5,238
423,51	2,900
423,73	7,815
423,94	5,199
424,15	2,238
424,36	5,099
424,58	3,230
424,79	2,993
425,00	4,404
425,22	3,765
425,43	6,915
425,64	2,299
425,85	2,480
426,07	4,156
426,28	3,684
426,49	4,934
426,71	1,623
426,92	2,953
427,13	3,699
427,34	1,750
427,56	4,911
427,77	0,663
427,98	4,046
428,19	0,737
428,41	1,548
428,62	3,355
428,83	0,993
429,04	3,767
429,26	1,227
429,47	3,134
429,68	0,747
429,89	1,804
430,11	2,662
430,32	3,159
430,53	1,333
430,74	3,128
430,96	1,694
431,17	3,022
431,38	1,775
431,59	1,903
431,81	1,435
432,02	1,773
432,23	2,928
432,44	2,096
432,66	2,191
432,87	1,078
433,08	1,353
433,29	1,656
433,51	2,178
433,72	0,757
433,93	1,274
434,14	1,638
434,35	1,574
434,57	1,282
434,78	1,289
434,99	0,996
435,20	1,630
435,42	1,268
435,63	0,745
435,84	1,337
436,05	1,347
436,26	0,637
436,48	1,630
436,69	0,752
436,90	0,672
437,11	1,222
437,32	1,009
437,54	1,031
437,75	1,147
437,96	0,977
438,17	1,054
438,38	1,271
438,60	1,398
438,81	0,354
439,02	0,881
439,23	1,254
439,44	0,798
439,66	0,802
439,87	0,738
440,08	0,825
440,29	1,137
440,50	0,894
440,72	0,638
440,93	0,885
441,14	0,683
441,35	0,457
441,56	0,758
441,77	0,693
441,99	0,624
442,20	0,859
442,41	0,695
442,62	0,480
442,83	0,627
443,04	0,467
443,26	0,666
443,47	0,798
443,68	0,636
443,89	0,582
444,10	0,626
444,31	0,888
444,53	0,615
444,74	0,608
444,95	0,356
445,16	0,502
445,37	0,609
445,58	0,414
445,80	0,231
446,01	0,788
446,22	0,871
446,43	0,705
446,64	0,330
446,85	0,516
447,06	0,487
447,28	0,485
447,49	0,634
447,70	0,474
447,91	0,454
448,12	0,536
448,33	0,485
448,54	0,482
448,76	0,603
448,97	0,430
449,18	0,818
449,39	0,500
449,60	0,688
449,81	0,924
450,02	0,575
450,23	0,644
450,45	0,700
450,66	0,586
450,87	0,697
451,08	0,748
451,29	0,833
451,50	0,698
451,71	0,824
451,92	0,538
452,13	0,809
452,35	0,355
452,56	0,408
452,77	0,912
452,98	0,786
453,19	0,557
453,40	0,875
453,61	0,727
453,82	0,605
454,03	0,914
454,25	0,726
454,46	0,618
454,67	0,673
454,88	0,856
455,09	0,850
455,30	0,943
455,51	0,767
455,72	0,908
455,93	0,771
456,14	0,862
456,35	0,696
456,56	0,659
456,78	0,917
456,99	0,740
457,20	0,873
457,41	0,719
457,62	0,723
457,83	0,964
458,04	0,970
458,25	0,680
458,46	0,920
458,67	0,897
458,88	0,867
459,09	0,508
459,30	0,704
459,51	0,900
459,73	0,603
459,94	0,889
460,15	0,729
460,36	0,687
460,57	0,824
460,78	0,813
460,99	0,762
461,20	0,853
461,41	1,093
461,62	0,939
461,83	0,729
462,04	1,028
462,25	1,184
462,46	1,238
462,67	0,948
462,88	1,034
463,09	0,849
463,30	1,373
463,51	1,153
463,72	1,147
463,93	1,131
464,15	1,125
464,36	1,002
464,57	1,010
464,78	1,018
464,99	1,501
465,20	1,182
465,41	1,719
465,62	2,523
465,83	3,887
466,04	5,913
466,25	9,345
466,46	13,827
466,67	19,971
466,88	28,420
467,09	37,125
467,30	47,986
467,51	58,787
467,72	68,023
467,93	78,625
468,14	85,836
468,35	91,545
468,56	93,738
468,77	97,004
468,98	98,752
469,19	101,018
469,40	100,501
469,61	101,174
469,82	101,976
470,03	102,374
470,24	102,863
470,45	102,943
470,66	101,899
470,87	102,541
471,08	103,937
471,29	104,424
471,50	103,017
471,71	102,626
471,92	104,888
472,13	103,597
472,34	104,340
472,55	103,970
472,76	103,763
472,97	103,397
473,18	103,521
473,39	103,037
473,60	102,930
473,81	102,235
474,01	102,705
474,22	103,096
474,43	103,478
474,64	103,118
474,85	102,717
475,06	102,697
475,27	103,055
475,48	102,479
475,69	103,517
475,90	102,873
476,11	103,566
476,32	103,257
476,53	103,105
476,74	103,661
476,95	102,352
477,16	102,145
477,37	101,597
477,58	101,150
477,79	103,231
478,00	101,892
478,21	103,713
478,41	102,366
478,62	104,455
478,83	102,768
479,04	101,815
479,25	102,432
479,46	103,981
479,67	102,830
479,88	103,557
480,09	103,292
480,30	103,056
480,51	103,068
480,72	102,426
480,93	102,975
481,14	101,550
481,34	101,718
481,55	102,206
481,76	101,510
481,97	101,937
482,18	101,942
482,39	101,930
482,60	102,074
482,81	103,253
483,02	101,992
483,23	102,032
483,44	102,261
483,65	101,886
483,85	102,003
484,06	101,772
484,27	100,830
484,48	100,418
484,69	100,451
484,90	101,501
485,11	99,894
485,32	100,598
485,53	99,557
485,73	100,080
485,94	99,598
486,15	100,766
486,36	100,325
486,57	100,026
486,78	99,492
486,99	100,255
487,20	100,073
487,41	98,120
487,61	97,626
487,82	97,316
488,03	94,113
488,24	92,115
488,45	89,687
488,66	86,695
488,87	83,665
489,08	78,294
489,28	72,478
489,49	66,197
489,70	57,848
489,91	50,408
490,12	41,352
490,33	32,333
490,54	23,898
490,74	17,167
490,95	11,311
491,16	7,309
491,37	4,492
491,58	2,741
491,79	1,826
492,00	1,272
492,20	1,197
492,41	0,808
492,62	0,951
492,83	0,811
493,04	0,462
493,25	0,767
493,45	0,492
493,66	0,819
493,87	0,491
494,08	0,453
494,29	0,508
494,50	0,545
494,70	0,656
494,91	0,610
495,12	0,488
495,33	0,682
495,54	0,560
495,75	0,553
495,95	0,604
496,16	0,559
496,37	0,528
496,58	0,475
496,79	0,390
496,99	0,352
497,20	0,572
497,41	0,581
497,62	0,478
497,83	0,482
498,04	0,542
498,24	0,472
498,45	0,494
498,66	0,619
498,87	0,521
499,08	0,542
499,28	0,474
499,49	0,517
499,70	0,506
499,91	0,460
500,12	0,459
500,32	0,463
500,53	0,467
500,74	0,587
500,95	0,371
501,15	0,479
501,36	0,440
501,57	0,485
501,78	0,431
501,99	0,479
502,19	0,575
502,40	0,489
502,61	0,461
502,82	0,379
503,02	0,338
503,23	0,411
503,44	0,658
503,65	0,498
503,86	0,413
504,06	0,511
504,27	0,491
504,48	0,337
504,69	0,491
504,89	0,346
505,10	0,406
505,31	0,612
505,52	0,256
505,72	0,789
505,93	0,442
506,14	0,307
506,35	0,543
506,55	0,340
506,76	0,275
506,97	0,466
507,18	0,454
507,38	0,395
507,59	0,381
507,80	0,430
508,01	0,325
508,21	0,399
508,42	0,278
508,63	0,390
508,84	0,652
509,04	0,467
509,25	0,417
509,46	0,447
509,67	0,581
509,87	0,413
510,08	0,450
510,29	0,499
510,49	0,514
510,70	0,511
510,91	0,407
511,12	0,506
511,32	0,577
511,53	0,407
511,74	0,330
511,94	0,338
512,15	0,426
512,36	0,399
512,57	0,481
512,77	0,474
512,98	0,397
513,19	0,495
513,39	0,444
513,60	0,217
513,81	0,430
514,01	0,496
514,22	0,552
514,43	0,473
514,64	0,305
514,84	0,521
515,05	0,623
515,26	0,351
515,46	0,481
515,67	0,417
515,88	0,375
516,08	0,412
516,29	0,289
516,50	0,242
516,70	0,349
516,91	0,478
517,12	0,475
517,32	0,320
517,53	0,309
517,74	0,411
517,95	0,460
518,15	0,371
518,36	0,678
518,57	0,329
518,77	0,374
518,98	0,548
519,19	0,412
519,39	0,548
519,60	0,310
519,80	0,263
520,01	0,467
520,22	0,508
520,42	0,247
520,63	0,481
520,84	0,372
521,04	0,431
521,25	0,388
521,46	0,364
521,66	0,263
521,87	0,277
522,08	0,544
522,28	0,340
522,49	0,470
522,70	0,470
522,90	0,481
523,11	0,241
523,31	0,377
523,52	0,346
523,73	0,318
523,93	0,421
524,14	0,385
524,35	0,446
524,55	0,436
524,76	0,498
524,97	0,386
525,17	0,333
525,38	0,201
525,58	0,300
525,79	0,360
526,00	0,357
526,20	0,390
526,41	0,350
526,61	0,486
526,82	0,280
527,03	0,389
527,23	0,272
527,44	0,450
527,64	0,422
527,85	0,379
528,06	0,523
528,26	0,324
528,47	0,478
528,68	0,625
528,88	0,276
529,09	0,359
529,29	0,477
529,50	0,416
529,70	0,534
529,91	0,372
530,12	0,456
530,32	0,496
530,53	0,571
530,73	0,438
530,94	0,636
531,15	0,503
531,35	0,541
531,56	0,614
531,76	0,392
531,97	0,501
532,17	0,442
532,38	0,424
532,59	0,559
532,79	0,709
533,00	0,365
533,20	0,420
533,41	0,406
533,61	0,404
533,82	0,229
534,03	0,450
534,23	0,488
534,44	0,495
534,64	0,601
534,85	0,433
535,05	0,339
535,26	0,377
535,46	0,401
535,67	0,293
535,88	0,516
536,08	0,526
536,29	0,457
536,49	0,396
536,70	0,579
536,90	0,581
537,11	0,435
537,31	0,657
537,52	0,575
537,72	0,601
537,93	0,495
538,13	0,451
538,34	0,579
538,55	0,402
538,75	0,308
538,96	0,297
539,16	0,400
539,37	0,532
539,57	0,455
539,78	0,508
539,98	0,493
540,19	0,764
540,39	0,405
540,60	0,554
540,80	0,443
541,01	0,769
541,21	0,565
541,42	0,550
541,62	0,650
541,83	0,339
542,03	0,560
542,24	0,730
542,44	0,460
542,65	0,565
542,85	0,717
543,06	0,558
543,26	0,613
543,47	0,576
543,67	0,474
543,88	0,557
544,08	0,530
544,29	0,302
544,49	0,457
544,70	0,294
544,90	0,634
545,11	0,554
545,31	0,577
545,52	0,662
545,72	0,572
545,93	0,631
546,13	0,636
546,34	0,565
546,54	0,555
546,75	0,555
546,95	0,884
547,15	0,674
547,36	0,654
547,56	0,679
547,77	0,808
547,97	0,482
548,18	0,609
548,38	0,833
548,59	0,842
548,79	1,080
549,00	1,143
549,20	1,229
549,41	1,621
549,61	2,073
549,81	2,826
550,02	3,735
550,22	4,968
550,43	6,865
550,63	8,850
550,84	12,267
551,04	15,820
551,25	20,125
551,45	25,501
551,65	31,158
551,86	37,605
552,06	42,732
552,27	49,220
552,47	55,997
552,68	63,809
552,88	70,609
553,08	78,112
553,29	83,471
553,49	87,988
553,70	92,056
553,90	95,362
554,11	97,204
554,31	97,639
554,51	98,394
554,72	98,483
554,92	98,495
555,13	99,223
555,33	98,287
555,53	99,478
555,74	99,782
555,94	99,985
556,15	99,981
556,35	99,196
556,56	99,582
556,76	99,532
556,96	99,939
557,17	99,322
557,37	99,900
557,58	99,935
557,78	99,644
557,98	100,513
558,19	100,443
558,39	100,247
558,59	100,116
558,80	99,881
559,00	99,762
559,21	99,961
559,41	99,571
559,61	99,177
559,82	100,015
560,02	99,286
560,23	99,858
560,43	99,587
560,63	99,449
560,84	100,103
561,04	100,508
561,24	100,099
561,45	99,247
561,65	99,378
561,85	100,939
562,06	99,246
562,26	99,343
562,47	101,091
562,67	99,187
562,87	99,262
563,08	98,247
563,28	97,818
563,48	96,695
563,69	95,485
563,89	93,928
564,09	90,823
564,30	87,544
564,50	82,767
564,70	78,523
564,91	72,669
565,11	67,037
565,31	58,961
565,52	52,031
565,72	45,529
565,92	39,040
566,13	32,429
566,33	25,894
566,53	20,458
566,74	15,040
566,94	11,061
567,14	7,719
567,35	5,332
567,55	3,707
567,75	2,571
567,96	1,965
568,16	1,436
568,36	0,922
568,57	0,999
568,77	0,646
568,97	0,747
569,18	0,726
569,38	0,531
569,58	0,767
569,79	0,452
569,99	0,544
570,19	0,284
570,39	0,438
570,60	0,451
570,80	0,351
571,00	0,528
571,21	0,332
571,41	0,588
571,61	0,611
571,82	0,572
572,02	0,451
572,22	0,333
572,42	0,477
572,63	0,368
572,83	0,557
573,03	0,340
573,24	0,401
573,44	0,465
573,64	0,530
573,84	0,228
574,05	0,343
574,25	0,460
574,45	0,501
574,66	0,586
574,86	0,463
575,06	0,486
575,26	0,408
575,47	0,639
575,67	0,496
575,87	0,403
576,07	0,280
576,28	0,428
576,48	0,211
576,68	0,561
576,88	0,400
577,09	0,331
577,29	0,577
577,49	0,372
577,69	0,265
577,90	0,430
578,10	0,269
578,30	0,522
578,50	0,351
578,71	0,439
578,91	0,225
579,11	0,342
579,31	0,568
579,52	0,364
579,72	0,376
579,92	0,387
580,12	0,331
580,33	0,303
580,53	0,383
580,73	0,431
580,93	0,266
581,13	0,486
581,34	0,282
581,54	0,450
581,74	0,562
581,94	0,559
582,15	0,480
582,35	0,345
582,55	0,498
582,75	0,475
582,95	0,449
583,16	0,419
583,36	0,455
583,56	0,395
583,76	0,247
583,96	0,279
584,17	0,366
584,37	0,389
584,57	0,230
584,77	0,354
584,97	0,264
585,18	0,262
585,38	0,240
585,58	0,331
585,78	0,459
585,98	0,526
586,19	0,449
586,39	0,491
586,59	0,269
586,79	0,330
586,99	0,143
587,20	0,442
587,40	0,440
587,60	0,272
587,80	0,343
588,00	0,315
588,20	0,452
588,41	0,362
588,61	0,479
588,81	0,368
589,01	0,277
589,21	0,454
589,41	0,312
589,62	0,376
589,82	0,351
590,02	0,318
590,22	0,417
590,42	0,420
590,62	0,326
590,83	0,245
591,03	0,200
591,23	0,243
591,43	0,463
591,63	0,336
591,83	0,547
592,03	0,471
592,24	0,391
592,44	0,339
592,64	0,256
592,84	0,364
593,04	0,260
593,24	0,374
593,44	0,424
593,65	0,361
593,85	0,299
594,05	0,432
594,25	0,360
594,45	0,249
594,65	0,198
594,85	0,068
595,06	0,367
595,26	0,570
595,46	0,301
595,66	0,421
595,86	0,377
596,06	0,350
596,26	0,337
596,46	0,388
596,66	0,232
596,87	0,466
597,07	0,470
597,27	0,279
597,47	0,394
597,67	0,503
597,87	0,253
598,07	0,274
598,27	0,312
598,47	0,452
598,67	0,227
598,88	0,344
599,08	0,377
599,28	0,483
599,48	0,352
599,68	0,447
599,88	0,323
600,08	0,396
600,28	0,443
600,48	0,526
600,68	0,265
600,88	0,452
601,09	0,476
601,29	0,557
601,49	0,354
601,69	0,320
601,89	0,331
602,09	0,370
602,29	0,414
602,49	0,201
602,69	0,483
602,89	0,270
603,09	0,325
603,29	0,429
603,49	0,445
603,69	0,457
603,90	0,326
604,10	0,429
604,30	0,417
604,50	0,528
604,70	0,396
604,90	0,270
605,10	0,316
605,30	0,402
605,50	0,249
605,70	0,514
605,90	0,242
606,10	0,445
606,30	0,467
606,50	0,541
606,70	0,513
606,90	0,244
607,10	0,467
607,30	0,504
607,50	0,309
607,70	0,455
607,90	0,506
608,10	0,555
608,30	0,370
608,50	0,517
608,70	0,541
608,90	0,384
609,11	0,393
609,31	0,392
609,51	0,358
609,71	0,418
609,91	0,323
610,11	0,638
610,31	0,464
610,51	0,668
610,71	0,485
610,91	0,325
611,11	0,509
611,31	0,442
611,51	0,352
611,71	0,230
611,91	0,623
612,11	0,259
612,31	0,696
612,51	0,483
612,71	0,311
612,91	0,404
613,11	0,394
613,31	0,542
613,51	0,374
613,71	0,457
613,91	0,524
614,11	0,467
614,31	0,351
614,50	0,662
614,70	0,512
614,90	0,582
615,10	0,492
615,30	0,465
615,50	0,195
615,70	0,619
615,90	0,476
616,10	0,575
616,30	0,687
616,50	0,498
616,70	0,355
616,90	0,340
617,10	0,573
617,30	0,505
617,50	0,586
617,70	0,439
617,90	0,512
618,10	0,538
618,30	0,547
618,50	0,622
618,70	0,508
618,90	0,394
619,10	0,402
619,30	0,328
619,49	0,593
619,69	0,621
619,89	0,692
620,09	0,596
620,29	0,743
620,49	0,916
620,69	0,880
620,89	0,802
621,09	0,737
621,29	0,831
621,49	0,865
621,69	0,867
621,89	1,468
622,09	1,644
622,29	2,120
622,48	2,971
622,68	3,873
622,88	5,577
623,08	7,409
623,28	10,339
623,48	13,978
623,68	19,103
623,88	24,985
624,08	32,330
624,28	39,787
624,48	47,929
624,67	56,875
624,87	63,731
625,07	70,338
625,27	76,449
625,47	82,213
625,67	85,936
625,87	88,242
626,07	90,099
626,27	91,151
626,47	92,603
626,66	92,492
626,86	94,732
627,06	93,714
627,26	95,555
627,46	96,344
627,66	97,721
627,86	97,804
628,06	97,969
628,25	97,929
628,45	98,140
628,65	98,045
628,85	98,177
629,05	98,513
629,25	97,592
629,45	97,937
629,65	96,924
629,84	96,600
630,04	96,527
630,24	97,282
630,44	96,720
630,64	97,476
630,84	97,501
631,04	97,143
631,23	97,861
631,43	99,015
631,63	100,329
631,83	99,687
632,03	100,636
632,23	101,314
632,42	101,466
632,62	103,117
632,82	102,453
633,02	102,536
633,22	102,462
633,42	102,504
633,62	102,173
633,81	102,255
634,01	102,818
634,21	102,513
634,41	102,430
634,61	102,032
634,80	102,083
635,00	102,057
635,20	103,368
635,40	102,074
635,60	102,813
635,80	102,779
635,99	101,901
636,19	101,693
636,39	101,073
636,59	100,370
636,79	100,690
636,98	100,460
637,18	101,014
637,38	99,421
637,58	99,419
637,78	99,552
637,97	98,646
638,17	99,668
638,37	99,241
638,57	99,950
638,77	100,170
638,96	99,777
639,16	100,410
639,36	100,298
639,56	100,751
639,76	102,745
639,95	102,133
640,15	101,712
640,35	101,990
640,55	100,701
640,75	100,829
640,94	100,176
641,14	98,662
641,34	98,555
641,54	98,972
641,73	96,579
641,93	97,322
642,13	96,188
642,33	95,793
642,53	92,634
642,72	91,187
642,92	88,136
643,12	86,998
643,32	82,415
643,51	78,395
643,71	72,278
643,91	66,303
644,11	60,116
644,30	52,897
644,50	46,331
644,70	37,771
644,90	31,378
645,09	25,262
645,29	19,909
645,49	15,079
645,69	12,129
645,88	9,105
646,08	6,781
646,28	5,257
646,48	3,656
646,67	2,862
646,87	2,185
647,07	2,141
647,26	1,834
647,46	1,542
647,66	1,396
647,86	1,308
648,05	1,335
648,25	1,274
648,45	0,805
648,65	0,902
648,84	0,736
649,04	1,063
649,24	1,187
649,43	1,000
649,63	0,855
649,83	0,799
650,03	1,092
650,22	0,973
650,42	1,095
650,62	0,942
650,81	0,902
651,01	0,942
651,21	0,826
651,40	0,823
651,60	0,657
651,80	0,955
652,00	1,040
652,19	0,893
652,39	0,708
652,59	0,955
652,78	0,805
652,98	0,323
653,18	0,920
653,37	0,944
653,57	0,892
653,77	0,962
653,96	0,992
654,16	0,572
654,36	0,967
654,55	0,800
654,75	0,863
654,95	1,030
655,14	0,811
655,34	1,239
655,54	1,213
655,73	0,486
655,93	0,715
656,13	0,313
656,32	0,343
656,52	1,086
656,72	0,834
656,91	1,059
657,11	0,888
657,31	0,574
657,50	1,199
657,70	0,764
657,90	1,190
658,09	0,781
658,29	0,830
658,49	0,707
658,68	0,756
658,88	0,776
659,07	0,802
659,27	0,724
659,47	0,723
659,66	0,857
659,86	0,637
660,06	0,441
660,25	0,469
660,45	0,955
660,64	0,641
660,84	0,671
661,04	0,700
661,23	0,756
661,43	0,782
661,63	0,731
661,82	0,572
662,02	0,921
662,21	0,628
662,41	1,303
662,61	1,213
662,80	0,351
663,00	0,477
663,19	0,943
663,39	0,501
663,59	0,835
663,78	0,988
663,98	1,026
664,17	0,699
664,37	0,715
664,57	0,943
664,76	0,900
664,96	0,434
665,15	0,834
665,35	0,830
665,55	0,461
665,74	0,902
665,94	0,641
666,13	0,565
666,33	0,785
666,53	1,044
666,72	0,809
666,92	0,552
667,11	0,799
667,31	0,248
667,50	0,480
667,70	1,002
667,90	0,711
668,09	0,713
668,29	0,548
668,48	0,414
668,68	0,431
668,87	0,798
669,07	0,192
669,26	0,297
669,46	0,729
669,66	0,633
669,85	0,955
670,05	0,702
670,24	0,352
670,44	0,598
670,63	0,569
670,83	0,889
671,02	0,579
671,22	0,790
671,42	0,363
671,61	0,636
671,81	0,262
672,00	0,946
672,20	0,349
672,39	0,750
672,59	0,593
672,78	0,362
672,98	0,429
673,17	0,230
673,37	0,487
673,56	0,494
673,76	0,255
673,95	0,408
674,15	0,881
674,34	0,414
674,54	0,756
674,73	0,846
674,93	0,695
675,13	0,446
675,32	0,701
675,52	0,602
675,71	0,823
675,91	0,633
676,10	0,508
676,30	0,323
676,49	0,373
676,69	0,515
676,88	0,619
677,08	0,386
677,27	0,450
677,47	0,260
677,66	0,769
677,86	0,954
678,05	0,575
678,24	0,508
678,44	0,802
678,63	0,647
678,83	0,192
679,02	0,363
679,22	0,599
679,41	0,649
679,61	0,267
679,80	0,450
680,00	0,367
680,19	0,538
680,39	0,528
680,58	0,407
680,78	0,161
680,97	0,330
681,17	0,459
681,36	0,187
681,56	0,500
681,75	0,363
681,94	0,314
682,14	0,684
682,33	0,726
682,53	0,439
682,72	0,532
682,92	0,747
683,11	0,247
683,31	0,645
683,50	0,303
683,69	0,370
683,89	0,139
684,08	0,522
684,28	0,092
684,47	0,296
684,67	0,347
684,86	0,331
685,06	0,424
685,25	0,385
685,44	0,401
685,64	0,379
685,83	0,404
686,03	0,216
686,22	0,488
686,42	0,425
686,61	0,305
686,80	0,214
687,00	0,212
687,19	0,231
687,39	0,191
687,58	0,252
687,77	0,487
687,97	0,543
688,16	0,391
688,36	0,304
688,55	0,121
688,74	0,128
688,94	0,312
689,13	0,370
689,33	0,208
689,52	0,433
689,71	0,352
689,91	0,311
690,10	0,293
690,30	0,096
690,49	0,255
690,68	0,476
690,88	0,262
691,07	0,190
691,27	0,314
691,46	0,189
691,65	0,241
691,85	0,224
692,04	0,269
692,23	0,321
692,43	0,380
692,62	0,599
692,82	0,325
693,01	0,215
693,20	0,218
693,40	0,272
693,59	0,264
693,78	0,452
693,98	0,139
694,17	0,374
694,36	0,411
694,56	0,181
694,75	0,392
694,94	0,367
695,14	0,310
695,33	0,365
695,53	0,397
695,72	0,498
695,91	0,116
696,11	0,348
696,30	0,471
696,49	0,338
696,69	0,437
696,88	0,157
697,07	0,463
697,27	0,250
697,46	0,489
697,65	0,221
697,85	0,135
698,04	0,478
698,23	0,462
698,43	0,406
698,62	0,193
698,81	0,322
699,01	0,725
699,20	0,358
699,39	0,433
699,58	0,473
699,78	0,322
699,97	0,401
700,16	0,218
700,36	0,610
700,55	0,630
700,74	0,919
700,94	0,216
701,13	0,853
701,32	0,321
701,52	0,688
701,71	0,522
701,90	0,641
702,09	0,997
702,29	0,919
702,48	0,865
702,67	1,213
702,87	0,862
703,06	0,613
703,25	1,285
703,44	0,725
703,64	0,636
703,83	1,505
704,02	1,441
704,22	1,151
704,41	0,511
704,60	1,713
704,79	0,577
704,99	1,324
705,18	1,406
705,37	1,121
705,56	1,104
705,76	1,626
705,95	1,926
706,14	1,800
706,33	1,045
706,53	0,872
706,72	1,235
706,91	1,682
707,11	1,612
707,30	1,617
707,49	1,163
707,68	1,637
707,88	1,116
708,07	1,365
708,26	1,417
708,45	1,505
708,64	1,792
708,84	1,617
709,03	2,730
709,22	0,724
709,41	2,796
709,61	2,233
709,80	1,365
709,99	1,893
710,18	2,344
710,38	0,220
710,57	0,922
710,76	0,754
710,95	2,874
711,14	2,615
711,34	3,097
711,53	3,990
711,72	2,534
711,91	3,026
712,11	2,491
712,30	1,347
712,49	1,531
712,68	0,910
712,87	3,469
713,07	4,055
713,26	4,456
713,45	1,748
713,64	2,881
713,83	2,946
714,03	0,985
714,22	3,846
714,41	3,818
714,60	2,610
714,79	1,440
714,99	0,332
715,18	4,100
715,37	4,491
715,56	4,094
715,75	4,052
715,94	4,528
716,14	5,558
716,33	2,549
716,52	4,769
716,71	5,101
716,90	5,383
717,10	0,780
717,29	3,883
717,48	3,615
717,67	4,681
717,86	4,498
718,05	3,396
718,24	4,697
718,44	2,181
718,63	2,737
718,82	3,748
719,01	3,923
719,20	4,508
719,39	5,359
719,59	2,604
719,78	4,476
719,97	6,024
720,16	6,922
720,35	2,409
720,54	3,494
720,73	5,666
720,93	2,675
721,12	2,658
721,31	1,458
721,50	6,545
721,69	4,981
721,88	8,449
722,07	2,551
722,27	5,699
722,46	6,972
722,65	4,845
722,84	4,435
723,03	5,551
723,22	6,205
723,41	3,488
723,60	3,679
723,79	9,818
723,99	4,023
724,18	6,340
724,37	2,089
724,56	5,111
724,75	2,783
724,94	8,277
725,13	6,352
725,32	8,371
725,51	5,860
725,71	5,590
725,90	11,153
726,09	7,489
726,28	7,054
726,47	4,043
726,66	7,401
726,85	6,161
727,04	5,199
727,23	6,017
727,42	9,784
727,61	6,790
727,81	0,865
728,00	5,717
728,19	7,584
728,38	4,258
728,57	9,583
728,76	8,476
728,95	11,250
729,14	9,307
729,33	6,667
729,52	5,287
729,71	4,230
729,90	4,615
730,09	7,026
730,28	13,951
730,48	11,738
730,67	8,371
730,86	7,920
731,05	4,901
731,24	3,902
731,43	10,453
731,62	10,767
731,81	3,746
732,00	13,054
732,19	4,327
732,38	7,564
732,57	6,235
732,76	8,755
732,95	5,405
733,14	0,000
733,33	4,233
733,52	7,303
733,71	6,600
733,90	5,085
734,09	14,324
734,28	7,874
734,47	4,444
734,66	6,684
734,85	3,143
735,04	8,131
735,23	9,244
735,42	8,607
735,61	10,933
735,81	6,953
736,00	2,991
736,19	6,231
736,38	10,928
736,57	15,775
736,76	15,036
736,95	10,669
737,14	12,440
737,33	15,134
737,52	9,231
737,71	11,967
737,90	13,292
738,09	15,068
738,28	13,901
738,47	10,401
738,66	7,372
738,85	11,111
739,04	4,974
739,22	6,020
739,41	8,456
739,60	9,044
739,79	4,496
739,98	7,527
740,17	14,676
740,36	14,467
740,55	16,083
740,74	13,722
740,93	10,899
741,12	9,286
741,31	13,556
741,50	12,098
741,69	13,097
741,88	10,277
742,07	16,304
742,26	4,381
742,45	15,574
742,64	17,550
742,83	10,973
743,02	7,368
743,21	16,968
743,40	6,211
743,59	18,382
743,78	8,219
743,97	16,538
744,16	11,614
744,34	5,361
744,53	11,959
744,72	15,658
744,91	14,076
745,10	22,013
745,29	18,145
745,48	15,682
745,67	10,023
745,86	15,894
746,05	14,692
746,24	9,072
746,43	5,353
746,62	22,198
746,81	20,225
747,00	16,630
747,18	8,061
747,37	18,947
747,56	18,118
747,75	7,882
747,94	21,359
748,13	17,673
748,32	18,810
748,51	16,497
748,70	19,824
748,89	7,026
749,08	-1,163
749,26	18,062
749,45	15,013
749,64	14,610
749,83	20,225
750,02	21,739
750,21	9,415
750,40	20,243
750,59	15,013
750,78	14,713
750,96	7,735
751,15	21,729
751,34	15,909
751,53	3,825
751,72	11,831
751,91	20,466
752,10	11,518
752,29	10,933
752,47	10,602
752,66	25,397
752,85	20,492
753,04	17,877
753,23	12,074
753,42	11,860
753,61	15,987
753,80	16,838
753,98	26,515
754,17	15,805
754,36	12,903
754,55	12,952
754,74	24,026
754,93	27,824
755,12	27,893
755,30	28,247
755,49	21,802
755,68	25,460
755,87	7,101
756,06	14,931
756,25	23,708
756,43	12,752
756,62	17,081
756,81	12,252
757,00	23,026
757,19	19,097
757,38	13,127
757,56	18,800
757,75	21,502
757,94	3,802
758,13	15,068
758,32	14,540
758,51	17,508
758,69	25,097
758,88	18,182
759,07	24,850
759,26	9,187
759,45	17,193
759,63	19,048
759,82	48,772
760,01	22,344
760,20	31,132
760,39	22,713
760,57	19,164
760,76	27,875
760,95	22,917
761,14	31,387
761,33	25,484
761,51	25,357
761,70	30,855
761,89	12,444
762,08	40,149
762,27	22,022
762,45	17,029
762,64	24,623
762,83	47,809
763,02	37,391
763,21	16,500
763,39	29,021
763,58	24,164
763,77	22,785
763,96	26,693
764,14	18,333
764,33	20,000
764,52	34,821
764,71	23,934
764,89	51,786
765,08	11,823
765,27	15,319
765,46	21,973
765,65	31,373
765,83	47,511
766,02	8,571
766,21	24,590
766,40	22,179
766,58	16,402
766,77	40,826
766,96	25,610
767,15	39,076
767,33	29,952
767,52	29,258
767,71	23,246
767,90	28,141
768,08	36,527
768,27	38,211
768,46	42,105
768,64	26,389
768,83	33,824
769,02	11,823
769,21	22,396
769,39	58,571
769,58	29,437
769,77	32,979
769,96	40,991
770,14	62,842
770,33	26,636
770,52	15,108
770,70	42,703
770,89	71,351
771,08	21,687
771,27	24,737
771,45	47,059
771,64	37,576
771,83	39,216
772,01	50,515
772,20	31,841
772,39	30,380
772,57	57,214
772,76	64,865
772,95	25,287
773,14	68,027
773,32	21,469
773,51	32,143
773,70	53,957
773,88	56,774
774,07	52,792
774,26	-4,032
774,44	44,361
774,63	56,287
774,82	35,065
775,00	35,514
775,19	31,548
775,38	54,787
775,56	42,236
775,75	35,165
775,94	19,167
776,12	24,837
776,31	39,850
776,50	26,027
776,68	24,731
776,87	61,722
777,06	47,799
777,24	52,941
777,43	57,219
777,62	52,247
777,80	44,654
777,99	73,333
778,18	52,874
778,36	70,339
778,55	14,407
778,74	42,188
778,92	46,296
779,11	80,909
779,29	-2,837
779,48	43,262
779,67	90,991
779,85	44,737
780,04	29,710
780,23	46,429
780,41	87,288
780,60	28,188
780,79	44,355
780,97	36,601
781,16	33,511
781,34	78,378
781,53	43,750
781,72	60,360
781,90	42,515
782,09	43,023
782,28	33,333
782,46	69,286
782,65	73,944
782,83	48,428
783,02	84,211
783,21	39,850
783,39	55,462
783,58	41,739
783,76	59,184
783,95	95,775
784,14	39,474
784,32	18,824
784,51	74,324
784,69	60,937
784,88	66,355
785,06	62,914
785,25	14,894
785,44	77,419
785,62	39,286
785,81	44,444
785,99	56,391
786,18	81,982
786,37	48,352
786,55	39,583
786,74	70,909
786,92	50,350
787,11	41,667
787,29	56,250
787,48	60,215
787,67	39,623
787,85	83,544
788,04	74,775
788,22	60,396
788,41	72,441
788,59	53,289
788,78	82,418
788,96	49,587
789,15	57,500
789,34	77,885
789,52	45,161
789,71	93,525
789,89	89,610
790,08	86,250
790,26	55,414
790,45	86,111
790,63	48,276
790,82	52,308
791,00	48,673
791,19	40,000
791,38	43,810
791,56	46,364
791,75	0,000
791,93	75,000
792,12	61,739
792,30	68,613
792,49	48,485
792,67	27,206
792,86	61,600
793,04	28,704
793,23	84,211
793,41	51,449
793,60	95,139
793,78	84,762
793,97	60,417
794,15	74,436
794,34	96,000
794,52	8,602
794,71	53,488
794,89	80,303
795,08	66,400
795,26	90,667
795,45	48,611
795,63	57,258
795,82	104,396
796,00	94,000
796,19	43,902
796,37	54,962
796,56	28,155
796,74	70,526
796,93	77,273
797,11	83,133
797,30	65,000
797,48	51,563
797,67	62,602
797,85	96,923
798,04	44,068
798,22	88,462
798,41	69,231
798,59	84,762
798,77	66,265
798,96	45,679
799,14	54,032
799,33	69,725
799,51	22,222
799,70	82,308
799,88	97,248
800,07	83,969
800,25	49,398
800,44	94,444
800,62	112,500
800,80	87,324
800,99	121,918
801,17	92,241
801,36	77,857
801,54	76,000
801,73	69,474
801,91	76,033
802,10	83,529
802,28	52,000
802,46	78,947
802,65	58,993
802,83	126,667
803,02	79,839
803,20	168,675
803,39	122,989
803,57	70,079
803,75	52,033
803,94	61,905
804,12	66,897
804,31	28,986
804,49	52,000
804,67	64,706
804,86	69,027
805,04	7,229
805,23	26,549
805,41	53,333
805,59	97,945
805,78	64,800
805,96	68,675
806,15	90,099
806,33	88,158
806,51	44,000
806,70	75,940
806,88	102,326
807,07	90,090
807,25	42,857
807,43	89,286
807,62	76,991
807,80	73,333
807,99	60,769
808,17	29,134
808,35	54,000
808,54	23,913
808,72	81,081
808,90	52,740
809,09	88,043
809,27	81,333
809,46	124,176
809,64	115,854
809,82	47,020
810,01	46,875
810,19	103,030
810,37	58,594
810,56	132,222
810,74	72,727
810,92	44,000
811,11	42,982
811,29	81,132
811,48	60,000
811,66	74,157
811,84	41,758
812,03	63,115
812,21	71,053
812,39	60,000
812,58	53,684
812,76	61,151
812,94	44,578
813,13	46,809
813,31	84,000
813,49	44,444
813,68	48,182
813,86	43,820
814,04	43,802
814,23	68,072
814,41	59,551
814,59	79,612
814,78	44,118
814,96	64,780
815,14	61,682
815,33	34,109
815,51	96,063
815,69	60,000
815,87	46,535
816,06	54,783
816,24	80,745
816,42	64,706
816,61	61,006
816,79	50,000
816,97	72,727
817,16	53,846
817,34	65,873
817,52	47,107
817,70	95,050
817,89	71,111
818,07	64,384
818,25	46,939
818,44	84,615
818,62	40,310
818,80	45,865
818,98	35,032
819,17	69,748
819,35	50,000
819,53	96,269
819,72	54,430
819,90	65,891
820,08	29,915
820,26	68,103
820,45	38,255
820,63	68,750
820,81	84,800
820,99	57,447
821,18	34,014
821,36	65,823
821,54	51,724
821,73	49,444
821,91	77,193
822,09	50,806
822,27	47,097
822,46	44,853
822,64	44,800
822,82	34,807
823,00	31,492
823,19	38,462
823,37	61,212
823,55	23,295
823,73	51,034
823,91	64,493
824,10	39,247
824,28	61,307
824,46	33,981
824,64	51,974
824,83	38,509
825,01	61,333
825,19	39,516
825,37	46,957
825,56	59,434
825,74	39,796
825,92	33,121
826,10	59,659
826,28	44,643
826,47	46,842
826,65	44,681
826,83	42,241
827,01	35,838
827,19	39,286
827,38	32,099
827,56	48,864
827,74	24,581
827,92	31,977
828,10	35,897
828,29	40,237
828,47	34,959
828,65	44,615
828,83	30,909
829,01	34,239
829,20	47,253
829,38	38,636
829,56	32,065
829,74	29,560
829,92	26,984
830,10	43,678
830,29	36,181
830,47	36,181
830,65	21,341
830,83	38,839
831,01	52,976
831,20	41,262
831,38	30,622
831,56	40,930
831,74	36,967
831,92	64,474
832,10	44,762
832,29	57,432
832,47	21,348
832,65	42,157
832,83	43,192
833,01	41,500
833,19	24,434
833,37	25,792
833,56	39,241
833,74	54,412
833,92	28,704
834,10	17,427
834,28	49,367
834,46	42,986
834,64	41,204
834,83	15,000
835,01	50,622
835,19	32,400
835,37	23,967
835,55	22,396
835,73	45,320
835,91	51,292
836,09	15,589
836,28	41,697
836,46	30,400
836,64	37,970
836,82	28,054
837,00	38,768
837,18	17,844
837,36	50,996
837,54	30,455
837,72	28,017
837,91	34,328
838,09	5,578
838,27	39,667
838,45	24,823
838,63	22,059
838,81	32,068
838,99	22,984
839,17	25,676
839,35	32,624
839,53	21,754
839,72	13,910
839,90	28,522
840,08	24,000
840,26	33,730
840,44	26,284
840,62	24,483
840,80	41,156
840,98	12,157
841,16	30,418
841,34	23,746
841,52	28,440
841,70	23,077
841,89	34,677
842,07	27,273
842,25	41,379
842,43	14,655
842,61	35,789
842,79	32,203
842,97	14,984
843,15	24,422
843,33	18,927
843,51	12,651
843,69	35,328
843,87	29,851
844,05	14,286
844,23	39,940
844,41	6,897
844,59	10,663
844,77	16,527
844,95	21,676
845,13	37,538
845,31	12,209
845,50	25,916
845,68	20,257
845,86	27,299
846,04	28,771
846,22	17,166
846,40	18,548
846,58	21,652
846,76	25,269
846,94	23,192
847,12	19,689
847,30	17,268
847,48	22,291
847,66	26,355
847,84	12,022
848,02	22,705
848,20	18,088
848,38	11,111
848,56	17,330
848,74	34,845
848,92	12,219
849,10	12,500
849,28	17,004
849,46	14,133
849,64	20,785
849,82	6,481
850,00	22,897
850,18	18,298
850,36	15,453
850,54	16,541
850,72	24,165
850,90	16,739
851,08	17,287
851,26	18,818
851,44	16,814
851,62	11,395
851,80	14,097
851,98	23,956
852,16	22,459
852,34	15,464
852,52	15,179
852,70	4,328
852,87	15,982
853,05	12,476
853,23	15,464
853,41	8,390
853,59	21,992
853,77	14,683
853,95	22,574
854,13	15,265
854,31	16,838
854,49	8,583
854,67	10,151
854,85	14,493
855,03	22,445
855,21	17,895
855,39	5,231
855,57	8,244
855,75	16,423
855,93	7,451
856,11	16,248
856,28	16,974
856,46	14,057
856,64	20,000
856,82	15,979
857,00	18,053
857,18	12,274
857,36	10,287
857,54	10,900
857,72	13,684
857,90	9,410
858,08	9,412
858,26	12,215
858,44	3,119
858,61	15,157
858,79	21,280
858,97	10,973
859,15	13,313
859,33	11,719
859,51	13,400
859,69	7,513
859,87	11,532
860,05	6,927
860,23	15,747
860,40	8,185
860,58	7,705
860,76	11,111
860,94	15,772
861,12	12,308
861,30	12,873
861,48	12,857
861,66	11,429
861,84	10,314
862,01	11,046
862,19	5,424
862,37	-1,362
862,55	13,256
862,73	12,848
862,91	7,783
863,09	9,970
863,27	7,902
863,44	8,886
863,62	10,870
863,80	8,017
863,98	11,128
864,16	5,636
864,34	13,296
864,52	9,115
864,69	13,158
864,87	9,117
865,05	6,803
865,23	7,059
865,41	12,769
865,59	9,556
865,76	12,807
865,94	12,532
866,12	14,065
866,30	5,049
866,48	16,524
866,66	3,898
866,83	15,776
867,01	10,358
867,19	12,094
867,37	7,503
867,55	7,766
867,73	8,894
867,90	7,305
868,08	9,190
868,26	5,025
868,44	5,979
868,62	10,565
868,79	2,291
868,97	7,179
869,15	4,408
869,33	5,739
869,51	7,201
869,69	7,073
869,86	8,304
870,04	13,793
870,22	10,854
870,40	7,018
870,57	7,728
870,75	4,862
870,93	12,947
871,11	8,550
871,29	6,507
871,46	2,649
871,64	9,728
871,82	6,566
872,00	9,979
872,18	6,013
872,35	5,619
872,53	6,798
872,71	9,082
872,89	13,588
873,06	8,827
873,24	7,662
873,42	8,929
873,60	7,271
873,77	3,374
873,95	5,688
874,13	5,603
874,31	6,295
874,49	7,067
874,66	8,647
874,84	5,617
875,02	7,608
875,20	10,837
875,37	8,296
875,55	7,443
875,73	3,584
875,91	7,900
876,08	4,662
876,26	1,855
876,44	5,647
876,61	7,413
876,79	6,124
876,97	5,931
877,15	7,401
877,32	4,433
877,50	5,298
877,68	3,942
877,86	3,144
878,03	8,933
878,21	2,138
878,39	8,420
878,56	2,562
878,74	7,569
878,92	2,986
879,10	5,919
879,27	6,862
879,45	5,796
879,63	5,590
879,80	6,437
879,98	0,828
880,16	6,914
880,34	8,475
880,51	3,628
880,69	2,827
880,87	3,116
881,04	3,184
881,22	5,267
881,40	4,479
881,57	2,949
881,75	5,609
881,93	7,537
882,10	2,319
882,28	7,793
882,46	7,192
882,63	4,771
882,81	9,222
882,99	4,824
883,16	5,125
883,34	3,676
883,52	4,292
883,69	11,170
883,87	2,669
884,05	4,202
884,22	3,457
884,40	6,703
884,58	-0,322
884,75	5,288
884,93	5,779
885,11	5,033
885,28	3,493
885,46	2,337
885,64	2,312
885,81	4,417
885,99	3,532
886,17	2,794
886,34	2,620
886,52	2,797
886,70	7,085
886,87	3,208
887,05	2,637
887,22	1,273
887,40	5,879
887,58	3,688
887,75	5,275
887,93	3,740
888,11	3,487
888,28	3,344
888,46	2,532
888,63	3,482
888,81	4,065
888,99	3,889
889,16	4,359
889,34	2,485
889,51	2,351
889,69	1,663
889,87	3,380
890,04	2,069
890,22	3,949
890,39	1,935
890,57	4,307
890,75	2,431
890,92	5,301
891,10	4,503
891,27	2,648
891,45	3,587
891,63	4,199
891,80	3,950
891,98	4,184
892,15	3,940
892,33	3,046
892,51	3,711
892,68	5,842
892,86	2,280
893,03	3,890
893,21	2,628
893,38	2,495
893,56	4,542
893,74	3,375
893,91	3,645
894,09	4,194
894,26	4,011
894,44	4,066
894,61	3,403
894,79	2,166
894,96	2,048
895,14	4,322
895,32	4,409
895,49	3,579
895,67	3,758
895,84	2,243
896,02	1,933
896,19	0,845
896,37	3,243
896,54	2,144
896,72	3,815
896,89	2,386
897,07	5,199
897,25	2,486
897,42	3,419
897,60	3,284
897,77	3,379
897,95	3,475
898,12	3,786
898,30	2,997
898,47	1,359
898,65	1,331
898,82	1,943
899,00	2,949
899,17	2,876
899,35	1,655
899,52	4,223
899,70	2,671
899,87	2,215
900,05	1,598
900,22	3,314
900,40	1,135
900,57	2,412
900,75	2,017
900,92	2,521
901,10	1,824
901,27	0,296
901,45	4,034
901,62	2,997
901,80	2,164
901,97	1,151
902,15	4,256
902,32	2,515
902,50	2,225
902,67	3,514
902,85	2,602
903,02	3,982
903,20	3,068
903,37	2,135
903,54	1,724
903,72	3,521
903,89	3,687
904,07	1,783
904,24	4,141
904,42	3,521
904,59	1,821
904,77	2,901
904,94	2,021
905,12	1,276
905,29	0,913
905,47	1,673
905,64	2,163
905,81	2,540
905,99	0,665
906,16	0,069
906,34	2,705
906,51	2,763
906,69	3,485
906,86	2,513
907,03	1,245
907,21	1,461
907,38	1,974
907,56	3,155
907,73	3,310
907,91	1,224
908,08	3,477
908,25	3,583
908,43	2,181
908,60	0,809
908,78	0,885
908,95	2,551
909,13	4,541
909,30	3,042
909,47	1,436
909,65	1,914
909,82	2,126
910,00	2,601
910,17	2,812
910,34	2,033
910,52	0,997
910,69	2,082
910,87	2,726
911,04	2,786
911,21	2,998
911,39	1,641
911,56	2,460
911,73	2,374
911,91	0,905
912,08	3,216
912,26	0,604
912,43	2,900
912,60	1,523
912,78	2,147
912,95	3,329
913,13	1,068
913,30	2,758
913,47	3,649
913,65	2,457
913,82	4,033
913,99	1,717
914,17	2,572
914,34	1,780
914,51	3,287
914,69	2,611
914,86	3,053
915,03	1,843
915,21	0,918
915,38	2,226
915,56	1,945
915,73	0,966
915,90	1,950
916,08	1,810
916,25	2,008
916,42	2,170
916,60	2,196
916,77	1,434
916,94	1,724
917,12	1,886
917,29	1,930
917,46	1,702
917,64	2,337
917,81	1,260
917,98	1,610
918,16	0,589
918,33	1,536
918,50	1,695
918,67	1,646
918,85	1,060
919,02	1,943
919,19	1,590
919,37	1,833
919,54	1,632
919,71	2,325
919,89	1,641
920,06	2,843
920,23	1,740
920,41	1,771
920,58	1,300
920,75	3,712
920,92	1,598
921,10	0,950
921,27	0,725
921,44	2,486
921,62	2,524
921,79	2,135
921,96	1,202
922,13	2,077
922,31	1,945
922,48	2,160
922,65	1,629
922,82	1,628
923,00	1,931
923,17	1,296
923,34	2,427
923,52	0,819
923,69	2,227
923,86	2,261
924,03	2,170
924,21	1,441
924,38	2,514
924,55	2,314
924,72	1,677
924,90	1,398
925,07	2,860
925,24	1,485
925,41	1,106
925,59	1,325
925,76	0,647
925,93	2,589
926,10	2,019
926,28	0,976
926,45	0,794
926,62	1,443
926,79	2,619
926,96	2,009
927,14	2,268
927,31	1,876
927,48	0,672
927,65	1,773
927,83	2,427
928,00	1,701
928,17	1,912
928,34	1,735
928,51	1,359
928,69	1,581
928,86	1,224
929,03	2,130
929,20	0,710
929,37	0,830
929,55	2,001
929,72	1,502
929,89	1,675
930,06	1,544
930,23	2,276
930,41	1,332
930,58	1,536
930,75	0,747
930,92	2,195
931,09	2,089
931,27	0,702
931,44	1,227
931,61	1,957
931,78	1,339
931,95	0,898
932,12	2,305
932,30	2,095
932,47	0,330
932,64	2,111
932,81	1,318
932,98	1,179
933,16	1,249
933,33	0,912
933,50	1,629
933,67	1,495
933,84	2,084
934,01	1,389
934,18	1,928
934,36	1,155
934,53	1,509
934,70	0,784
934,87	0,506
935,04	1,296
935,21	1,144
935,38	0,240
935,56	0,969
935,73	0,559
935,90	0,714
936,07	2,238
936,24	2,136
936,41	1,085
936,58	0,494
936,76	1,061
936,93	0,748
937,10	1,722
937,27	1,582
937,44	1,474
937,61	1,507
937,78	1,625
937,95	1,565
938,13	0,661
938,30	1,664
938,47	0,863
938,64	0,860
938,81	0,417
938,98	0,977
939,15	1,428
939,32	0,984
939,49	0,836
939,66	1,213
939,84	0,808
940,01	1,054
940,18	0,789
940,35	1,068
940,52	0,904
940,69	0,384
940,86	1,847
941,03	0,742
941,20	0,972
941,37	0,565
941,54	1,825
941,71	3,075
941,89	1,401
942,06	0,356
942,23	1,484
942,40	1,305
942,57	1,514
942,74	0,553
942,91	2,617
943,08	1,965
943,25	1,265
943,42	1,488
943,59	1,918
943,76	1,441
943,93	1,637
944,10	0,405
944,27	1,879
944,44	0,599
944,61	1,150
944,79	1,784
944,96	2,596
945,13	0,703
945,30	1,006
945,47	2,027
945,64	1,796
945,81	1,243
945,98	1,911
946,15	1,993
946,32	2,125
946,49	1,409
946,66	2,549
946,83	0,260
947,00	1,830
947,17	1,304
947,34	1,864
947,51	1,512
947,68	2,305
947,85	0,634
948,02	2,412
948,19	1,101
948,36	2,333
948,53	0,728
948,70	1,036
948,87	1,050
949,04	2,376
949,21	0,977
949,38	2,550
949,55	4,183
949,72	1,204
949,89	2,913
950,06	1,562
950,23	1,211
950,40	1,492
950,57	2,112
950,74	1,666
950,91	1,981
951,08	3,055
951,25	2,421
951,42	2,562
951,59	2,926
951,76	2,069
951,93	3,048
952,10	3,225
952,27	4,056
952,44	3,521
952,61	2,546
952,77	3,623
952,94	3,404
953,11	3,358
953,28	3,052
953,45	2,423
953,62	1,639
953,79	3,160
953,96	4,571
954,13	4,429
954,30	5,660
954,47	3,117
954,64	1,715
954,81	4,479
954,98	4,045
955,15	2,963
955,32	4,643
955,49	2,311
955,65	3,834
955,82	3,596
955,99	5,750
956,16	8,440
956,33	0,139
956,50	4,499
956,67	2,106
956,84	7,279
957,01	3,507
957,18	3,802
957,35	7,343
957,52	7,711
957,68	4,868
957,85	7,836
958,02	5,268
958,19	4,499
958,36	9,792
958,53	5,382
958,70	8,279
958,87	5,090
959,04	3,783
959,21	10,789
959,37	10,682
959,54	2,408
959,71	8,215
959,88	2,442
960,05	9,546
960,22	7,421
960,39	3,643
960,56	3,453
960,72	6,925
960,89	11,007
961,06	6,648
961,23	7,187
961,40	10,720
961,57	9,425
961,74	12,289
961,90	12,917
962,07	6,726
962,24	8,828
962,41	9,483
962,58	10,535
962,75	10,427
962,92	13,860
963,08	8,333
963,25	-0,398
963,42	20,683
963,59	4,312
963,76	12,922
963,93	20,978
964,10	8,145
964,26	20,238
964,43	1,395
964,60	7,657
964,77	20,805
964,94	13,580
965,10	10,585
965,27	5,307
965,44	17,460
965,61	13,356
965,78	18,323
965,95	20,647
966,11	20,606
966,28	20,112
966,45	33,660
966,62	14,634
966,79	12,287
966,95	31,317
967,12	38,730
967,29	18,210
967,46	42,349
967,63	29,020
967,79	40,268
967,96	19,266
968,13	42,857
968,30	40,741
968,47	37,692
968,63	32,843
968,80	28,736
968,97	19,653
969,14	37,288
969,31	20,918
969,47	51,630
969,64	14,835
969,81	19,355
969,98	50,526
970,14	30,108
970,31	44,654
970,48	30,872
970,65	16,529
970,81	39,860
970,98	38,021
971,15	53,939
971,32	56,061
971,48	58,929
971,65	41,060
971,82	53,636
971,99	48,101
972,15	-2,326
972,32	54,861
972,49	54,918
972,66	54,545
972,82	42,466
972,99	30,000
973,16	66,887
973,33	58,519
973,49	43,902
973,66	64,762
973,83	80,247
974,00	79,747
974,16	76,364
974,33	122,667
974,50	104,040
974,67	86,905
974,83	62,245
975,00	136,364
975,17	140,323
975,33	85,057
975,50	116,393
975,67	194,231
975,84	59,756
976,00	98,684
976,17	86,957
976,34	102,353
976,50	49,451
976,67	110,714
976,84	118,750
977,00	137,179
977,17	177,778
977,34	146,154
977,50	84,524
977,67	104,706
977,84	149,153
978,01	95,946
978,17	93,103
978,34	266,667
978,51	196,000
978,67	181,633
978,84	143,636
979,01	107,895
979,17	65,714
979,34	176,087
979,51	172,727
979,67	220,833
979,84	140,678
980,01	117,308
980,17	279,412
980,34	61,644
980,51	644,444
980,67	64,444
980,84	105,714
981,01	300,000
981,17	126,471
981,34	58,571
981,50	128,421
981,67	183,333
981,84	196,429
982,00	9100,000
982,17	98,438
982,34	87,805
982,50	0,000
982,67	-1185,714
982,84	620,000
983,00	98,148
983,17	-585,714
983,33	455,556
983,50	217,073
983,67	95,652
983,83	376,190
984,00	539,130
984,17	755,556
984,33	-114,286
984,50	186,486
984,66	156,250
984,83	-50,000
985,00	207,692
985,16	187,097
985,33	3900,000
985,49	72,093
985,66	192,500
985,83	-2633,333
985,99	622,222
986,16	257,895
986,32	128,767
986,49	-600,000
986,66	100,000
986,82	184,848
986,99	-900,000
987,15	187,879
987,32	347,059
987,49	178,571
987,65	-243,478
987,82	-140,000
987,98	128,788
988,15	1071,429
988,31	234,286
988,48	186,275
988,65	600,000
988,81	41,818
988,98	408,108
989,14	600,000
989,31	105,085
989,47	-53,571
989,64	688,889
989,80	144,681
989,97	174,545
990,14	442,857
990,30	-450,000
990,47	-158,333
990,63	200,000
990,80	783,333
990,96	483,333
991,13	220,000
991,29	182,353
991,46	172,917
991,62	0,000
991,79	-420,000
991,95	335,294
992,12	933,333
992,29	-366,667
992,45	290,476
992,62	-210,714
992,78	-983,333
992,95	138,710
993,11	700,000
993,28	-6700,000
993,44	-72,414
993,61	212,281
993,77	0,000
993,94	171,795
994,10	971,429
994,27	-18,421
994,43	262,500
994,60	700,000
994,76	251,515
994,93	-830,000
995,09	-325,000
995,26	295,833
995,42	575,000
995,59	256,667
995,75	-608,333
995,92	-1171,429
996,08	-640,000
996,25	269,697
996,41	1600,000
996,58	304,000
996,74	-420,000
996,91	140,323
997,07	412,000
997,23	127,451
997,40	1683,333
997,56	-1033,333
997,73	530,435
997,89	1960,000
998,06	121,053
998,22	217,021
998,39	195,918
998,55	536,842
998,72	-7100,000
998,88	228,000
999,05	706,667
999,21	605,882
999,37	234,884
999,54	248,387
999,70	338,095
999,87	1133,333
1000,03	356,667
1000,20	535,714
1000,36	-925,000
1000,52	2650,000
1000,69	496,000
1000,85	-500,000
1001,02	433,333
1001,18	1340,000
1001,35	0,000
1001,51	364,286
1001,67	270,000
1001,84	148,780
1002,00	-645,455
1002,17	1825,000
1002,33	-487,500
1002,50	616,667
1002,66	1100,000
1002,82	336,585
1002,99	-250,000
1003,15	-7000,000
1003,32	-300,000
1003,48	-1800,000
1003,64	408,696
1003,81	-278,947
1003,97	204,348
1004,14	-109,091
1004,30	736,364
1004,46	-8200,000
1004,63	-276,923
1004,79	243,243
1004,95	-1080,000
1005,12	-500,000
1005,28	225,000
1005,45	-433,333
1005,61	376,923
1005,77	-642,857
1005,94	221,739
1006,10	-600,000
1006,26	-77,778
1006,43	263,636
1006,59	267,742
1006,76	-268,000
1006,92	356,522
1007,08	75,758
1007,25	269,444
1007,41	245,455
1007,57	-364,706
1007,74	426,087
1007,90	-350,000
1008,06	-420,000
1008,23	-300,000
1008,39	150,000
1008,55	76,471
1008,72	-925,000
1008,88	-140,000
1009,04	-1100,000
1009,21	325,000
1009,37	435,484
1009,53	-465,000
1009,70	-24,242
1009,86	389,474
1010,02	231,818
1010,19	600,000
1010,35	7200,000
1010,51	397,143
1010,68	445,455
1010,84	290,000
1011,00	164,286
1011,17	3166,667
1011,33	226,923
1011,49	450,000
1011,66	456,250
1011,82	-691,667
1011,98	853,333
1012,14	369,231
1012,31	325,000
1012,47	-885,714
1012,63	6700,000
1012,80	333,333
1012,96	127,778
1013,12	-229,630
1013,29	391,667
1013,45	-155,882
1013,61	-1220,000
1013,77	-788,889
1013,94	325,000
1014,10	5400,000
1014,26	-88,235
1014,43	323,684
1014,59	0,000
1014,75	970,000
1014,91	260,000
1015,08	423,077
1015,24	486,667
1015,40	493,333
1015,56	511,765
1015,73	206,122
1015,89	455,556
1016,05	278,378
1016,21	174,074
1016,38	307,895
1016,54	-312,000
1016,70	505,263
1016,86	-738,462
1017,03	0,000
1017,19	850,000
1017,35	373,333
1017,51	933,333
1017,68	742,857
1017,84	452,632
1018,00	480,952
1018,16	-506,250
1018,33	363,636
1018,49	692,857
1018,65	-440,909
1018,81	-58,537
1018,97	800,000
1019,14	-1200,000
1019,30	371,429
1019,46	176,923
1019,62	2950,000
1019,79	-571,429
1019,95	-1650,000
1020,11	800,000
1020,27	167,500
1020,43	-962,500
1020,60	0,000
1020,76	142,647
1020,92	6400,000
1021,08	-75,556
1021,24	-2600,000
1021,41	290,909
1021,57	-320,833
1021,73	0,000
1021,89	-363,636
1022,05	357,143
1022,21	-215,385
1022,38	410,526
1022,54	580,000
1022,70	274,074
1022,86	-1950,000
1023,02	988,889
1023,19	-380,000
1023,35	211,321
1023,51	319,355
1023,67	178,947
1023,83	272,727
1023,99	257,143
1024,16	-53,846
1024,32	462,500
1024,48	202,041
1024,64	-720,000
1024,80	566,667
1024,96	576,923
1025,12	1966,667
1025,29	-1775,000
1025,45	141,667
1025,61	3000,000
1025,77	328,571
1025,93	-176,923
1026,09	4750,000
1026,26	-557,143
1026,42	-2000,000
1026,58	200,000
1026,74	757,143
1026,90	378,947
1027,06	-770,000
1027,22	-525,000
1027,38	933,333
1027,55	-276,000
1027,71	625,000
1027,87	265,000
1028,03	103,030
1028,19	-136,364
1028,35	100,000
1028,51	-19,355
1028,67	-1420,000
1028,83	185,714
1029,00	492,857
1029,16	-400,000
1029,32	464,706
1029,48	3350,000
1029,64	1142,857
1029,80	1816,667
1029,96	217,647
1030,12	-287,500
1030,28	2675,000
1030,44	-5400,000
1030,61	312,500
1030,77	-230,435
1030,93	130,233
1031,09	-271,429
1031,25	-655,556
1031,41	-2600,000
1031,57	-57,895
1031,73	1027,273
1031,89	-166,667
1032,05	1542,857
1032,21	990,000
1032,37	-155,882
1032,53	-200,000
1032,69	-3900,000
1032,86	1533,333
1033,02	331,250
1033,18	-600,000
1033,34	-138,462
1033,50	154,839
1033,66	-433,333
1033,82	342,857
1033,98	-535,294
1034,14	1166,667
1034,30	-172,727
1034,46	150,000
1034,62	638,889
1034,78	120,635
1034,94	-25,806
1035,10	-413,636
1035,26	-866,667
1035,42	142,857
1035,58	1260,000
1035,74	-166,667
1035,90	-300,000
1036,06	164,151
1036,22	-300,000
1036,38	506,667
1036,54	660,000
1036,70	-2850,000
1036,86	-285,714
1037,02	-2750,000
1037,18	-221,429
1037,34	317,391
1037,50	-200,000
1037,66	-2866,667
1037,82	-117,647
1037,98	342,857
1038,14	-127,586
1038,30	-26,923
1038,46	191,667
1038,62	141,935
1038,78	214,286
1038,94	-92,105
1039,10	-375,000
1039,26	-194,737
1039,42	-800,000
1039,58	171,698
1039,74	131,250
1039,90	-128,205
1040,06	358,824
>>>>>End Processed Spectral Data<<<<<
