SpectraSuite Data File
++++++++++++++++++++++++++++++++++++
Date: Thu Feb 02 17:51:27 EET 2017
User: optolab
Dark Spectrum Present: Yes
Reference Spectrum Present: Yes
Number of Sampled Component Spectra: 1
Spectrometers: USB4C02475
Integration Time (usec): 100000 (USB4C02475)
Spectra Averaged: 1 (USB4C02475)
Boxcar Smoothing: 0 (USB4C02475)
Correct for Electrical Dark: No (USB4C02475)
Strobe/Lamp Enabled: No (USB4C02475)
Correct for Detector Non-linearity: No (USB4C02475)
Correct for Stray Light: No (USB4C02475)
Number of Pixels in Processed Spectrum: 3648
>>>>>Begin Processed Spectral Data<<<<<
344,91	-1225,000
345,13	-1225,000
345,35	-1225,000
345,57	-64,706
345,79	56,522
346,00	-138,235
346,22	-1114,286
346,44	-121,212
346,66	280,851
346,87	378,261
347,09	684,615
347,31	5200,000
347,53	-1100,000
347,74	-216,279
347,96	-1300,000
348,18	232,353
348,40	605,882
348,61	-279,487
348,83	7200,000
349,05	289,744
349,27	611,765
349,48	-4300,000
349,70	421,429
349,92	280,952
350,14	78,378
350,35	-500,000
350,57	-455,556
350,79	-7,692
351,01	-500,000
351,22	720,000
351,44	1025,000
351,66	411,111
351,87	1400,000
352,09	73,684
352,31	258,929
352,53	200,000
352,74	-1242,857
352,96	431,579
353,18	134,375
353,40	-1025,000
353,61	266,667
353,83	179,167
354,05	328,125
354,26	342,857
354,48	-1620,000
354,70	504,762
354,92	269,444
355,13	-69,767
355,35	112,963
355,57	182,812
355,78	278,571
356,00	193,617
356,22	290,909
356,44	300,000
356,65	692,857
356,87	269,444
357,09	285,714
357,30	175,000
357,52	-1383,333
357,74	277,419
357,95	220,000
358,17	107,246
358,39	216,000
358,60	172,222
358,82	213,636
359,04	171,795
359,26	200,000
359,47	-661,538
359,69	328,571
359,91	440,000
360,12	290,000
360,34	152,778
360,56	-1500,000
360,77	577,778
360,99	441,667
361,21	182,609
361,42	-2100,000
361,64	-292,593
361,86	137,313
362,07	833,333
362,29	242,500
362,51	327,027
362,72	-1840,000
362,94	296,296
363,16	154,286
363,37	1045,455
363,59	-8600,000
363,81	1012,500
364,02	161,333
364,24	206,818
364,46	566,667
364,67	207,143
364,89	217,647
365,11	297,297
365,32	296,296
365,54	256,250
365,76	281,818
365,97	209,756
366,19	228,070
366,41	1110,000
366,62	141,000
366,84	566,667
367,05	93,137
367,27	820,000
367,49	274,359
367,70	822,222
367,92	187,500
368,14	-353,846
368,35	163,235
368,57	166,667
368,79	453,846
369,00	125,641
369,22	561,111
369,43	494,737
369,65	-213,793
369,87	-329,412
370,08	340,000
370,30	500,000
370,51	536,364
370,73	263,889
370,95	300,000
371,16	150,877
371,38	277,358
371,60	263,333
371,81	159,783
372,03	-2050,000
372,24	-203,125
372,46	2300,000
372,68	250,000
372,89	91,743
373,11	244,186
373,32	111,765
373,54	500,000
373,76	200,000
373,97	260,606
374,19	-205,263
374,40	112,857
374,62	564,706
374,84	429,167
375,05	146,154
375,27	245,946
375,48	120,988
375,70	417,647
375,92	232,143
376,13	573,684
376,35	375,000
376,56	290,000
376,78	165,306
376,99	357,576
377,21	209,375
377,43	187,879
377,64	144,000
377,86	412,500
378,07	131,818
378,29	266,667
378,51	77,381
378,72	-240,909
378,94	97,826
379,15	77,273
379,37	612,500
379,58	160,000
379,80	200,000
380,01	164,000
380,23	434,783
380,45	179,167
380,66	126,389
380,88	221,622
381,09	378,261
381,31	197,436
381,52	321,739
381,74	232,143
381,95	239,286
382,17	332,000
382,39	130,645
382,60	429,412
382,82	141,379
383,03	1766,667
383,25	82,716
383,46	416,667
383,68	225,532
383,89	581,818
384,11	163,014
384,32	226,316
384,54	-814,286
384,76	329,412
384,97	445,000
385,19	236,842
385,40	331,250
385,62	216,129
385,83	217,021
386,05	971,429
386,26	296,154
386,48	615,385
386,69	302,778
386,91	630,000
387,12	202,564
387,34	140,678
387,55	205,714
387,77	236,000
387,98	181,633
388,20	178,873
388,41	47,619
388,63	195,714
388,84	225,000
389,06	234,884
389,27	275,000
389,49	106,024
389,70	216,949
389,92	134,091
390,13	130,769
390,35	86,458
390,56	215,625
390,78	336,364
390,99	166,667
391,21	104,545
391,42	65,217
391,64	-600,000
391,85	203,448
392,07	-135,714
392,28	165,385
392,50	1340,000
392,71	2800,000
392,93	161,290
393,14	197,826
393,36	133,333
393,57	279,167
393,79	84,127
394,00	86,301
394,22	160,000
394,43	292,857
394,65	267,857
394,86	271,875
395,08	-875,000
395,29	78,723
395,50	-2500,000
395,72	1057,143
395,93	284,000
396,15	-85,714
396,36	80,000
396,58	-371,429
396,79	181,395
397,01	242,857
397,22	84,058
397,44	191,489
397,65	124,324
397,87	120,000
398,08	365,385
398,29	466,667
398,51	287,805
398,72	213,043
398,94	239,535
399,15	130,000
399,37	80,435
399,58	157,143
399,80	466,667
400,01	326,471
400,22	350,000
400,44	290,476
400,65	124,658
400,87	6300,000
401,08	88,764
401,30	141,333
401,51	127,273
401,72	72,581
401,94	224,390
402,15	148,980
402,37	193,182
402,58	237,209
402,80	356,250
403,01	152,778
403,22	101,205
403,44	200,000
403,65	144,898
403,87	144,000
404,08	182,692
404,30	240,625
404,51	144,286
404,72	818,182
404,94	102,410
405,15	98,507
405,37	102,198
405,58	138,710
405,79	342,857
406,01	91,852
406,22	80,952
406,44	115,789
406,65	88,095
406,86	93,000
407,08	56,790
407,29	154,667
407,51	45,192
407,72	77,228
407,93	93,671
408,15	104,545
408,36	217,143
408,58	103,333
408,79	51,938
409,00	71,631
409,22	56,863
409,43	45,045
409,64	63,462
409,86	55,682
410,07	63,478
410,29	53,333
410,50	57,143
410,71	55,645
410,93	64,356
411,14	49,533
411,35	48,611
411,57	27,778
411,78	29,412
412,00	52,000
412,21	38,496
412,42	31,707
412,64	50,000
412,85	30,052
413,06	40,625
413,28	52,941
413,49	44,186
413,70	52,361
413,92	41,429
414,13	23,715
414,34	31,599
414,56	36,596
414,77	44,649
414,98	26,855
415,20	27,240
415,41	29,545
415,63	30,484
415,84	24,377
416,05	16,566
416,27	22,006
416,48	26,303
416,69	8,140
416,91	20,000
417,12	9,729
417,33	19,865
417,55	19,600
417,76	23,044
417,97	17,228
418,19	4,603
418,40	4,691
418,61	13,036
418,83	12,852
419,04	6,047
419,25	13,397
419,46	10,915
419,68	5,900
419,89	11,199
420,10	8,602
420,32	8,212
420,53	8,234
420,74	12,306
420,96	8,294
421,17	8,438
421,38	3,996
421,60	10,611
421,81	2,503
422,02	6,869
422,23	8,754
422,45	6,220
422,66	7,525
422,87	6,107
423,09	7,639
423,30	7,413
423,51	2,825
423,73	5,311
423,94	7,004
424,15	2,028
424,36	3,399
424,58	5,720
424,79	2,537
425,00	5,707
425,22	5,471
425,43	3,835
425,64	1,936
425,85	2,988
426,07	2,841
426,28	3,364
426,49	4,832
426,71	3,386
426,92	3,266
427,13	3,342
427,34	1,323
427,56	6,139
427,77	0,290
427,98	3,967
428,19	0,853
428,41	0,890
428,62	2,516
428,83	2,191
429,04	2,397
429,26	2,001
429,47	3,037
429,68	0,778
429,89	2,048
430,11	3,067
430,32	3,012
430,53	1,694
430,74	2,436
430,96	2,593
431,17	2,059
431,38	1,081
431,59	1,683
431,81	1,746
432,02	2,049
432,23	2,615
432,44	1,831
432,66	1,475
432,87	1,268
433,08	2,398
433,29	0,769
433,51	1,452
433,72	1,407
433,93	1,046
434,14	1,673
434,35	0,804
434,57	0,675
434,78	1,746
434,99	0,755
435,20	1,298
435,42	1,494
435,63	0,671
435,84	1,924
436,05	0,645
436,26	0,595
436,48	1,643
436,69	0,986
436,90	0,684
437,11	1,308
437,32	1,129
437,54	1,031
437,75	1,056
437,96	0,752
438,17	0,739
438,38	0,826
438,60	1,338
438,81	0,931
439,02	1,067
439,23	0,801
439,44	0,668
439,66	0,728
439,87	0,647
440,08	0,764
440,29	0,873
440,50	0,911
440,72	0,647
440,93	0,885
441,14	0,675
441,35	0,394
441,56	0,983
441,77	0,569
441,99	0,514
442,20	0,722
442,41	0,376
442,62	0,360
442,83	0,634
443,04	0,350
443,26	0,666
443,47	0,838
443,68	0,728
443,89	0,523
444,10	0,788
444,31	1,003
444,53	0,700
444,74	0,702
444,95	0,481
445,16	0,724
445,37	0,427
445,58	0,475
445,80	0,313
446,01	0,656
446,22	0,967
446,43	0,650
446,64	0,361
446,85	0,413
447,06	0,547
447,28	0,600
447,49	0,420
447,70	0,948
447,91	0,989
448,12	0,486
448,33	0,533
448,54	0,585
448,76	0,486
448,97	0,602
449,18	0,653
449,39	0,591
449,60	0,637
449,81	0,785
450,02	1,034
450,23	0,759
450,45	0,584
450,66	0,573
450,87	0,736
451,08	0,565
451,29	1,175
451,50	0,785
451,71	0,764
451,92	0,659
452,13	0,914
452,35	0,523
452,56	0,796
452,77	0,797
452,98	1,013
453,19	0,864
453,40	0,963
453,61	1,132
453,82	0,986
454,03	0,991
454,25	1,068
454,46	0,817
454,67	1,218
454,88	1,129
455,09	1,347
455,30	0,993
455,51	1,004
455,72	1,287
455,93	1,414
456,14	1,256
456,35	0,937
456,56	1,049
456,78	1,359
456,99	1,618
457,20	1,493
457,41	1,610
457,62	1,653
457,83	2,011
458,04	3,144
458,25	3,696
458,46	5,238
458,67	7,144
458,88	9,364
459,09	11,737
459,30	14,812
459,51	18,539
459,73	21,197
459,94	26,080
460,15	29,864
460,36	33,456
460,57	38,069
460,78	42,122
460,99	46,772
461,20	50,516
461,41	54,978
461,62	59,852
461,83	65,174
462,04	68,269
462,25	73,190
462,46	77,270
462,67	81,323
462,88	84,647
463,09	88,708
463,30	90,813
463,51	93,740
463,72	95,472
463,93	97,362
464,15	96,715
464,36	98,128
464,57	97,565
464,78	98,564
464,99	98,913
465,20	99,021
465,41	98,479
465,62	97,461
465,83	97,509
466,04	98,276
466,25	97,926
466,46	96,847
466,67	98,076
466,88	99,409
467,09	97,634
467,30	98,363
467,51	98,622
467,72	97,860
467,93	99,498
468,14	99,960
468,35	98,844
468,56	98,325
468,77	99,383
468,98	99,984
469,19	100,286
469,40	98,618
469,61	98,758
469,82	98,016
470,03	98,314
470,24	97,686
470,45	97,857
470,66	97,281
470,87	96,637
471,08	97,735
471,29	98,112
471,50	98,643
471,71	98,429
471,92	99,503
472,13	98,987
472,34	99,890
472,55	99,992
472,76	99,772
472,97	100,250
473,18	99,896
473,39	100,147
473,60	99,849
473,81	98,154
474,01	97,911
474,22	98,961
474,43	100,066
474,64	100,146
474,85	99,558
475,06	97,991
475,27	99,721
475,48	98,017
475,69	99,502
475,90	100,174
476,11	98,776
476,32	99,481
476,53	99,251
476,74	99,812
476,95	98,127
477,16	97,451
477,37	97,266
477,58	95,979
477,79	97,003
478,00	96,116
478,21	95,506
478,41	95,416
478,62	94,924
478,83	92,451
479,04	90,439
479,25	90,130
479,46	90,901
479,67	88,708
479,88	86,237
480,09	84,475
480,30	82,569
480,51	79,139
480,72	75,367
480,93	72,885
481,14	67,579
481,34	63,992
481,55	58,823
481,76	54,399
481,97	49,371
482,18	44,570
482,39	40,540
482,60	35,549
482,81	30,884
483,02	26,249
483,23	21,941
483,44	18,864
483,65	14,488
483,85	11,803
484,06	9,570
484,27	7,175
484,48	5,339
484,69	3,874
484,90	2,723
485,11	2,003
485,32	1,518
485,53	1,031
485,73	1,021
485,94	0,940
486,15	0,686
486,36	0,668
486,57	0,738
486,78	0,837
486,99	0,540
487,20	0,612
487,41	0,473
487,61	0,530
487,82	0,411
488,03	0,531
488,24	0,579
488,45	0,546
488,66	0,479
488,87	0,545
489,08	0,620
489,28	0,390
489,49	0,524
489,70	0,352
489,91	0,531
490,12	0,367
490,33	0,441
490,54	0,395
490,74	0,640
490,95	0,440
491,16	0,553
491,37	0,604
491,58	0,514
491,79	0,488
492,00	0,355
492,20	0,442
492,41	0,330
492,62	0,448
492,83	0,413
493,04	0,533
493,25	0,512
493,45	0,468
493,66	0,433
493,87	0,432
494,08	0,414
494,29	0,399
494,50	0,319
494,70	0,413
494,91	0,680
495,12	0,433
495,33	0,559
495,54	0,472
495,75	0,473
495,95	0,467
496,16	0,453
496,37	0,317
496,58	0,289
496,79	0,394
496,99	0,272
497,20	0,385
497,41	0,448
497,62	0,384
497,83	0,490
498,04	0,252
498,24	0,480
498,45	0,351
498,66	0,527
498,87	0,396
499,08	0,314
499,28	0,241
499,49	0,476
499,70	0,476
499,91	0,320
500,12	0,410
500,32	0,440
500,53	0,392
500,74	0,409
500,95	0,284
501,15	0,539
501,36	0,360
501,57	0,432
501,78	0,307
501,99	0,383
502,19	0,286
502,40	0,397
502,61	0,357
502,82	0,455
503,02	0,303
503,23	0,261
503,44	0,582
503,65	0,490
503,86	0,321
504,06	0,450
504,27	0,506
504,48	0,168
504,69	0,395
504,89	0,346
505,10	0,263
505,31	0,517
505,52	0,209
505,72	0,688
505,93	0,457
506,14	0,314
506,35	0,291
506,55	0,387
506,76	0,228
506,97	0,379
507,18	0,434
507,38	0,296
507,59	0,437
507,80	0,351
508,01	0,337
508,21	0,443
508,42	0,354
508,63	0,330
508,84	0,469
509,04	0,303
509,25	0,385
509,46	0,305
509,67	0,553
509,87	0,518
510,08	0,354
510,29	0,354
510,49	0,466
510,70	0,401
510,91	0,375
511,12	0,421
511,32	0,553
511,53	0,476
511,74	0,355
511,94	0,310
512,15	0,389
512,36	0,316
512,57	0,364
512,77	0,360
512,98	0,320
513,19	0,622
513,39	0,476
513,60	0,352
513,81	0,369
514,01	0,549
514,22	0,344
514,43	0,486
514,64	0,387
514,84	0,579
515,05	0,447
515,26	0,413
515,46	0,296
515,67	0,393
515,88	0,334
516,08	0,380
516,29	0,281
516,50	0,218
516,70	0,366
516,91	0,462
517,12	0,467
517,32	0,409
517,53	0,220
517,74	0,415
517,95	0,582
518,15	0,400
518,36	0,661
518,57	0,300
518,77	0,489
518,98	0,552
519,19	0,384
519,39	0,409
519,60	0,184
519,80	0,380
520,01	0,389
520,22	0,455
520,42	0,287
520,63	0,379
520,84	0,290
521,04	0,451
521,25	0,330
521,46	0,332
521,66	0,380
521,87	0,329
522,08	0,372
522,28	0,495
522,49	0,450
522,70	0,434
522,90	0,178
523,11	0,192
523,31	0,373
523,52	0,466
523,73	0,202
523,93	0,465
524,14	0,558
524,35	0,458
524,55	0,551
524,76	0,169
524,97	0,268
525,17	0,333
525,38	0,448
525,58	0,287
525,79	0,290
526,00	0,361
526,20	0,447
526,41	0,440
526,61	0,372
526,82	0,313
527,03	0,553
527,23	0,427
527,44	0,425
527,64	0,582
527,85	0,260
528,06	0,470
528,26	0,451
528,47	0,461
528,68	0,335
528,88	0,338
529,09	0,409
529,29	0,527
529,50	0,564
529,70	0,377
529,91	0,310
530,12	0,493
530,32	0,361
530,53	0,443
530,73	0,260
530,94	0,487
531,15	0,495
531,35	0,599
531,56	0,656
531,76	0,698
531,97	0,390
532,17	0,479
532,38	0,636
532,59	0,617
532,79	0,624
533,00	0,299
533,20	0,420
533,41	0,365
533,61	0,346
533,82	0,295
534,03	0,281
534,23	0,583
534,44	0,697
534,64	0,428
534,85	0,285
535,05	0,435
535,26	0,517
535,46	0,438
535,67	0,388
535,88	0,516
536,08	0,436
536,29	0,598
536,49	0,462
536,70	0,459
536,90	0,651
537,11	0,587
537,31	0,735
537,52	0,666
537,72	0,774
537,93	0,634
538,13	0,694
538,34	0,672
538,55	0,842
538,75	0,817
538,96	0,845
539,16	1,146
539,37	1,487
539,57	2,007
539,78	2,368
539,98	2,991
540,19	3,819
540,39	4,734
540,60	5,826
540,80	7,753
541,01	9,024
541,21	11,186
541,42	13,258
541,62	15,635
541,83	18,790
542,03	21,558
542,24	24,254
542,44	27,572
542,65	30,491
542,85	32,864
543,06	36,000
543,26	38,246
543,47	40,416
543,67	43,316
543,88	45,138
544,08	47,328
544,29	48,749
544,49	50,551
544,70	53,403
544,90	56,294
545,11	58,550
545,31	61,429
545,52	64,900
545,72	67,743
545,93	71,957
546,13	74,358
546,34	78,324
546,54	81,202
546,75	83,894
546,95	86,289
547,15	88,495
547,36	90,429
547,56	91,517
547,77	91,546
547,97	92,510
548,18	94,018
548,38	94,253
548,59	95,518
548,79	95,735
549,00	95,786
549,20	95,442
549,41	96,755
549,61	96,415
549,81	97,047
550,02	96,864
550,22	95,530
550,43	97,310
550,63	96,884
550,84	95,852
551,04	96,693
551,25	95,116
551,45	95,591
551,65	94,337
551,86	93,336
552,06	93,060
552,27	92,003
552,47	90,310
552,68	91,733
552,88	88,678
553,08	88,312
553,29	85,358
553,49	83,499
553,70	81,244
553,90	78,947
554,11	75,897
554,31	71,937
554,51	67,650
554,72	64,318
554,92	60,905
555,13	57,322
555,33	53,639
555,53	50,703
555,74	48,045
555,94	44,717
556,15	42,372
556,35	39,320
556,56	36,682
556,76	33,409
556,96	31,035
557,17	28,007
557,37	25,394
557,58	22,630
557,78	19,429
557,98	16,920
558,19	14,183
558,39	11,866
558,59	9,674
558,80	7,453
559,00	5,663
559,21	4,506
559,41	3,169
559,61	2,472
559,82	1,766
560,02	1,522
560,23	1,157
560,43	0,917
560,63	0,647
560,84	0,768
561,04	0,653
561,24	0,489
561,45	0,576
561,65	0,465
561,85	0,493
562,06	0,510
562,26	0,308
562,47	0,549
562,67	0,473
562,87	0,307
563,08	0,622
563,28	0,489
563,48	0,399
563,69	0,364
563,89	0,378
564,09	0,392
564,30	0,460
564,50	0,333
564,70	0,433
564,91	0,418
565,11	0,146
565,31	0,368
565,52	0,296
565,72	0,467
565,92	0,461
566,13	0,371
566,33	0,456
566,53	0,295
566,74	0,378
566,94	0,405
567,14	0,367
567,35	0,308
567,55	0,455
567,75	0,339
567,96	0,471
568,16	0,387
568,36	0,290
568,57	0,294
568,77	0,258
568,97	0,265
569,18	0,450
569,38	0,215
569,58	0,348
569,79	0,209
569,99	0,366
570,19	0,164
570,39	0,327
570,60	0,306
570,80	0,203
571,00	0,349
571,21	0,369
571,41	0,264
571,61	0,474
571,82	0,439
572,02	0,281
572,22	0,207
572,42	0,344
572,63	0,320
572,83	0,347
573,03	0,239
573,24	0,260
573,44	0,401
573,64	0,375
573,84	0,112
574,05	0,188
574,25	0,204
574,45	0,291
574,66	0,444
574,86	0,378
575,06	0,337
575,26	0,318
575,47	0,336
575,67	0,189
575,87	0,322
576,07	0,225
576,28	0,380
576,48	0,296
576,68	0,499
576,88	0,426
577,09	0,291
577,29	0,471
577,49	0,249
577,69	0,140
577,90	0,205
578,10	0,088
578,30	0,427
578,50	0,307
578,71	0,310
578,91	0,318
579,11	0,408
579,31	0,454
579,52	0,278
579,72	0,354
579,92	0,258
580,12	0,309
580,33	0,336
580,53	0,223
580,73	0,472
580,93	0,347
581,13	0,360
581,34	0,392
581,54	0,502
581,74	0,303
581,94	0,419
582,15	0,491
582,35	0,086
582,55	0,316
582,75	0,413
582,95	0,338
583,16	0,379
583,36	0,266
583,56	0,513
583,76	0,291
583,96	0,279
584,17	0,278
584,37	0,312
584,57	0,264
584,77	0,258
584,97	0,213
585,18	0,369
585,38	0,188
585,58	0,243
585,78	0,222
585,98	0,348
586,19	0,533
586,39	0,549
586,59	0,218
586,79	0,322
586,99	0,241
587,20	0,299
587,40	0,385
587,60	0,349
587,80	0,237
588,00	0,319
588,20	0,430
588,41	0,311
588,61	0,413
588,81	0,285
589,01	0,369
589,21	0,370
589,41	0,240
589,62	0,259
589,82	0,435
590,02	0,303
590,22	0,435
590,42	0,347
590,62	0,385
590,83	0,321
591,03	0,221
591,23	0,280
591,43	0,565
591,63	0,318
591,83	0,308
592,03	0,420
592,24	0,333
592,44	0,412
592,64	0,346
592,84	0,469
593,04	0,260
593,24	0,490
593,44	0,279
593,65	0,300
593,85	0,408
594,05	0,331
594,25	0,189
594,45	0,400
594,65	0,191
594,85	0,252
595,06	0,375
595,26	0,451
595,46	0,207
595,66	0,360
595,86	0,330
596,06	0,285
596,26	0,276
596,46	0,410
596,66	0,247
596,87	0,517
597,07	0,308
597,27	0,268
597,47	0,306
597,67	0,326
597,87	0,185
598,07	0,344
598,27	0,326
598,47	0,455
598,67	0,326
598,88	0,220
599,08	0,432
599,28	0,325
599,48	0,304
599,68	0,347
599,88	0,349
600,08	0,433
600,28	0,513
600,48	0,363
600,68	0,399
600,88	0,418
601,09	0,356
601,29	0,512
601,49	0,391
601,69	0,418
601,89	0,365
602,09	0,385
602,29	0,396
602,49	0,417
602,69	0,194
602,89	0,381
603,09	0,416
603,29	0,562
603,49	0,541
603,69	0,457
603,90	0,265
604,10	0,368
604,30	0,499
604,50	0,430
604,70	0,300
604,90	0,423
605,10	0,403
605,30	0,383
605,50	0,314
605,70	0,344
605,90	0,199
606,10	0,502
606,30	0,432
606,50	0,538
606,70	0,405
606,90	0,364
607,10	0,343
607,30	0,547
607,50	0,491
607,70	0,544
607,90	0,541
608,10	0,515
608,30	0,455
608,50	0,482
608,70	0,707
608,90	0,520
609,11	0,471
609,31	0,517
609,51	0,481
609,71	0,591
609,91	0,677
610,11	0,935
610,31	1,018
610,51	1,084
610,71	1,389
610,91	1,474
611,11	2,016
611,31	2,368
611,51	2,871
611,71	3,692
611,91	4,861
612,11	5,686
612,31	7,335
612,51	8,809
612,71	10,888
612,91	12,891
613,11	15,856
613,31	19,208
613,51	22,611
613,71	26,630
613,91	31,321
614,11	35,568
614,31	40,012
614,50	44,385
614,70	49,069
614,90	54,025
615,10	57,899
615,30	62,321
615,50	65,851
615,70	68,924
615,90	72,693
616,10	75,228
616,30	78,028
616,50	79,259
616,70	82,357
616,90	83,681
617,10	85,954
617,30	87,412
617,50	88,229
617,70	89,211
617,90	89,942
618,10	89,829
618,30	91,211
618,50	91,870
618,70	92,190
618,90	93,050
619,10	93,139
619,30	93,687
619,49	93,398
619,69	94,460
619,89	94,600
620,09	94,620
620,29	93,926
620,49	95,611
620,69	94,813
620,89	95,785
621,09	95,224
621,29	95,433
621,49	95,173
621,69	97,205
621,89	97,322
622,09	96,505
622,29	97,366
622,48	97,742
622,68	98,278
622,88	98,279
623,08	97,285
623,28	97,864
623,48	98,468
623,68	97,290
623,88	98,690
624,08	98,193
624,28	98,438
624,48	98,014
624,67	98,140
624,87	98,683
625,07	97,056
625,27	97,544
625,47	97,555
625,67	97,199
625,87	97,761
626,07	97,608
626,27	96,340
626,47	95,621
626,66	95,532
626,86	96,314
627,06	94,555
627,26	95,128
627,46	94,157
627,66	94,140
627,86	94,133
628,06	93,720
628,25	91,460
628,45	90,816
628,65	90,944
628,85	89,974
629,05	89,313
629,25	87,277
629,45	86,477
629,65	84,890
629,84	83,642
630,04	81,773
630,24	79,520
630,44	77,355
630,64	76,122
630,84	73,378
631,04	70,447
631,23	69,019
631,43	66,314
631,63	64,586
631,83	62,143
632,03	60,269
632,23	58,094
632,42	56,367
632,62	54,156
632,82	52,386
633,02	49,510
633,22	47,375
633,42	45,555
633,62	42,835
633,81	39,960
634,01	38,133
634,21	34,492
634,41	31,660
634,61	28,365
634,80	25,750
635,00	22,644
635,20	20,170
635,40	16,498
635,60	14,065
635,80	11,535
635,99	9,704
636,19	7,407
636,39	6,323
636,59	4,868
636,79	4,140
636,98	3,238
637,18	2,419
637,38	2,119
637,58	1,571
637,78	1,237
637,97	1,156
638,17	1,107
638,37	1,097
638,57	0,847
638,77	0,931
638,96	0,847
639,16	0,871
639,36	0,596
639,56	0,919
639,76	0,789
639,95	0,751
640,15	0,430
640,35	0,504
640,55	0,683
640,75	0,744
640,94	0,539
641,14	0,832
641,34	0,507
641,54	0,549
641,73	0,319
641,93	0,804
642,13	0,535
642,33	0,632
642,53	0,486
642,72	0,500
642,92	0,911
643,12	0,566
643,32	0,792
643,51	0,774
643,71	0,388
643,91	0,630
644,11	0,760
644,30	0,377
644,50	0,997
644,70	0,585
644,90	0,802
645,09	0,772
645,29	0,773
645,49	0,848
645,69	0,517
645,88	0,598
646,08	1,064
646,28	0,737
646,48	0,560
646,67	0,473
646,87	0,340
647,07	0,597
647,26	0,992
647,46	0,688
647,66	0,660
647,86	0,575
648,05	0,827
648,25	1,167
648,45	0,720
648,65	0,497
648,84	0,407
649,04	1,071
649,24	0,979
649,43	0,614
649,63	0,645
649,83	0,736
650,03	0,880
650,22	0,706
650,42	0,738
650,62	0,815
650,81	0,693
651,01	0,854
651,21	0,683
651,40	0,662
651,60	0,430
651,80	0,727
652,00	0,845
652,19	0,680
652,39	1,017
652,59	0,930
652,78	0,542
652,98	0,356
653,18	0,778
653,37	0,911
653,57	0,817
653,77	0,886
653,96	0,941
654,16	0,857
654,36	0,712
654,55	0,345
654,75	0,751
654,95	0,741
655,14	0,630
655,34	0,854
655,54	0,731
655,73	0,634
655,93	0,532
656,13	0,504
656,32	0,150
656,52	0,777
656,72	0,843
656,91	1,094
657,11	0,578
657,31	0,627
657,50	0,612
657,70	1,111
657,90	1,051
658,09	0,946
658,29	0,779
658,49	0,873
658,68	0,730
658,88	0,776
659,07	0,523
659,27	0,209
659,47	0,340
659,66	0,592
659,86	0,376
660,06	0,580
660,25	0,318
660,45	0,747
660,64	0,685
660,84	0,601
661,04	0,525
661,23	0,807
661,43	0,632
661,63	0,740
661,82	0,503
662,02	0,903
662,21	0,514
662,41	0,874
662,61	0,854
662,80	0,404
663,00	0,251
663,19	0,873
663,39	0,380
663,59	0,878
663,78	0,791
663,98	0,658
664,17	0,537
664,37	0,629
664,57	0,651
664,76	0,535
664,96	0,571
665,15	0,826
665,35	0,762
665,55	0,538
665,74	0,447
665,94	0,878
666,13	0,574
666,33	0,599
666,53	0,894
666,72	0,590
666,92	0,470
667,11	0,632
667,31	0,066
667,50	0,331
667,70	0,657
667,90	0,286
668,09	0,566
668,29	0,368
668,48	0,390
668,68	0,772
668,87	0,733
669,07	0,400
669,26	0,385
669,46	0,633
669,66	0,665
669,85	0,694
670,05	0,474
670,24	0,440
670,44	0,457
670,63	0,678
670,83	0,265
671,02	0,540
671,22	0,651
671,42	0,494
671,61	0,495
671,81	0,600
672,00	0,462
672,20	0,403
672,39	0,660
672,59	0,353
672,78	0,370
672,98	0,474
673,17	0,511
673,37	0,150
673,56	0,080
673,76	0,233
673,95	0,656
674,15	0,469
674,34	0,393
674,54	0,685
674,73	0,540
674,93	0,709
675,13	0,509
675,32	0,806
675,52	0,392
675,71	0,624
675,91	0,551
676,10	0,426
676,30	0,281
676,49	0,041
676,69	0,368
676,88	0,290
677,08	0,196
677,27	0,241
677,47	0,358
677,66	0,407
677,86	0,839
678,05	0,102
678,24	0,330
678,44	0,630
678,63	0,454
678,83	0,545
679,02	0,455
679,22	0,562
679,41	0,565
679,61	0,230
679,80	0,444
680,00	0,142
680,19	0,451
680,39	0,447
680,58	0,442
680,78	0,390
680,97	0,279
681,17	0,498
681,36	0,057
681,56	0,404
681,75	0,061
681,94	0,127
682,14	0,575
682,33	0,450
682,53	0,395
682,72	0,613
682,92	0,613
683,11	0,326
683,31	0,362
683,50	0,381
683,69	0,175
683,89	0,437
684,08	0,329
684,28	0,087
684,47	0,356
684,67	0,183
684,86	0,316
685,06	0,296
685,25	0,183
685,44	0,164
685,64	0,469
685,83	0,503
686,03	0,098
686,22	0,427
686,42	0,407
686,61	0,168
686,80	0,237
687,00	0,352
687,19	0,302
687,39	0,258
687,58	0,102
687,77	0,395
687,97	0,400
688,16	0,339
688,36	0,300
688,55	0,217
688,74	-0,013
688,94	0,218
689,13	0,349
689,33	0,341
689,52	0,375
689,71	0,199
689,91	0,251
690,10	0,204
690,30	0,121
690,49	0,239
690,68	0,468
690,88	0,155
691,07	0,356
691,27	0,176
691,46	0,233
691,65	0,217
691,85	0,185
692,04	0,321
692,23	0,154
692,43	0,178
692,62	0,255
692,82	0,236
693,01	0,215
693,20	0,246
693,40	0,256
693,59	0,203
693,78	0,337
693,98	0,037
694,17	0,287
694,36	0,373
694,56	0,177
694,75	0,252
694,94	0,265
695,14	0,262
695,33	0,462
695,53	0,370
695,72	0,434
695,91	0,060
696,11	0,231
696,30	0,130
696,49	0,293
696,69	0,320
696,88	0,422
697,07	0,239
697,27	0,489
697,46	0,522
697,65	0,182
697,85	0,023
698,04	0,673
698,23	0,474
698,43	0,512
698,62	0,122
698,81	0,388
699,01	0,527
699,20	0,379
699,39	0,375
699,58	0,526
699,78	0,176
699,97	0,487
700,16	0,323
700,36	0,543
700,55	0,354
700,74	0,771
700,94	0,539
701,13	0,303
701,32	0,049
701,52	0,409
701,71	0,829
701,90	0,726
702,09	0,835
702,29	0,639
702,48	0,387
702,67	0,880
702,87	1,108
703,06	1,114
703,25	1,000
703,44	0,725
703,64	0,304
703,83	0,974
704,02	1,066
704,22	1,063
704,41	0,944
704,60	1,355
704,79	0,657
704,99	1,506
705,18	1,203
705,37	1,052
705,56	0,996
705,76	1,734
705,95	1,590
706,14	0,967
706,33	0,296
706,53	1,358
706,72	1,507
706,91	2,270
707,11	1,010
707,30	0,898
707,49	1,300
707,68	1,137
707,88	1,626
708,07	0,146
708,26	0,920
708,45	0,727
708,64	1,636
708,84	0,755
709,03	2,703
709,22	1,728
709,41	2,404
709,61	1,740
709,80	2,077
709,99	2,494
710,18	2,652
710,38	0,849
710,57	1,970
710,76	1,540
710,95	2,941
711,14	2,152
711,34	2,340
711,53	4,515
711,72	2,141
711,91	2,177
712,11	2,563
712,30	1,808
712,49	3,675
712,68	2,572
712,87	2,204
713,07	3,212
713,26	2,666
713,45	1,373
713,64	1,222
713,83	1,627
714,03	3,536
714,22	4,253
714,41	2,514
714,60	3,227
714,79	0,768
714,99	1,279
715,18	4,051
715,37	3,058
715,56	3,245
715,75	3,552
715,94	4,478
716,14	5,963
716,33	4,475
716,52	4,350
716,71	6,164
716,90	5,660
717,10	1,448
717,29	3,714
717,48	4,616
717,67	3,215
717,86	5,479
718,05	3,454
718,24	3,983
718,44	4,673
718,63	0,791
718,82	3,810
719,01	3,736
719,20	2,794
719,39	4,314
719,59	2,148
719,78	4,342
719,97	3,882
720,16	5,175
720,35	1,927
720,54	3,005
720,73	4,096
720,93	4,049
721,12	1,580
721,31	3,061
721,50	5,600
721,69	6,022
721,88	5,837
722,07	4,126
722,27	5,543
722,46	3,523
722,65	6,434
722,84	3,952
723,03	3,778
723,22	7,413
723,41	3,904
723,60	7,114
723,79	5,693
723,99	6,287
724,18	5,325
724,37	4,269
724,56	7,325
724,75	4,261
724,94	9,459
725,13	4,635
725,32	9,541
725,51	1,023
725,71	9,583
725,90	7,278
726,09	5,205
726,28	6,292
726,47	3,649
726,66	8,123
726,85	4,739
727,04	3,058
727,23	6,017
727,42	7,930
727,61	6,070
727,81	0,973
728,00	5,198
728,19	7,909
728,38	3,384
728,57	5,417
728,76	6,867
728,95	9,271
729,14	7,792
729,33	7,742
729,52	1,575
729,71	8,026
729,90	8,352
730,09	9,368
730,28	10,756
730,48	9,707
730,67	9,040
730,86	8,392
731,05	3,734
731,24	3,415
731,43	9,524
731,62	9,851
731,81	5,448
732,00	10,060
732,19	3,125
732,38	7,308
732,57	8,191
732,76	3,010
732,95	7,079
733,14	-2,869
733,33	3,439
733,52	7,725
733,71	8,178
733,90	5,226
734,09	8,378
734,28	6,955
734,47	11,667
734,66	6,417
734,85	5,143
735,04	6,562
735,23	13,305
735,42	11,475
735,61	10,933
735,81	10,355
736,00	10,969
736,19	7,447
736,38	14,521
736,57	9,191
736,76	11,679
736,95	8,599
737,14	10,845
737,33	13,154
737,52	5,846
737,71	5,082
737,90	13,910
738,09	12,329
738,28	15,247
738,47	9,672
738,66	5,288
738,85	8,859
739,04	7,719
739,22	9,030
739,41	7,721
739,60	4,437
739,79	4,856
739,98	4,301
740,17	13,652
740,36	10,307
740,55	14,490
740,74	18,182
740,93	9,178
741,12	14,107
741,31	1,937
741,50	0,189
741,69	9,912
741,88	1,581
742,07	13,406
742,26	10,095
742,45	9,631
742,64	12,249
742,83	14,513
743,02	2,105
743,21	21,300
743,40	2,899
743,59	13,235
743,78	19,569
743,97	17,115
744,16	14,370
744,34	9,091
744,53	15,258
744,72	11,065
744,91	10,084
745,10	12,159
745,29	27,016
745,48	10,227
745,67	21,412
745,86	19,426
746,05	8,294
746,24	12,990
746,43	7,066
746,62	17,888
746,81	17,978
747,00	7,877
747,18	19,608
747,37	15,368
747,56	18,353
747,75	7,143
747,94	20,146
748,13	23,266
748,32	9,286
748,51	20,305
748,70	14,317
748,89	12,646
749,08	1,163
749,26	19,383
749,45	8,579
749,64	19,647
749,83	13,258
750,02	14,674
750,21	7,888
750,40	24,494
750,59	18,231
750,78	26,683
750,96	12,707
751,15	15,888
751,34	15,341
751,53	11,475
751,72	17,746
751,91	15,544
752,10	15,707
752,29	21,333
752,47	11,748
752,66	23,492
752,85	30,328
753,04	5,028
753,23	7,121
753,42	26,954
753,61	17,868
753,80	8,935
753,98	17,677
754,17	6,079
754,36	14,516
754,55	19,277
754,74	27,273
754,93	22,865
755,12	19,288
755,30	17,857
755,49	23,547
755,68	22,699
755,87	8,876
756,06	21,181
756,25	27,964
756,43	3,020
756,62	15,217
756,81	25,497
757,00	26,316
757,19	10,417
757,38	12,355
757,56	13,600
757,75	20,137
757,94	7,224
758,13	10,959
758,32	11,869
758,51	27,609
758,69	11,197
758,88	13,131
759,07	28,144
759,26	20,848
759,45	19,649
759,63	27,273
759,82	39,649
760,01	25,275
760,20	38,050
760,39	25,552
760,57	21,254
760,76	28,571
760,95	28,472
761,14	21,533
761,33	27,097
761,51	27,500
761,70	32,342
761,89	25,333
762,08	37,546
762,27	33,935
762,45	7,609
762,64	31,658
762,83	38,247
763,02	22,609
763,21	10,500
763,39	27,972
763,58	21,933
763,77	41,350
763,96	22,311
764,14	14,583
764,33	13,333
764,52	5,357
764,71	18,361
764,89	39,286
765,08	13,793
765,27	25,532
765,46	32,287
765,65	39,608
765,83	36,652
766,02	3,810
766,21	22,404
766,40	43,580
766,58	16,931
766,77	25,229
766,96	28,455
767,15	34,874
767,33	40,097
767,52	29,258
767,71	25,000
767,90	16,583
768,08	23,952
768,27	26,016
768,46	66,228
768,64	19,444
768,83	37,255
769,02	17,241
769,21	30,208
769,39	40,000
769,58	27,706
769,77	51,064
769,96	41,441
770,14	50,820
770,33	23,832
770,52	28,058
770,70	35,676
770,89	41,081
771,08	18,675
771,27	28,947
771,45	24,706
771,64	29,697
771,83	46,569
772,01	58,247
772,20	26,866
772,39	37,342
772,57	24,378
772,76	61,486
772,95	18,966
773,14	41,497
773,32	31,638
773,51	23,810
773,70	49,640
773,88	36,774
774,07	37,056
774,26	36,290
774,44	62,406
774,63	55,090
774,82	23,377
775,00	37,383
775,19	21,429
775,38	51,596
775,56	55,901
775,75	40,659
775,94	33,333
776,12	41,830
776,31	31,579
776,50	27,397
776,68	36,022
776,87	59,330
777,06	62,264
777,24	60,504
777,43	64,171
777,62	48,876
777,80	50,943
777,99	84,167
778,18	45,402
778,36	49,153
778,55	48,305
778,74	39,844
778,92	74,074
779,11	47,273
779,29	26,950
779,48	58,865
779,67	87,387
779,85	25,439
780,04	55,072
780,23	45,238
780,41	52,542
780,60	43,624
780,79	47,581
780,97	49,673
781,16	55,851
781,34	72,297
781,53	58,929
781,72	66,667
781,90	46,707
782,09	90,698
782,28	53,061
782,46	77,143
782,65	64,085
782,83	43,396
783,02	69,298
783,21	47,368
783,39	81,513
783,58	60,870
783,76	45,578
783,95	71,127
784,14	75,000
784,32	30,588
784,51	72,973
784,69	50,781
784,88	51,402
785,06	50,993
785,25	39,007
785,44	17,742
785,62	59,286
785,81	50,000
785,99	64,662
786,18	53,153
786,37	25,275
786,55	65,278
786,74	53,636
786,92	41,958
787,11	33,333
787,29	40,179
787,48	64,516
787,67	51,887
787,85	112,658
788,04	40,541
788,22	46,535
788,41	70,079
788,59	32,895
788,78	112,088
788,96	33,884
789,15	64,167
789,34	75,000
789,52	93,548
789,71	75,540
789,89	98,701
790,08	135,000
790,26	45,860
790,45	91,667
790,63	39,080
790,82	49,231
791,00	38,053
791,19	43,200
791,38	29,524
791,56	56,364
791,75	41,667
791,93	99,000
792,12	80,000
792,30	13,139
792,49	42,424
792,67	46,324
792,86	56,800
793,04	44,444
793,23	54,737
793,41	39,130
793,60	39,583
793,78	36,190
793,97	54,167
794,15	76,692
794,34	54,667
794,52	56,989
794,71	33,333
794,89	44,697
795,08	60,000
795,26	78,667
795,45	56,944
795,63	73,387
795,82	63,736
796,00	81,000
796,19	57,724
796,37	60,305
796,56	30,097
796,74	35,789
796,93	50,000
797,11	56,627
797,30	55,000
797,48	42,969
797,67	33,333
797,85	56,154
798,04	27,966
798,22	119,231
798,41	50,962
798,59	89,524
798,77	44,578
798,96	38,889
799,14	75,000
799,33	69,725
799,51	70,833
799,70	74,615
799,88	82,569
800,07	65,649
800,25	75,904
800,44	25,926
800,62	118,056
800,80	55,634
800,99	113,699
801,17	71,552
801,36	70,000
801,54	90,000
801,73	45,263
801,91	68,595
802,10	54,118
802,28	53,600
802,46	52,632
802,65	62,590
802,83	104,000
803,02	66,129
803,20	93,976
803,39	113,793
803,57	58,268
803,75	56,098
803,94	33,333
804,12	90,345
804,31	44,928
804,49	61,600
804,67	18,382
804,86	84,071
805,04	65,060
805,23	92,920
805,41	58,333
805,59	86,986
805,78	55,200
805,96	50,602
806,15	81,188
806,33	81,579
806,51	62,667
806,70	66,165
806,88	79,070
807,07	75,676
807,25	76,923
807,43	87,500
807,62	69,027
807,80	20,952
807,99	76,923
808,17	33,858
808,35	49,000
808,54	80,435
808,72	80,180
808,90	50,000
809,09	53,261
809,27	128,000
809,46	82,418
809,64	103,659
809,82	58,278
810,01	72,656
810,19	85,859
810,37	60,156
810,56	127,778
810,74	85,714
810,92	44,667
811,11	18,421
811,29	105,660
811,48	23,846
811,66	77,528
811,84	17,582
812,03	54,098
812,21	42,982
812,39	41,739
812,58	56,842
812,76	64,029
812,94	75,904
813,13	57,447
813,31	54,000
813,49	45,370
813,68	59,091
813,86	66,292
814,04	57,025
814,23	54,819
814,41	51,685
814,59	60,194
814,78	50,735
814,96	44,025
815,14	54,206
815,33	35,659
815,51	66,929
815,69	63,810
815,87	78,218
816,06	48,696
816,24	61,491
816,42	66,176
816,61	71,698
816,79	66,379
816,97	82,955
817,16	50,296
817,34	74,603
817,52	47,107
817,70	92,079
817,89	47,407
818,07	45,890
818,25	45,918
818,44	74,359
818,62	37,209
818,80	47,368
818,98	43,312
819,17	57,143
819,35	38,298
819,53	55,970
819,72	81,013
819,90	47,287
820,08	33,333
820,26	52,586
820,45	30,872
820,63	111,607
820,81	35,200
820,99	19,149
821,18	40,816
821,36	52,532
821,54	75,172
821,73	37,222
821,91	45,614
822,09	46,774
822,27	52,258
822,46	41,176
822,64	40,000
822,82	44,199
823,00	19,890
823,19	39,560
823,37	57,576
823,55	48,295
823,73	62,759
823,91	77,536
824,10	48,925
824,28	76,382
824,46	47,573
824,64	47,368
824,83	60,248
825,01	31,333
825,19	51,613
825,37	40,870
825,56	34,906
825,74	38,265
825,92	28,025
826,10	48,864
826,28	47,024
826,47	20,000
826,65	75,887
826,83	8,621
827,01	46,821
827,19	56,548
827,38	37,037
827,56	48,864
827,74	26,257
827,92	44,767
828,10	41,026
828,29	31,953
828,47	45,122
828,65	23,846
828,83	16,970
829,01	30,435
829,20	41,758
829,38	56,250
829,56	46,196
829,74	36,478
829,92	44,444
830,10	32,759
830,29	16,080
830,47	35,678
830,65	15,244
830,83	41,518
831,01	42,857
831,20	43,689
831,38	43,062
831,56	45,581
831,74	38,863
831,92	61,184
832,10	38,571
832,29	68,919
832,47	6,742
832,65	26,471
832,83	38,498
833,01	30,500
833,19	29,864
833,37	52,036
833,56	22,363
833,74	50,490
833,92	9,259
834,10	25,726
834,28	24,895
834,46	38,009
834,64	24,537
834,83	31,364
835,01	49,378
835,19	23,600
835,37	20,248
835,55	18,229
835,73	33,990
835,91	41,328
836,09	30,418
836,28	23,985
836,46	24,400
836,64	48,496
836,82	29,864
837,00	16,667
837,18	21,933
837,36	31,474
837,54	27,727
837,72	26,293
837,91	32,463
838,09	28,685
838,27	24,667
838,45	17,021
838,63	9,191
838,81	17,722
838,99	29,839
839,17	26,689
839,35	28,014
839,53	28,070
839,72	16,541
839,90	31,959
840,08	42,154
840,26	17,063
840,44	29,909
840,62	16,207
840,80	25,850
840,98	27,059
841,16	24,335
841,34	8,696
841,52	35,168
841,70	30,154
841,89	4,839
842,07	13,793
842,25	29,598
842,43	20,690
842,61	36,491
842,79	26,554
842,97	17,915
843,15	18,152
843,33	23,028
843,51	30,120
843,69	29,060
843,87	17,910
844,05	23,708
844,23	33,934
844,41	17,555
844,59	20,749
844,77	7,843
844,95	25,145
845,13	34,769
845,31	3,779
845,50	22,513
845,68	18,650
845,86	20,402
846,04	15,922
846,22	12,262
846,40	23,925
846,58	29,345
846,76	19,892
846,94	23,441
847,12	24,870
847,30	11,082
847,48	11,765
847,66	26,355
847,84	15,847
848,02	22,947
848,20	12,661
848,38	15,100
848,56	19,034
848,74	31,504
848,92	7,731
849,10	3,500
849,28	15,182
849,46	21,333
849,64	14,088
849,82	14,506
850,00	20,093
850,18	15,106
850,36	-6,181
850,54	18,797
850,72	16,967
850,90	24,565
851,08	16,630
851,26	11,597
851,44	23,230
851,62	12,558
851,80	20,485
851,98	20,000
852,16	20,804
852,34	17,938
852,52	15,402
852,70	0,911
852,87	13,699
853,05	20,273
853,23	16,289
853,41	16,327
853,59	17,427
853,77	17,262
853,95	22,152
854,13	15,265
854,31	21,355
854,49	13,174
854,67	8,423
854,85	10,973
855,03	20,641
855,21	11,158
855,39	4,024
855,57	10,573
855,75	15,511
855,93	13,725
856,11	21,083
856,28	19,373
856,46	15,836
856,64	14,857
856,82	11,512
857,00	10,345
857,18	14,440
857,36	16,020
857,54	13,668
857,72	4,912
857,90	12,362
858,08	18,627
858,26	1,242
858,44	8,577
858,61	10,976
858,79	19,204
858,97	9,027
859,15	12,229
859,33	11,875
859,51	14,740
859,69	8,050
859,87	14,827
860,05	9,414
860,23	12,987
860,40	13,879
860,58	12,951
860,76	10,794
860,94	12,358
861,12	12,154
861,30	6,593
861,48	9,857
861,66	10,000
861,84	6,278
862,01	7,953
862,19	8,983
862,37	12,557
862,55	8,069
862,73	6,347
862,91	4,552
863,09	11,012
863,27	3,736
863,44	2,962
863,62	9,511
863,80	3,094
863,98	10,831
864,16	3,035
864,34	8,911
864,52	14,343
864,69	9,942
864,87	6,512
865,05	11,701
865,23	10,065
865,41	7,661
865,59	9,960
865,76	6,727
865,94	9,044
866,12	10,839
866,30	-1,403
866,48	15,177
866,66	5,780
866,83	12,595
867,01	8,696
867,19	10,923
867,37	4,657
867,55	7,168
867,73	8,293
867,90	4,551
868,08	12,455
868,26	13,358
868,44	8,206
868,62	6,020
868,79	8,706
868,97	6,801
869,15	6,497
869,33	1,221
869,51	2,787
869,69	9,878
869,86	9,240
870,04	9,310
870,22	10,959
870,40	9,591
870,57	8,535
870,75	12,265
870,93	8,737
871,11	11,147
871,29	10,160
871,46	5,298
871,64	12,552
871,82	7,643
872,00	13,786
872,18	4,325
872,35	11,238
872,53	5,263
872,71	8,571
872,89	8,811
873,06	8,827
873,24	12,124
873,42	6,151
873,60	8,325
873,77	6,851
873,95	4,033
874,13	2,748
874,31	4,850
874,49	5,712
874,66	5,545
874,84	5,918
875,02	9,533
875,20	9,064
875,37	7,761
875,55	8,302
875,73	5,157
875,91	3,625
876,08	2,102
876,26	5,654
876,44	8,775
876,61	6,285
876,79	8,399
876,97	6,296
877,15	4,317
877,32	3,495
877,50	3,642
877,68	4,627
877,86	3,314
878,03	9,843
878,21	2,534
878,39	6,095
878,56	3,388
878,74	6,651
878,92	2,825
879,10	5,073
879,27	8,404
879,45	5,487
879,63	4,348
879,80	5,314
879,98	0,602
880,16	7,205
880,34	6,043
880,51	1,577
880,69	1,711
880,87	2,337
881,04	5,716
881,22	6,156
881,40	4,619
881,57	6,039
881,75	6,717
881,93	7,604
882,10	4,076
882,28	6,414
882,46	5,205
882,63	4,705
882,81	7,521
882,99	4,433
883,16	3,614
883,34	4,612
883,52	3,085
883,69	4,693
883,87	2,214
884,05	5,420
884,22	5,740
884,40	6,703
884,58	0,967
884,75	3,185
884,93	2,190
885,11	5,094
885,28	3,369
885,46	0,923
885,64	3,794
885,81	3,357
885,99	1,115
886,17	3,958
886,34	3,567
886,52	3,322
886,70	3,775
886,87	1,740
887,05	3,199
887,22	2,435
887,40	4,176
887,58	3,634
887,75	5,219
887,93	5,831
888,11	3,487
888,28	2,601
888,46	4,167
888,63	2,407
888,81	3,700
888,99	3,838
889,16	5,981
889,34	0,746
889,51	4,002
889,69	2,268
889,87	4,523
890,04	2,906
890,22	3,072
890,39	3,672
890,57	3,622
890,75	2,478
890,92	3,056
891,10	3,377
891,27	2,364
891,45	3,587
891,63	5,307
891,80	3,307
891,98	2,529
892,15	4,260
892,33	3,599
892,51	4,274
892,68	5,525
892,86	1,642
893,03	3,341
893,21	5,936
893,38	1,815
893,56	2,941
893,74	2,025
893,91	3,816
894,09	5,318
894,26	4,011
894,44	3,071
894,61	3,318
894,79	2,420
894,96	2,688
895,14	3,814
895,32	3,827
895,49	2,983
895,67	3,463
895,84	2,962
896,02	1,246
896,19	2,111
896,37	3,077
896,54	1,649
896,72	1,948
896,89	3,922
897,07	4,625
897,25	4,116
897,42	3,300
897,60	5,166
897,77	2,333
897,95	2,739
898,12	5,113
898,30	2,169
898,47	1,669
898,65	2,310
898,82	2,603
899,00	1,691
899,17	3,310
899,35	1,221
899,52	3,268
899,70	2,327
899,87	2,482
900,05	1,979
900,22	2,552
900,40	1,929
900,57	2,486
900,75	1,718
900,92	4,153
901,10	2,828
901,27	2,813
901,45	4,284
901,62	2,248
901,80	1,642
901,97	1,978
902,15	3,201
902,32	4,132
902,50	2,368
902,67	4,303
902,85	1,925
903,02	1,973
903,20	1,784
903,37	3,381
903,54	1,760
903,72	2,520
903,89	2,844
904,07	1,783
904,24	3,382
904,42	1,585
904,59	1,000
904,77	2,441
904,94	0,719
905,12	0,957
905,29	1,616
905,47	1,603
905,64	2,267
905,81	1,949
905,99	0,560
906,16	1,665
906,34	1,575
906,51	2,487
906,69	2,519
906,86	2,412
907,03	2,455
907,21	1,627
907,38	1,940
907,56	1,840
907,73	3,042
907,91	1,224
908,08	2,942
908,25	2,485
908,43	1,544
908,60	1,553
908,78	2,197
908,95	1,905
909,13	3,285
909,30	3,458
909,47	1,436
909,65	2,680
909,82	1,206
910,00	1,548
910,17	2,109
910,34	1,232
910,52	2,585
910,69	2,587
910,87	3,665
911,04	2,998
911,21	2,665
911,39	1,216
911,56	2,864
911,73	2,163
911,91	1,841
912,08	2,233
912,26	0,030
912,43	3,315
912,60	1,434
912,78	1,422
912,95	2,220
913,13	1,039
913,30	3,470
913,47	3,823
913,65	2,400
913,82	2,823
913,99	2,037
914,17	1,901
914,34	1,493
914,51	2,372
914,69	1,119
914,86	2,511
915,03	2,016
915,21	1,378
915,38	2,110
915,56	1,612
915,73	1,876
915,90	2,313
916,08	2,603
916,25	1,757
916,42	2,705
916,60	3,252
916,77	1,379
916,94	1,474
917,12	1,999
917,29	2,040
917,46	1,373
917,64	1,919
917,81	1,643
917,98	0,928
918,16	2,248
918,33	2,330
918,50	1,856
918,67	1,943
918,85	1,196
919,02	1,865
919,19	0,860
919,37	1,310
919,54	1,764
919,71	2,224
919,89	1,511
920,06	2,946
920,23	1,023
920,41	2,145
920,58	1,586
920,75	2,601
920,92	2,485
921,10	1,052
921,27	1,400
921,44	2,289
921,62	1,446
921,79	1,936
921,96	2,134
922,13	1,502
922,31	0,851
922,48	0,761
922,65	0,997
922,82	1,726
923,00	2,414
923,17	1,589
923,34	1,642
923,52	1,100
923,69	1,430
923,86	2,381
924,03	0,826
924,21	1,819
924,38	1,802
924,55	2,454
924,72	0,567
924,90	0,955
925,07	1,536
925,24	1,627
925,41	1,271
925,59	1,119
925,76	1,108
925,93	2,158
926,10	1,565
926,28	1,225
926,45	1,452
926,62	1,465
926,79	1,275
926,96	2,031
927,14	1,937
927,31	1,942
927,48	2,015
927,65	2,184
927,83	1,059
928,00	1,314
928,17	2,042
928,34	1,562
928,51	0,723
928,69	1,303
928,86	1,399
929,03	0,966
929,20	1,119
929,37	0,936
929,55	2,043
929,72	1,925
929,89	1,592
930,06	0,876
930,23	0,869
930,41	1,707
930,58	1,157
930,75	1,826
930,92	1,606
931,09	0,840
931,27	0,908
931,44	0,430
931,61	1,634
931,78	1,136
931,95	0,755
932,12	1,723
932,30	1,383
932,47	0,867
932,64	1,320
932,81	1,014
932,98	1,055
933,16	0,987
933,33	1,114
933,50	0,428
933,67	1,940
933,84	2,786
934,01	1,429
934,18	1,807
934,36	1,135
934,53	2,173
934,70	0,664
934,87	0,729
935,04	0,957
935,21	1,460
935,38	0,982
935,56	1,879
935,73	0,838
935,90	1,170
936,07	1,728
936,24	1,705
936,41	1,085
936,58	0,712
936,76	1,041
936,93	0,945
937,10	1,898
937,27	1,269
937,44	0,856
937,61	1,367
937,78	1,057
937,95	1,684
938,13	0,505
938,30	1,248
938,47	1,003
938,64	1,440
938,81	0,199
938,98	1,356
939,15	0,583
939,32	1,555
939,49	1,155
939,66	1,233
939,84	1,151
940,01	1,175
940,18	1,255
940,35	0,555
940,52	0,205
940,69	0,000
940,86	2,314
941,03	1,010
941,20	0,790
941,37	0,628
941,54	1,265
941,71	2,238
941,89	1,911
942,06	1,488
942,23	1,248
942,40	1,431
942,57	1,094
942,74	1,509
942,91	2,381
943,08	1,666
943,25	2,508
943,42	0,977
943,59	2,074
943,76	1,846
943,93	0,605
944,10	0,045
944,27	0,550
944,44	1,797
944,61	0,667
944,79	2,178
944,96	1,723
945,13	1,523
945,30	0,655
945,47	1,255
945,64	1,432
945,81	1,389
945,98	1,514
946,15	2,242
946,32	2,125
946,49	1,434
946,66	2,345
946,83	0,624
947,00	2,655
947,17	0,571
947,34	1,459
947,51	2,133
947,68	1,674
947,85	0,303
948,02	2,055
948,19	0,754
948,36	2,938
948,53	0,553
948,70	0,947
948,87	2,840
949,04	2,857
949,21	0,947
949,38	2,708
949,55	3,895
949,72	0,000
949,89	2,945
950,06	2,193
950,23	1,177
950,40	1,424
950,57	1,942
950,74	2,970
950,91	1,834
951,08	2,466
951,25	1,713
951,42	2,148
951,59	2,394
951,76	1,433
951,93	2,423
952,10	3,063
952,27	2,408
952,44	3,856
952,61	2,722
952,77	2,270
952,94	2,576
953,11	2,519
953,28	3,554
953,45	4,846
953,62	3,043
953,79	2,765
953,96	2,562
954,13	3,875
954,30	4,403
954,47	2,740
954,64	1,715
954,81	5,711
954,98	2,978
955,15	3,809
955,32	2,031
955,49	4,750
955,65	1,150
955,82	4,669
955,99	4,560
956,16	6,415
956,33	3,398
956,50	5,310
956,67	2,977
956,84	5,866
957,01	4,627
957,18	6,996
957,35	7,013
957,52	6,965
957,68	6,106
957,85	4,770
958,02	2,195
958,19	6,748
958,36	7,712
958,53	3,588
958,70	8,465
958,87	5,489
959,04	2,965
959,21	12,687
959,37	11,089
959,54	9,424
959,71	8,105
959,88	2,209
960,05	6,170
960,22	5,157
960,39	5,905
960,56	6,266
960,72	7,341
960,89	8,859
961,06	7,479
961,23	3,364
961,40	8,370
961,57	9,744
961,74	7,680
961,90	6,676
962,07	13,752
962,24	4,494
962,41	12,586
962,58	13,712
962,75	13,846
962,92	5,614
963,08	7,500
963,25	2,789
963,42	13,855
963,59	3,901
963,76	11,133
963,93	18,534
964,10	4,072
964,26	17,143
964,43	3,953
964,60	19,490
964,77	14,765
964,94	16,543
965,10	5,850
965,27	16,201
965,44	9,841
965,61	3,082
965,78	10,248
965,95	19,652
966,11	22,121
966,28	22,626
966,45	24,183
966,62	16,376
966,79	8,874
966,95	8,541
967,12	21,905
967,29	27,160
967,46	34,164
967,63	20,000
967,79	38,591
967,96	24,312
968,13	34,286
968,30	41,564
968,47	23,462
968,63	24,510
968,80	45,594
968,97	26,012
969,14	40,113
969,31	26,020
969,47	41,304
969,64	34,066
969,81	30,323
969,98	19,474
970,14	30,645
970,31	33,962
970,48	37,584
970,65	28,926
970,81	32,867
970,98	47,396
971,15	71,515
971,32	68,182
971,48	90,476
971,65	27,152
971,82	44,545
971,99	53,797
972,15	52,326
972,32	72,222
972,49	55,738
972,66	23,140
972,82	50,685
972,99	-15,000
973,16	60,927
973,33	35,556
973,49	103,659
973,66	50,476
973,83	79,012
974,00	58,228
974,16	98,182
974,33	121,333
974,50	80,808
974,67	77,381
974,83	112,245
975,00	152,727
975,17	161,290
975,33	66,667
975,50	145,902
975,67	136,538
975,84	62,195
976,00	102,632
976,17	76,087
976,34	103,529
976,50	67,033
976,67	102,381
976,84	141,667
977,00	110,256
977,17	148,889
977,34	186,538
977,50	104,762
977,67	114,118
977,84	140,678
978,01	83,784
978,17	100,000
978,34	92,593
978,51	252,000
978,67	146,939
978,84	165,455
979,01	36,842
979,17	14,286
979,34	228,261
979,51	159,091
979,67	204,167
979,84	157,627
980,01	180,769
980,17	167,647
980,34	80,822
980,51	644,444
980,67	111,111
980,84	95,714
981,01	252,941
981,17	110,294
981,34	128,571
981,50	107,368
981,67	154,762
981,84	128,571
982,00	6300,000
982,17	117,188
982,34	221,951
982,50	0,000
982,67	-714,286
982,84	410,000
983,00	129,630
983,17	-885,714
983,33	588,889
983,50	104,878
983,67	134,783
983,83	185,714
984,00	365,217
984,17	655,556
984,33	-371,429
984,50	194,595
984,66	168,750
984,83	362,500
985,00	76,923
985,16	251,613
985,33	5350,000
985,49	89,535
985,66	145,000
985,83	-2966,667
985,99	55,556
986,16	484,211
986,32	121,918
986,49	-840,000
986,66	1100,000
986,82	151,515
986,99	-1040,000
987,15	233,333
987,32	305,882
987,49	57,143
987,65	-139,130
987,82	-60,000
987,98	93,939
988,15	485,714
988,31	251,429
988,48	203,922
988,65	590,000
988,81	143,636
988,98	343,243
989,14	830,000
989,31	161,017
989,47	-53,571
989,64	400,000
989,80	89,362
989,97	141,818
990,14	321,429
990,30	-625,000
990,47	-75,000
990,63	236,842
990,80	850,000
990,96	925,000
991,13	333,333
991,29	196,078
991,46	160,417
991,62	0,000
991,79	-280,000
991,95	476,471
992,12	1283,333
992,29	-252,381
992,45	192,857
992,62	-182,143
992,78	-350,000
992,95	267,742
993,11	450,000
993,28	-4900,000
993,44	-141,379
993,61	119,298
993,77	0,000
993,94	287,179
994,10	1271,429
994,27	-107,895
994,43	303,125
994,60	950,000
994,76	293,939
994,93	-670,000
995,09	-481,250
995,26	420,833
995,42	-75,000
995,59	140,000
995,75	-608,333
995,92	-1114,286
996,08	-1260,000
996,25	248,485
996,41	1360,000
996,58	280,000
996,74	-470,000
996,91	91,935
997,07	216,000
997,23	125,490
997,40	683,333
997,56	-2633,333
997,73	478,261
997,89	1100,000
998,06	124,561
998,22	176,596
998,39	224,490
998,55	463,158
998,72	-6300,000
998,88	172,000
999,05	580,000
999,21	123,529
999,37	269,767
999,54	312,903
999,70	190,476
999,87	1466,667
1000,03	320,000
1000,20	607,143
1000,36	-1137,500
1000,52	2250,000
1000,69	596,000
1000,85	-91,667
1001,02	371,429
1001,18	1280,000
1001,35	0,000
1001,51	557,143
1001,67	265,000
1001,84	173,171
1002,00	-581,818
1002,17	1650,000
1002,33	-437,500
1002,50	525,000
1002,66	825,000
1002,82	280,488
1002,99	-350,000
1003,15	-8200,000
1003,32	-171,429
1003,48	-1066,667
1003,64	386,957
1003,81	-173,684
1003,97	201,449
1004,14	-69,091
1004,30	400,000
1004,46	-10200,000
1004,63	-461,538
1004,79	124,324
1004,95	-600,000
1005,12	-269,231
1005,28	227,778
1005,45	-1266,667
1005,61	269,231
1005,77	-1000,000
1005,94	217,391
1006,10	-460,000
1006,26	-177,778
1006,43	181,818
1006,59	345,161
1006,76	-292,000
1006,92	286,957
1007,08	146,970
1007,25	175,000
1007,41	68,182
1007,57	-623,529
1007,74	143,478
1007,90	-385,714
1008,06	-480,000
1008,23	-352,632
1008,39	194,444
1008,55	110,588
1008,72	-900,000
1008,88	-80,000
1009,04	-811,111
1009,21	225,000
1009,37	480,645
1009,53	-360,000
1009,70	-7,576
1009,86	415,789
1010,02	220,455
1010,19	386,667
1010,35	8300,000
1010,51	368,571
1010,68	327,273
1010,84	270,000
1011,00	314,286
1011,17	3266,667
1011,33	223,077
1011,49	593,750
1011,66	281,250
1011,82	-1091,667
1011,98	806,667
1012,14	284,615
1012,31	315,909
1012,47	-342,857
1012,63	7900,000
1012,80	566,667
1012,96	136,111
1013,12	-185,185
1013,29	425,000
1013,45	-94,118
1013,61	-1560,000
1013,77	-911,111
1013,94	308,333
1014,10	4000,000
1014,26	-76,471
1014,43	300,000
1014,59	0,000
1014,75	740,000
1014,91	297,143
1015,08	234,615
1015,24	413,333
1015,40	613,333
1015,56	564,706
1015,73	193,878
1015,89	788,889
1016,05	229,730
1016,21	262,963
1016,38	284,211
1016,54	-400,000
1016,70	521,053
1016,86	-469,231
1017,03	0,000
1017,19	625,000
1017,35	216,667
1017,51	1933,333
1017,68	1314,286
1017,84	305,263
1018,00	238,095
1018,16	-543,750
1018,33	481,818
1018,49	485,714
1018,65	-440,909
1018,81	-114,634
1018,97	715,385
1019,14	-971,429
1019,30	295,238
1019,46	251,282
1019,62	3050,000
1019,79	-657,143
1019,95	-2050,000
1020,11	920,000
1020,27	292,500
1020,43	-887,500
1020,60	0,000
1020,76	139,706
1020,92	6400,000
1021,08	-100,000
1021,24	-2050,000
1021,41	296,970
1021,57	-275,000
1021,73	0,000
1021,89	-400,000
1022,05	231,429
1022,21	-546,154
1022,38	478,947
1022,54	1240,000
1022,70	277,778
1022,86	-4300,000
1023,02	755,556
1023,19	-305,000
1023,35	166,038
1023,51	274,194
1023,67	236,842
1023,83	363,636
1023,99	268,571
1024,16	10,769
1024,32	343,750
1024,48	283,673
1024,64	-420,000
1024,80	600,000
1024,96	561,538
1025,12	3700,000
1025,29	-700,000
1025,45	262,500
1025,61	2533,333
1025,77	304,762
1025,93	-400,000
1026,09	2250,000
1026,26	-1114,286
1026,42	-1700,000
1026,58	151,923
1026,74	414,286
1026,90	268,421
1027,06	-250,000
1027,22	-650,000
1027,38	1144,444
1027,55	-332,000
1027,71	1075,000
1027,87	215,000
1028,03	110,606
1028,19	-221,212
1028,35	132,432
1028,51	-17,742
1028,67	20,000
1028,83	166,667
1029,00	507,143
1029,16	-626,667
1029,32	435,294
1029,48	3850,000
1029,64	1057,143
1029,80	1483,333
1029,96	149,020
1030,12	-350,000
1030,28	1200,000
1030,44	-2900,000
1030,61	253,125
1030,77	-313,043
1030,93	165,116
1031,09	-292,857
1031,25	-922,222
1031,41	-2350,000
1031,57	-142,105
1031,73	545,455
1031,89	-51,515
1032,05	1214,286
1032,21	800,000
1032,37	-117,647
1032,53	-105,000
1032,69	-4300,000
1032,86	1466,667
1033,02	150,000
1033,18	-546,154
1033,34	-130,769
1033,50	167,742
1033,66	-355,556
1033,82	346,429
1033,98	-394,118
1034,14	1144,444
1034,30	-268,182
1034,46	316,667
1034,62	472,222
1034,78	144,444
1034,94	-41,935
1035,10	-327,273
1035,26	-600,000
1035,42	57,143
1035,58	1500,000
1035,74	-46,667
1035,90	-541,667
1036,06	175,472
1036,22	-392,000
1036,38	686,667
1036,54	590,000
1036,70	-4100,000
1036,86	-578,571
1037,02	-2800,000
1037,18	-146,429
1037,34	408,696
1037,50	-560,000
1037,66	-3533,333
1037,82	-358,824
1037,98	366,667
1038,14	-175,862
1038,30	44,231
1038,46	166,667
1038,62	174,194
1038,78	326,190
1038,94	-110,526
1039,10	-216,667
1039,26	-263,158
1039,42	-1157,143
1039,58	132,075
1039,74	115,625
1039,90	-41,026
1040,06	505,882
>>>>>End Processed Spectral Data<<<<<
