SpectraSuite Data File
++++++++++++++++++++++++++++++++++++
Date: Thu Feb 02 17:52:09 EET 2017
User: optolab
Dark Spectrum Present: Yes
Reference Spectrum Present: Yes
Number of Sampled Component Spectra: 1
Spectrometers: USB4C02475
Integration Time (usec): 100000 (USB4C02475)
Spectra Averaged: 1 (USB4C02475)
Boxcar Smoothing: 0 (USB4C02475)
Correct for Electrical Dark: No (USB4C02475)
Strobe/Lamp Enabled: No (USB4C02475)
Correct for Detector Non-linearity: No (USB4C02475)
Correct for Stray Light: No (USB4C02475)
Number of Pixels in Processed Spectrum: 3648
>>>>>Begin Processed Spectral Data<<<<<
344,91	-2050,000
345,13	-2050,000
345,35	-2050,000
345,57	-182,353
345,79	39,130
346,00	-132,353
346,22	-785,714
346,44	-139,394
346,66	265,957
346,87	260,870
347,09	630,769
347,31	9800,000
347,53	-1250,000
347,74	-179,070
347,96	-785,714
348,18	282,353
348,40	505,882
348,61	-200,000
348,83	5700,000
349,05	333,333
349,27	300,000
349,48	-3450,000
349,70	778,571
349,92	304,762
350,14	154,054
350,35	-607,692
350,57	-494,444
350,79	-10,256
351,01	-373,333
351,22	740,000
351,44	591,667
351,66	261,111
351,87	1366,667
352,09	132,895
352,31	142,857
352,53	317,143
352,74	-300,000
352,96	373,684
353,18	71,875
353,40	-950,000
353,61	520,000
353,83	210,417
354,05	321,875
354,26	421,429
354,48	-1120,000
354,70	476,190
354,92	275,000
355,13	-141,860
355,35	205,556
355,57	170,312
355,78	635,714
356,00	168,085
356,22	350,000
356,44	211,628
356,65	207,143
356,87	238,889
357,09	180,000
357,30	138,636
357,52	-866,667
357,74	367,742
357,95	262,857
358,17	94,203
358,39	296,000
358,60	200,000
358,82	254,545
359,04	312,821
359,26	222,727
359,47	-146,154
359,69	485,714
359,91	400,000
360,12	410,000
360,34	133,333
360,56	-4500,000
360,77	1066,667
360,99	479,167
361,21	252,174
361,42	-2375,000
361,64	-374,074
361,86	149,254
362,07	746,667
362,29	215,000
362,51	221,622
362,72	-980,000
362,94	314,815
363,16	162,857
363,37	909,091
363,59	-12300,000
363,81	1600,000
364,02	90,667
364,24	270,455
364,46	376,190
364,67	190,476
364,89	370,588
365,11	343,243
365,32	307,407
365,54	450,000
365,76	229,545
365,97	224,390
366,19	173,684
366,41	760,000
366,62	150,000
366,84	650,000
367,05	94,118
367,27	340,000
367,49	284,615
367,70	700,000
367,92	154,167
368,14	-300,000
368,35	154,412
368,57	221,212
368,79	226,923
369,00	112,821
369,22	405,556
369,43	457,895
369,65	-217,241
369,87	-576,471
370,08	545,000
370,30	657,143
370,51	481,818
370,73	186,111
370,95	400,000
371,16	164,912
371,38	256,604
371,60	190,000
371,81	161,957
372,03	-1650,000
372,24	-218,750
372,46	2833,333
372,68	188,235
372,89	131,193
373,11	200,000
373,32	101,681
373,54	645,455
373,76	305,556
373,97	230,303
374,19	-552,632
374,40	170,000
374,62	694,118
374,84	429,167
375,05	203,846
375,27	356,757
375,48	151,852
375,70	288,235
375,92	114,286
376,13	526,316
376,35	445,833
376,56	350,000
376,78	157,143
376,99	148,485
377,21	215,625
377,43	284,848
377,64	132,000
377,86	287,500
378,07	195,455
378,29	216,667
378,51	128,571
378,72	-95,455
378,94	89,130
379,15	206,818
379,37	531,250
379,58	100,000
379,80	118,182
380,01	192,000
380,23	221,739
380,45	143,750
380,66	102,778
380,88	189,189
381,09	417,391
381,31	238,462
381,52	282,609
381,74	183,929
381,95	360,714
382,17	352,000
382,39	119,355
382,60	517,647
382,82	365,517
383,03	2233,333
383,25	85,185
383,46	466,667
383,68	155,319
383,89	513,636
384,11	130,137
384,32	247,368
384,54	-1800,000
384,76	226,471
384,97	370,000
385,19	168,421
385,40	346,875
385,62	264,516
385,83	121,277
386,05	700,000
386,26	346,154
386,48	507,692
386,69	369,444
386,91	470,000
387,12	317,949
387,34	166,102
387,55	242,857
387,77	344,000
387,98	167,347
388,20	159,155
388,41	130,159
388,63	120,000
388,84	210,000
389,06	234,884
389,27	215,625
389,49	131,325
389,70	162,712
389,92	188,636
390,13	300,000
390,35	67,708
390,56	170,312
390,78	327,273
390,99	137,778
391,21	105,682
391,42	154,348
391,64	-700,000
391,85	139,655
392,07	-214,286
392,28	203,846
392,50	1920,000
392,71	6000,000
392,93	88,710
393,14	265,217
393,36	117,949
393,57	362,500
393,79	160,317
394,00	90,411
394,22	234,000
394,43	314,286
394,65	221,429
394,86	234,375
395,08	-1000,000
395,29	138,298
395,50	-5100,000
395,72	1028,571
395,93	404,000
396,15	-135,714
396,36	236,667
396,58	-357,143
396,79	193,023
397,01	323,810
397,22	136,232
397,44	204,255
397,65	129,730
397,87	142,857
398,08	369,231
398,29	-8,333
398,51	285,366
398,72	258,696
398,94	246,512
399,15	148,333
399,37	176,087
399,58	150,794
399,80	446,667
400,01	285,294
400,22	442,857
400,44	342,857
400,65	112,329
400,87	7900,000
401,08	120,225
401,30	93,333
401,51	107,273
401,72	77,419
401,94	143,902
402,15	122,449
402,37	147,727
402,58	202,326
402,80	468,750
403,01	166,667
403,22	130,120
403,44	175,000
403,65	108,163
403,87	110,667
404,08	157,692
404,30	215,625
404,51	110,000
404,72	872,727
404,94	77,108
405,15	108,955
405,37	120,879
405,58	203,226
405,79	521,429
406,01	70,370
406,22	51,190
406,44	73,684
406,65	136,905
406,86	125,000
407,08	46,914
407,29	70,667
407,51	53,846
407,72	60,396
407,93	87,342
408,15	97,727
408,36	214,286
408,58	77,500
408,79	55,814
409,00	60,284
409,22	42,157
409,43	64,865
409,64	47,436
409,86	92,045
410,07	17,391
410,29	22,667
410,50	50,794
410,71	75,806
410,93	10,891
411,14	50,467
411,35	37,500
411,57	22,222
411,78	67,647
412,00	31,333
412,21	30,973
412,42	58,049
412,64	66,111
412,85	29,534
413,06	49,554
413,28	36,863
413,49	36,744
413,70	28,755
413,92	40,952
414,13	23,320
414,34	33,086
414,56	25,957
414,77	17,343
414,98	31,095
415,20	36,201
415,41	26,623
415,63	36,467
415,84	27,701
416,05	20,482
416,27	16,156
416,48	26,777
416,69	17,442
416,91	6,400
417,12	6,561
417,33	12,415
417,55	23,800
417,76	16,279
417,97	19,476
418,19	6,695
418,40	6,397
418,61	12,350
418,83	11,092
419,04	11,008
419,25	12,281
419,46	16,372
419,68	10,324
419,89	11,067
420,10	13,172
420,32	6,490
420,53	10,024
420,74	8,602
420,96	8,057
421,17	8,666
421,38	11,543
421,60	4,287
421,81	6,006
422,02	2,944
422,23	5,804
422,45	2,871
422,66	4,682
422,87	6,616
423,09	4,120
423,30	7,413
423,51	5,353
423,73	4,325
423,94	3,682
424,15	4,615
424,36	6,594
424,58	4,643
424,79	4,880
425,00	2,730
425,22	3,235
425,43	5,520
425,64	0,726
425,85	3,044
426,07	2,946
426,28	3,097
426,49	3,001
426,71	2,087
426,92	3,311
427,13	1,471
427,34	0,896
427,56	3,937
427,77	1,656
427,98	2,380
428,19	2,520
428,41	3,406
428,62	3,501
428,83	2,054
429,04	2,637
429,26	1,775
429,47	3,813
429,68	0,871
429,89	0,978
430,11	2,228
430,32	4,193
430,53	1,444
430,74	2,270
430,96	1,958
431,17	2,728
431,38	1,930
431,59	1,879
431,81	1,244
432,02	1,888
432,23	2,973
432,44	2,118
432,66	1,433
432,87	1,036
433,08	2,439
433,29	1,498
433,51	2,472
433,72	1,479
433,93	1,198
434,14	1,228
434,35	0,892
434,57	0,945
434,78	1,583
434,99	0,948
435,20	0,934
435,42	1,615
435,63	0,656
435,84	1,660
436,05	1,089
436,26	0,152
436,48	1,657
436,69	1,141
436,90	0,874
437,11	1,149
437,32	1,141
437,54	0,939
437,75	1,124
437,96	1,516
438,17	1,217
438,38	0,900
438,60	1,145
438,81	0,931
439,02	1,009
439,23	1,080
439,44	0,464
439,66	0,672
439,87	0,911
440,08	0,659
440,29	1,252
440,50	1,241
440,72	0,874
440,93	0,925
441,14	0,667
441,35	0,583
441,56	0,681
441,77	0,590
441,99	0,470
442,20	0,722
442,41	0,492
442,62	0,374
442,83	0,669
443,04	0,392
443,26	0,863
443,47	0,886
443,68	0,589
443,89	0,732
444,10	0,697
444,31	1,003
444,53	0,956
444,74	0,464
444,95	0,256
445,16	0,632
445,37	0,496
445,58	0,432
445,80	0,650
446,01	0,914
446,22	0,847
446,43	0,632
446,64	0,593
446,85	0,455
447,06	0,734
447,28	0,557
447,49	0,457
447,70	0,702
447,91	0,663
448,12	0,536
448,33	0,659
448,54	0,500
448,76	0,603
448,97	0,792
449,18	0,653
449,39	0,675
449,60	0,505
449,81	0,842
450,02	0,773
450,23	0,944
450,45	0,815
450,66	0,807
450,87	0,723
451,08	0,834
451,29	1,116
451,50	0,852
451,71	0,950
451,92	1,016
452,13	1,396
452,35	1,086
452,56	1,197
452,77	1,825
452,98	2,053
453,19	2,621
453,40	3,167
453,61	4,439
453,82	5,658
454,03	7,562
454,25	9,670
454,46	11,603
454,67	14,429
454,88	18,044
455,09	20,935
455,30	23,738
455,51	26,830
455,72	30,361
455,93	32,769
456,14	37,255
456,35	39,034
456,56	41,992
456,78	44,733
456,99	47,540
457,20	48,969
457,41	52,669
457,62	55,037
457,83	58,541
458,04	62,093
458,25	65,323
458,46	70,267
458,67	73,434
458,88	77,507
459,09	80,862
459,30	84,576
459,51	86,335
459,73	88,575
459,94	90,604
460,15	92,390
460,36	93,405
460,57	94,569
460,78	94,304
460,99	95,388
461,20	94,974
461,41	93,911
461,62	93,930
461,83	95,024
462,04	92,074
462,25	93,071
462,46	92,733
462,67	91,167
462,88	92,285
463,09	92,732
463,30	91,706
463,51	93,496
463,72	93,502
463,93	93,792
464,15	92,352
464,36	92,596
464,57	93,308
464,78	92,673
464,99	92,021
465,20	91,658
465,41	91,339
465,62	90,130
465,83	90,089
466,04	90,145
466,25	89,427
466,46	89,168
466,67	89,423
466,88	90,995
467,09	90,212
467,30	91,457
467,51	91,390
467,72	92,080
467,93	93,429
468,14	94,033
468,35	93,502
468,56	93,526
468,77	93,657
468,98	94,179
469,19	96,273
469,40	95,078
469,61	94,945
469,82	95,842
470,03	95,800
470,24	94,486
470,45	95,380
470,66	95,071
470,87	94,316
471,08	95,499
471,29	95,760
471,50	94,455
471,71	93,960
471,92	93,976
472,13	93,088
472,34	92,625
472,55	92,018
472,76	90,686
472,97	90,510
473,18	89,423
473,39	88,331
473,60	86,662
473,81	84,114
474,01	83,930
474,22	82,225
474,43	80,228
474,64	78,257
474,85	75,904
475,06	73,011
475,27	70,589
475,48	66,471
475,69	63,342
475,90	60,633
476,11	56,774
476,32	52,525
476,53	49,907
476,74	45,887
476,95	41,105
477,16	37,733
477,37	33,578
477,58	29,215
477,79	26,481
478,00	22,757
478,21	19,887
478,41	17,134
478,62	14,514
478,83	12,121
479,04	9,943
479,25	8,124
479,46	6,717
479,67	5,200
479,88	4,030
480,09	3,330
480,30	2,535
480,51	2,323
480,72	1,343
480,93	1,223
481,14	0,948
481,34	1,089
481,55	0,891
481,76	0,760
481,97	0,660
482,18	0,459
482,39	0,702
482,60	0,642
482,81	0,549
483,02	0,619
483,23	0,642
483,44	0,532
483,65	0,502
483,85	0,481
484,06	0,623
484,27	0,518
484,48	0,486
484,69	0,701
484,90	0,328
485,11	0,621
485,32	0,415
485,53	0,602
485,73	0,393
485,94	0,542
486,15	0,416
486,36	0,514
486,57	0,470
486,78	0,607
486,99	0,397
487,20	0,418
487,41	0,439
487,61	0,462
487,82	0,231
488,03	0,366
488,24	0,524
488,45	0,368
488,66	0,441
488,87	0,456
489,08	0,565
489,28	0,315
489,49	0,314
489,70	0,381
489,91	0,358
490,12	0,192
490,33	0,253
490,54	0,234
490,74	0,457
490,95	0,436
491,16	0,347
491,37	0,552
491,58	0,406
491,79	0,356
492,00	0,315
492,20	0,461
492,41	0,235
492,62	0,401
492,83	0,275
493,04	0,375
493,25	0,465
493,45	0,232
493,66	0,492
493,87	0,212
494,08	0,321
494,29	0,322
494,50	0,268
494,70	0,428
494,91	0,452
495,12	0,275
495,33	0,517
495,54	0,419
495,75	0,462
495,95	0,384
496,16	0,407
496,37	0,381
496,58	0,204
496,79	0,333
496,99	0,138
497,20	0,465
497,41	0,281
497,62	0,294
497,83	0,343
498,04	0,275
498,24	0,346
498,45	0,173
498,66	0,448
498,87	0,283
499,08	0,295
499,28	0,312
499,49	0,196
499,70	0,313
499,91	0,320
500,12	0,248
500,32	0,541
500,53	0,170
500,74	0,386
500,95	0,170
501,15	0,313
501,36	0,345
501,57	0,307
501,78	0,367
501,99	0,176
502,19	0,305
502,40	0,405
502,61	0,234
502,82	0,337
503,02	0,257
503,23	0,357
503,44	0,371
503,65	0,402
503,86	0,193
504,06	0,313
504,27	0,468
504,48	0,379
504,69	0,315
504,89	0,138
505,10	0,313
505,31	0,494
505,52	0,388
505,72	0,362
505,93	0,353
506,14	0,147
506,35	0,323
506,55	0,176
506,76	0,071
506,97	0,383
507,18	0,337
507,38	0,241
507,59	0,417
507,80	0,268
508,01	0,174
508,21	0,376
508,42	0,394
508,63	0,346
508,84	0,533
509,04	0,395
509,25	0,329
509,46	0,226
509,67	0,537
509,87	0,461
510,08	0,358
510,29	0,346
510,49	0,365
510,70	0,373
510,91	0,493
511,12	0,364
511,32	0,500
511,53	0,224
511,74	0,346
511,94	0,253
512,15	0,249
512,36	0,271
512,57	0,376
512,77	0,372
512,98	0,389
513,19	0,524
513,39	0,448
513,60	0,213
513,81	0,373
514,01	0,472
514,22	0,389
514,43	0,412
514,64	0,428
514,84	0,525
515,05	0,496
515,26	0,487
515,46	0,185
515,67	0,293
515,88	0,367
516,08	0,498
516,29	0,232
516,50	0,255
516,70	0,275
516,91	0,462
517,12	0,471
517,32	0,279
517,53	0,281
517,74	0,394
517,95	0,512
518,15	0,477
518,36	0,418
518,57	0,447
518,77	0,337
518,98	0,374
519,19	0,275
519,39	0,450
519,60	0,302
519,80	0,340
520,01	0,344
520,22	0,366
520,42	0,316
520,63	0,318
520,84	0,303
521,04	0,366
521,25	0,347
521,46	0,401
521,66	0,283
521,87	0,439
522,08	0,217
522,28	0,360
522,49	0,280
522,70	0,331
522,90	0,360
523,11	0,216
523,31	0,328
523,52	0,498
523,73	0,371
523,93	0,404
524,14	0,484
524,35	0,422
524,55	0,526
524,76	0,288
524,97	0,415
525,17	0,271
525,38	0,238
525,58	0,267
525,79	0,380
526,00	0,419
526,20	0,390
526,41	0,346
526,61	0,339
526,82	0,375
527,03	0,422
527,23	0,252
527,44	0,380
527,64	0,373
527,85	0,185
528,06	0,564
528,26	0,385
528,47	0,416
528,68	0,468
528,88	0,371
529,09	0,256
529,29	0,468
529,50	0,531
529,70	0,638
529,91	0,318
530,12	0,406
530,32	0,529
530,53	0,534
530,73	0,545
530,94	0,558
531,15	0,495
531,35	0,636
531,56	0,685
531,76	0,735
531,97	0,558
532,17	0,680
532,38	0,889
532,59	0,946
532,79	1,378
533,00	1,228
533,20	1,530
533,41	1,958
533,61	2,286
533,82	3,003
534,03	3,636
534,23	4,740
534,44	5,662
534,64	6,737
534,85	8,353
535,05	9,761
535,26	11,615
535,46	13,489
535,67	15,449
535,88	17,675
536,08	20,582
536,29	22,803
536,49	25,440
536,70	27,886
536,90	30,306
537,11	32,126
537,31	33,909
537,52	36,457
537,72	37,870
537,93	39,210
538,13	40,493
538,34	40,849
538,55	42,238
538,75	43,404
538,96	44,386
539,16	45,618
539,37	46,678
539,57	48,202
539,78	49,854
539,98	51,758
540,19	54,009
540,39	56,058
540,60	59,244
540,80	61,418
541,01	64,866
541,21	67,723
541,42	70,793
541,62	73,934
541,83	76,596
542,03	78,345
542,24	81,278
542,44	83,103
542,65	85,065
542,85	84,122
543,06	86,538
543,26	86,927
543,47	86,900
543,67	88,432
543,88	88,007
544,08	88,890
544,29	88,237
544,49	86,551
544,70	87,226
544,90	86,757
545,11	86,318
545,31	85,129
545,52	82,696
545,72	82,581
545,93	81,866
546,13	79,610
546,34	78,829
546,54	76,294
546,75	73,385
546,95	70,682
547,15	68,823
547,36	66,344
547,56	63,104
547,77	60,649
547,97	58,279
548,18	56,360
548,38	54,336
548,59	52,797
548,79	49,684
549,00	48,649
549,20	45,917
549,41	44,574
549,61	42,805
549,81	40,837
550,02	39,429
550,22	36,669
550,43	35,659
550,63	33,460
550,84	31,423
551,04	29,674
551,25	26,981
551,45	24,956
551,65	22,623
551,86	20,247
552,06	18,521
552,27	16,399
552,47	14,063
552,68	11,603
552,88	9,696
553,08	8,176
553,29	6,328
553,49	5,271
553,70	4,163
553,90	3,259
554,11	2,773
554,31	1,954
554,51	1,680
554,72	1,199
554,92	1,132
555,13	0,808
555,33	0,594
555,53	0,696
555,74	0,592
555,94	0,566
556,15	0,540
556,35	0,408
556,56	0,298
556,76	0,288
556,96	0,517
557,17	0,566
557,37	0,555
557,58	0,444
557,78	0,399
557,98	0,363
558,19	0,331
558,39	0,266
558,59	0,417
558,80	0,300
559,00	0,288
559,21	0,410
559,41	0,368
559,61	0,300
559,82	0,315
560,02	0,500
560,23	0,433
560,43	0,275
560,63	0,226
560,84	0,508
561,04	0,374
561,24	0,470
561,45	0,445
561,65	0,431
561,85	0,275
562,06	0,384
562,26	0,190
562,47	0,472
562,67	0,291
562,87	0,246
563,08	0,364
563,28	0,332
563,48	0,342
563,69	0,295
563,89	0,374
564,09	0,331
564,30	0,152
564,50	0,144
564,70	0,315
564,91	0,141
565,11	0,322
565,31	0,387
565,52	0,118
565,72	0,463
565,92	0,114
566,13	0,120
566,33	0,328
566,53	0,257
566,74	0,131
566,94	0,360
567,14	0,329
567,35	0,271
567,55	0,380
567,75	0,469
567,96	0,315
568,16	0,278
568,36	0,227
568,57	0,335
568,77	0,082
568,97	0,314
569,18	0,469
569,38	0,290
569,58	0,217
569,79	0,209
569,99	0,285
570,19	0,273
570,39	0,238
570,60	0,392
570,80	0,380
571,00	0,178
571,21	0,332
571,41	0,301
571,61	0,407
571,82	0,524
572,02	0,240
572,22	0,096
572,42	0,285
572,63	0,309
572,83	0,310
573,03	0,254
573,24	0,315
573,44	0,233
573,64	0,326
573,84	0,138
574,05	0,203
574,25	0,337
574,45	0,243
574,66	0,392
574,86	0,270
575,06	0,363
575,26	0,262
575,47	0,366
575,67	0,319
575,87	0,374
576,07	0,206
576,28	0,299
576,48	0,304
576,68	0,384
576,88	0,277
577,09	0,147
577,29	0,474
577,49	0,287
577,69	0,144
577,90	0,280
578,10	0,140
578,30	0,438
578,50	0,303
578,71	0,398
578,91	0,262
579,11	0,368
579,31	0,373
579,52	0,371
579,72	0,287
579,92	0,325
580,12	0,364
580,33	0,329
580,53	0,193
580,73	0,197
580,93	0,251
581,13	0,256
581,34	0,194
581,54	0,347
581,74	0,303
581,94	0,379
582,15	0,377
582,35	0,124
582,55	0,260
582,75	0,322
582,95	0,452
583,16	0,386
583,36	0,255
583,56	0,207
583,76	0,354
583,96	0,228
584,17	0,226
584,37	0,268
584,57	0,375
584,77	0,151
584,97	0,264
585,18	0,302
585,38	0,317
585,58	0,309
585,78	0,311
585,98	0,300
586,19	0,409
586,39	0,422
586,59	0,395
586,79	0,315
586,99	0,245
587,20	0,234
587,40	0,407
587,60	0,188
587,80	0,343
588,00	0,293
588,20	0,277
588,41	0,329
588,61	0,366
588,81	0,357
589,01	0,243
589,21	0,421
589,41	0,301
589,62	0,256
589,82	0,256
590,02	0,237
590,22	0,311
590,42	0,412
590,62	0,377
590,83	0,183
591,03	0,232
591,23	0,323
591,43	0,280
591,63	0,274
591,83	0,195
592,03	0,383
592,24	0,369
592,44	0,288
592,64	0,386
592,84	0,346
593,04	0,329
593,24	0,403
593,44	0,261
593,65	0,264
593,85	0,444
594,05	0,277
594,25	0,225
594,45	0,378
594,65	0,331
594,85	0,195
595,06	0,291
595,26	0,480
595,46	0,239
595,66	0,342
595,86	0,327
596,06	0,364
596,26	0,141
596,46	0,496
596,66	0,312
596,87	0,416
597,07	0,405
597,27	0,287
597,47	0,332
597,67	0,463
597,87	0,217
598,07	0,194
598,27	0,495
598,47	0,393
598,67	0,279
598,88	0,425
599,08	0,347
599,28	0,432
599,48	0,330
599,68	0,492
599,88	0,397
600,08	0,370
600,28	0,461
600,48	0,382
600,68	0,388
600,88	0,508
601,09	0,454
601,29	0,579
601,49	0,342
601,69	0,531
601,89	0,516
602,09	0,521
602,29	0,414
602,49	0,432
602,69	0,700
602,89	0,727
603,09	0,904
603,29	1,188
603,49	1,246
603,69	1,688
603,90	1,772
604,10	2,126
604,30	2,818
604,50	3,406
604,70	4,148
604,90	4,917
605,10	5,991
605,30	7,484
605,50	8,726
605,70	10,271
605,90	12,010
606,10	14,365
606,30	16,707
606,50	19,209
606,70	21,546
606,90	24,442
607,10	27,567
607,30	31,472
607,50	34,304
607,70	38,077
607,90	40,941
608,10	44,199
608,30	48,040
608,50	50,837
608,70	54,352
608,90	57,822
609,11	61,419
609,31	62,926
609,51	65,667
609,71	68,450
609,91	71,159
610,11	73,418
610,31	75,875
610,51	77,847
610,71	79,758
610,91	81,831
611,11	83,519
611,31	84,847
611,51	85,757
611,71	87,780
611,91	90,010
612,11	89,715
612,31	90,755
612,51	91,163
612,71	92,003
612,91	92,543
613,11	92,583
613,31	92,211
613,51	92,427
613,71	92,326
613,91	94,002
614,11	94,129
614,31	93,854
614,50	93,693
614,70	93,763
614,90	93,557
615,10	93,924
615,30	94,290
615,50	94,550
615,70	95,191
615,90	96,021
616,10	95,485
616,30	95,966
616,50	93,617
616,70	96,116
616,90	95,115
617,10	96,026
617,30	96,247
617,50	96,545
617,70	96,826
617,90	95,939
618,10	95,960
618,30	96,188
618,50	95,937
618,70	95,500
618,90	95,102
619,10	94,591
619,30	94,427
619,49	93,177
619,69	92,968
619,89	91,904
620,09	91,900
620,29	90,424
620,49	89,105
620,69	86,672
620,89	86,411
621,09	83,716
621,29	81,028
621,49	79,417
621,69	77,175
621,89	75,992
622,09	73,217
622,29	70,856
622,48	69,136
622,68	66,630
622,88	63,974
623,08	62,102
623,28	60,897
623,48	59,077
623,68	57,297
623,88	56,174
624,08	54,601
624,28	53,564
624,48	52,256
624,67	50,320
624,87	49,872
625,07	48,509
625,27	47,167
625,47	46,000
625,67	45,587
625,87	44,184
626,07	42,993
626,27	41,210
626,47	39,924
626,66	38,274
626,86	36,576
627,06	34,493
627,26	32,716
627,46	31,030
627,66	28,933
627,86	26,437
628,06	24,241
628,25	21,665
628,45	19,505
628,65	17,083
628,85	14,837
629,05	12,723
629,25	10,719
629,45	9,055
629,65	7,473
629,84	6,286
630,04	5,053
630,24	4,167
630,44	3,371
630,64	2,838
630,84	2,166
631,04	1,992
631,23	1,294
631,43	1,004
631,63	0,864
631,83	0,737
632,03	0,835
632,23	0,756
632,42	0,566
632,62	0,691
632,82	0,544
633,02	0,463
633,22	0,322
633,42	0,496
633,62	0,317
633,81	0,290
634,01	0,531
634,21	0,487
634,41	0,387
634,61	0,526
634,80	0,488
635,00	0,498
635,20	0,438
635,40	0,082
635,60	0,392
635,80	0,492
635,99	0,669
636,19	0,337
636,39	0,277
636,59	0,380
636,79	0,448
636,98	0,423
637,18	0,322
637,38	0,467
637,58	0,167
637,78	0,405
637,97	0,518
638,17	0,343
638,37	0,571
638,57	0,224
638,77	0,534
638,96	0,223
639,16	0,219
639,36	0,327
639,56	0,669
639,76	0,353
639,95	0,118
640,15	0,465
640,35	0,285
640,55	0,647
640,75	0,555
640,94	0,539
641,14	0,764
641,34	0,358
641,54	0,567
641,73	0,363
641,93	0,513
642,13	0,303
642,33	0,293
642,53	0,532
642,72	0,584
642,92	0,566
643,12	0,266
643,32	0,686
643,51	0,608
643,71	0,174
643,91	0,481
644,11	0,527
644,30	0,357
644,50	0,663
644,70	0,237
644,90	0,338
645,09	0,609
645,29	0,440
645,49	0,556
645,69	0,654
645,88	0,216
646,08	0,022
646,28	0,694
646,48	0,295
646,67	0,138
646,87	0,590
647,07	0,679
647,26	0,686
647,46	0,673
647,66	0,159
647,86	0,922
648,05	0,766
648,25	0,984
648,45	0,433
648,65	0,642
648,84	0,238
649,04	0,617
649,24	0,740
649,43	0,465
649,63	0,357
649,83	0,532
650,03	0,942
650,22	0,784
650,42	0,508
650,62	0,791
650,81	0,741
651,01	0,647
651,21	0,714
651,40	0,694
651,60	0,470
651,80	0,596
652,00	0,650
652,19	0,746
652,39	0,683
652,59	0,584
652,78	0,558
652,98	0,091
653,18	0,661
653,37	0,359
653,57	0,675
653,77	0,544
653,96	0,322
654,16	0,681
654,36	0,653
654,55	0,573
654,75	0,630
654,95	0,579
655,14	0,535
655,34	0,982
655,54	0,723
655,73	0,313
655,93	0,724
656,13	0,408
656,32	-0,079
656,52	0,415
656,72	0,530
656,91	0,671
657,11	0,638
657,31	0,374
657,50	0,802
657,70	0,963
657,90	1,147
658,09	0,434
658,29	0,216
658,49	0,462
658,68	0,817
658,88	0,671
659,07	0,444
659,27	0,349
659,47	0,253
659,66	0,274
659,86	0,480
660,06	0,337
660,25	0,080
660,45	0,781
660,64	0,237
660,84	0,706
661,04	0,254
661,23	0,361
661,43	0,580
661,63	0,697
661,82	0,104
662,02	1,051
662,21	0,523
662,41	0,708
662,61	0,658
662,80	0,413
663,00	0,121
663,19	1,039
663,39	0,380
663,59	0,740
663,78	0,902
663,98	0,316
664,17	0,596
664,37	0,577
664,57	0,429
664,76	0,705
664,96	-0,034
665,15	0,340
665,35	0,534
665,55	0,384
665,74	0,658
665,94	0,582
666,13	0,416
666,33	0,802
666,53	0,593
666,72	0,666
666,92	0,717
667,11	0,482
667,31	0,058
667,50	0,290
667,70	0,616
667,90	0,123
668,09	0,271
668,29	0,434
668,48	0,439
668,68	0,349
668,87	0,467
669,07	0,288
669,26	0,313
669,46	0,585
669,66	0,356
669,85	0,600
670,05	0,434
670,24	0,536
670,44	0,268
670,63	0,218
670,83	0,499
671,02	0,376
671,22	0,612
671,42	0,463
671,61	0,330
671,81	0,200
672,00	0,742
672,20	0,319
672,39	0,413
672,59	0,330
672,78	0,256
672,98	0,233
673,17	0,415
673,37	0,225
673,56	0,203
673,76	0,116
673,95	0,408
674,15	0,614
674,34	0,079
674,54	0,578
674,73	0,476
674,93	0,411
675,13	0,592
675,32	0,456
675,52	0,560
675,71	0,350
675,91	0,524
676,10	0,680
676,30	0,460
676,49	0,142
676,69	0,548
676,88	0,323
677,08	0,426
677,27	0,313
677,47	0,442
677,66	0,343
677,86	0,474
678,05	0,358
678,24	0,267
678,44	0,531
678,63	0,286
678,83	0,334
679,02	0,486
679,22	0,494
679,41	0,476
679,61	0,255
679,80	0,521
680,00	0,065
680,19	0,240
680,39	0,389
680,58	0,447
680,78	0,281
680,97	0,353
681,17	0,459
681,36	0,175
681,56	0,191
681,75	0,101
681,94	0,171
682,14	0,509
682,33	0,417
682,53	0,238
682,72	0,387
682,92	0,491
683,11	0,153
683,31	0,304
683,50	0,172
683,69	0,340
683,89	0,293
684,08	0,299
684,28	0,214
684,47	0,336
684,67	0,263
684,86	0,217
685,06	0,321
685,25	0,246
685,44	0,010
685,64	0,394
685,83	0,323
686,03	0,230
686,22	0,200
686,42	0,125
686,61	0,268
686,80	0,187
687,00	0,068
687,19	0,315
687,39	0,231
687,58	0,225
687,77	0,265
687,97	0,304
688,16	0,296
688,36	0,235
688,55	-0,004
688,74	0,043
688,94	0,154
689,13	0,277
689,33	0,121
689,52	0,354
689,71	0,195
689,91	0,178
690,10	0,309
690,30	0,125
690,49	0,111
690,68	0,341
690,88	0,123
691,07	0,166
691,27	0,176
691,46	0,237
691,65	0,241
691,85	0,165
692,04	0,166
692,23	0,044
692,43	0,265
692,62	0,423
692,82	0,168
693,01	0,215
693,20	0,129
693,40	0,168
693,59	0,057
693,78	0,394
693,98	0,029
694,17	0,025
694,36	0,432
694,56	0,198
694,75	0,145
694,94	0,196
695,14	0,144
695,33	0,352
695,53	0,325
695,72	0,425
695,91	-0,097
696,11	0,165
696,30	0,207
696,49	0,171
696,69	0,335
696,88	0,223
697,07	0,390
697,27	0,351
697,46	0,225
697,65	0,176
697,85	0,018
698,04	0,478
698,23	0,164
698,43	0,468
698,62	0,129
698,81	0,191
699,01	0,349
699,20	0,505
699,39	0,238
699,58	0,060
699,78	0,015
699,97	0,306
700,16	0,412
700,36	0,735
700,55	0,328
700,74	0,149
700,94	0,027
701,13	0,379
701,32	0,447
701,52	0,379
701,71	0,543
701,90	0,651
702,09	0,770
702,29	0,796
702,48	0,387
702,67	0,678
702,87	1,170
703,06	0,639
703,25	1,039
703,44	0,134
703,64	0,719
703,83	0,802
704,02	0,605
704,22	0,620
704,41	0,480
704,60	1,090
704,79	1,298
704,99	1,291
705,18	1,203
705,37	0,897
705,56	0,833
705,76	1,499
705,95	1,608
706,14	1,722
706,33	1,282
706,53	1,115
706,72	0,711
706,91	0,778
707,11	0,924
707,30	1,168
707,49	1,141
707,68	1,296
707,88	1,310
708,07	0,463
708,26	1,094
708,45	0,260
708,64	1,922
708,84	0,997
709,03	1,946
709,22	1,087
709,41	1,789
709,61	1,015
709,80	2,373
709,99	2,133
710,18	2,806
710,38	1,164
710,57	1,144
710,76	0,426
710,95	2,265
711,14	2,218
711,34	2,099
711,53	3,780
711,72	2,463
711,91	3,247
712,11	2,383
712,30	0,731
712,49	2,527
712,68	0,475
712,87	2,122
713,07	2,931
713,26	1,916
713,45	0,541
713,64	2,794
713,83	1,803
714,03	2,507
714,22	2,489
714,41	3,305
714,60	1,756
714,79	1,440
714,99	2,179
715,18	2,831
715,37	4,491
715,56	2,696
715,75	2,351
715,94	4,183
716,14	4,548
716,33	2,758
716,52	2,358
716,71	4,570
716,90	1,276
717,10	0,724
717,29	3,770
717,48	0,890
717,67	4,287
717,86	3,979
718,05	2,518
718,24	4,162
718,44	3,925
718,63	3,650
718,82	3,248
719,01	4,670
719,20	3,048
719,39	4,444
719,59	-0,326
719,78	4,542
719,97	2,811
720,16	4,973
720,35	1,514
720,54	3,005
720,73	5,597
720,93	1,735
721,12	1,006
721,31	3,717
721,50	5,600
721,69	4,981
721,88	5,376
722,07	3,826
722,27	3,513
722,46	2,024
722,65	0,556
722,84	5,000
723,03	5,474
723,22	6,044
723,41	5,399
723,60	-0,409
723,79	8,003
723,99	3,604
724,18	3,719
724,37	1,362
724,56	5,026
724,75	5,217
724,94	7,179
725,13	4,893
725,32	8,641
725,51	5,209
725,71	3,549
725,90	7,278
726,09	5,205
726,28	3,908
726,47	2,860
726,66	5,776
726,85	8,341
727,04	4,281
727,23	4,011
727,42	9,063
727,61	11,523
727,81	1,622
728,00	3,326
728,19	4,767
728,38	2,293
728,57	6,146
728,76	3,648
728,95	10,729
729,14	6,926
729,33	5,806
729,52	3,825
729,71	4,338
729,90	5,604
730,09	6,557
730,28	5,751
730,48	8,578
730,67	9,933
730,86	8,983
731,05	3,034
731,24	3,659
731,43	5,923
731,62	6,644
731,81	6,243
732,00	11,018
732,19	1,803
732,38	6,026
732,57	9,291
732,76	7,524
732,95	7,465
733,14	-5,595
733,33	1,455
733,52	8,427
733,71	8,895
733,90	3,672
734,09	7,568
734,28	6,037
734,47	5,833
734,66	7,754
734,85	5,429
735,04	2,853
735,23	9,804
735,42	9,973
735,61	6,414
735,81	4,734
736,00	3,989
736,19	14,742
736,38	6,737
736,57	11,111
736,76	7,299
736,95	7,803
737,14	7,656
737,33	11,315
737,52	6,923
737,71	5,738
737,90	10,355
738,09	12,177
738,28	12,108
738,47	5,657
738,66	8,494
738,85	6,156
739,04	6,690
739,22	7,358
739,41	2,757
739,60	3,754
739,79	5,935
739,98	6,810
740,17	8,362
740,36	14,467
740,55	8,439
740,74	13,894
740,93	2,103
741,12	11,786
741,31	3,345
741,50	-0,756
741,69	12,920
741,88	7,905
742,07	13,406
742,26	11,048
742,45	9,221
742,64	3,839
742,83	6,549
743,02	7,158
743,21	13,357
743,40	2,692
743,59	14,522
743,78	17,808
743,97	11,731
744,16	12,992
744,34	4,429
744,53	12,577
744,72	9,603
744,91	6,092
745,10	15,304
745,29	10,081
745,48	5,000
745,67	11,162
745,86	5,519
746,05	8,531
746,24	10,515
746,43	14,775
746,62	12,069
746,81	16,180
747,00	11,816
747,18	17,865
747,37	18,105
747,56	15,529
747,75	5,911
747,94	17,476
748,13	23,043
748,32	12,381
748,51	21,827
748,70	11,894
748,89	16,393
749,08	4,070
749,26	9,471
749,45	14,745
749,64	9,320
749,83	25,393
750,02	27,174
750,21	12,468
750,40	18,826
750,59	9,383
750,78	12,718
750,96	16,575
751,15	17,991
751,34	6,250
751,53	6,831
751,72	9,014
751,91	12,176
752,10	14,136
752,29	15,467
752,47	9,742
752,66	21,587
752,85	21,585
753,04	13,408
753,23	10,836
753,42	14,555
753,61	24,138
753,80	12,715
753,98	17,424
754,17	1,520
754,36	3,226
754,55	0,602
754,74	9,091
754,93	26,997
755,12	13,947
755,30	15,909
755,49	12,500
755,68	13,804
755,87	-0,592
756,06	10,764
756,25	20,061
756,43	2,349
756,62	20,807
756,81	19,205
757,00	27,303
757,19	16,319
757,38	10,039
757,56	8,400
757,75	25,597
757,94	13,308
758,13	12,671
758,32	18,398
758,51	6,734
758,69	13,900
758,88	9,764
759,07	20,060
759,26	16,608
759,45	32,982
759,63	24,675
759,82	16,491
760,01	11,722
760,20	28,302
760,39	25,552
760,57	14,286
760,76	12,892
760,95	20,139
761,14	29,197
761,33	20,968
761,51	23,929
761,70	24,535
761,89	22,667
762,08	34,944
762,27	25,632
762,45	23,188
762,64	26,131
762,83	35,060
763,02	18,696
763,21	-5,500
763,39	29,371
763,58	14,126
763,77	29,536
763,96	21,514
764,14	10,833
764,33	26,190
764,52	37,500
764,71	33,443
764,89	24,554
765,08	21,675
765,27	21,702
765,46	23,767
765,65	16,863
765,83	36,652
766,02	35,238
766,21	19,126
766,40	31,518
766,58	16,931
766,77	27,064
766,96	23,984
767,15	26,891
767,33	24,155
767,52	24,454
767,71	23,246
767,90	22,613
768,08	39,521
768,27	19,919
768,46	31,140
768,64	22,222
768,83	23,529
769,02	9,360
769,21	26,042
769,39	27,143
769,58	49,784
769,77	30,851
769,96	31,532
770,14	37,158
770,33	41,121
770,52	47,482
770,70	29,189
770,89	49,189
771,08	45,181
771,27	15,789
771,45	32,941
771,64	41,818
771,83	25,490
772,01	57,732
772,20	44,776
772,39	15,823
772,57	29,353
772,76	34,459
772,95	52,299
773,14	39,456
773,32	15,254
773,51	20,833
773,70	41,727
773,88	50,323
774,07	35,025
774,26	0,806
774,44	56,391
774,63	40,120
774,82	10,390
775,00	48,598
775,19	36,905
775,38	34,574
775,56	29,814
775,75	37,363
775,94	15,833
776,12	24,837
776,31	54,887
776,50	17,123
776,68	27,419
776,87	38,756
777,06	46,541
777,24	62,185
777,43	36,898
777,62	67,978
777,80	35,849
777,99	73,333
778,18	36,782
778,36	49,153
778,55	5,085
778,74	42,969
778,92	25,309
779,11	72,727
779,29	2,837
779,48	46,809
779,67	59,459
779,85	14,912
780,04	76,087
780,23	26,190
780,41	59,322
780,60	20,805
780,79	25,806
780,97	32,026
781,16	23,936
781,34	65,541
781,53	55,357
781,72	16,216
781,90	35,329
782,09	39,535
782,28	45,578
782,46	65,000
782,65	37,324
782,83	26,415
783,02	41,228
783,21	60,150
783,39	36,134
783,58	66,087
783,76	40,136
783,95	78,169
784,14	71,053
784,32	8,235
784,51	60,811
784,69	39,063
784,88	64,486
785,06	45,033
785,25	41,844
785,44	24,194
785,62	18,571
785,81	47,222
785,99	48,872
786,18	50,450
786,37	72,527
786,55	52,778
786,74	38,182
786,92	47,552
787,11	19,444
787,29	25,000
787,48	48,387
787,67	25,472
787,85	94,937
788,04	59,459
788,22	71,287
788,41	66,142
788,59	53,289
788,78	48,352
788,96	51,240
789,15	60,000
789,34	45,192
789,52	96,774
789,71	85,612
789,89	63,636
790,08	71,250
790,26	73,248
790,45	66,667
790,63	85,057
790,82	56,923
791,00	14,159
791,19	46,400
791,38	44,762
791,56	69,091
791,75	22,222
791,93	103,000
792,12	73,913
792,30	56,204
792,49	40,404
792,67	41,912
792,86	42,400
793,04	38,889
793,23	67,368
793,41	76,087
793,60	59,722
793,78	63,810
793,97	54,167
794,15	69,925
794,34	52,000
794,52	0,000
794,71	44,186
794,89	40,152
795,08	87,200
795,26	88,000
795,45	79,167
795,63	70,968
795,82	56,044
796,00	89,000
796,19	68,293
796,37	41,985
796,56	47,573
796,74	14,737
796,93	60,606
797,11	60,241
797,30	40,000
797,48	60,938
797,67	64,228
797,85	59,231
798,04	32,203
798,22	129,487
798,41	33,654
798,59	52,381
798,77	53,012
798,96	58,642
799,14	53,226
799,33	67,890
799,51	52,778
799,70	71,538
799,88	89,908
800,07	48,092
800,25	89,157
800,44	44,444
800,62	88,889
800,80	42,254
800,99	147,945
801,17	87,931
801,36	80,000
801,54	21,000
801,73	21,053
801,91	99,174
802,10	90,588
802,28	43,200
802,46	42,105
802,65	74,820
802,83	82,667
803,02	51,613
803,20	102,410
803,39	58,621
803,57	47,244
803,75	52,846
803,94	78,571
804,12	71,034
804,31	18,841
804,49	66,400
804,67	14,706
804,86	41,593
805,04	30,120
805,23	43,363
805,41	46,667
805,59	69,863
805,78	67,200
805,96	42,169
806,15	72,277
806,33	107,895
806,51	69,333
806,70	53,383
806,88	39,535
807,07	82,883
807,25	26,374
807,43	51,786
807,62	76,106
807,80	50,476
807,99	64,615
808,17	47,244
808,35	51,000
808,54	66,667
808,72	53,153
808,90	44,521
809,09	73,913
809,27	82,667
809,46	80,220
809,64	80,488
809,82	50,993
810,01	53,125
810,19	72,727
810,37	57,813
810,56	97,778
810,74	70,130
810,92	56,667
811,11	33,333
811,29	80,189
811,48	27,692
811,66	48,315
811,84	10,989
812,03	46,721
812,21	57,895
812,39	22,609
812,58	80,000
812,76	59,712
812,94	78,313
813,13	36,170
813,31	67,000
813,49	87,963
813,68	48,182
813,86	52,809
814,04	47,107
814,23	24,699
814,41	44,944
814,59	50,485
814,78	52,206
814,96	27,673
815,14	49,533
815,33	50,388
815,51	70,866
815,69	56,190
815,87	51,485
816,06	60,870
816,24	59,627
816,42	63,235
816,61	62,893
816,79	63,793
816,97	48,864
817,16	18,935
817,34	66,667
817,52	57,851
817,70	52,475
817,89	59,259
818,07	51,370
818,25	32,653
818,44	64,103
818,62	44,186
818,80	57,895
818,98	42,675
819,17	69,748
819,35	59,043
819,53	73,134
819,72	65,823
819,90	61,240
820,08	33,333
820,26	57,759
820,45	59,060
820,63	58,036
820,81	47,200
820,99	52,482
821,18	41,497
821,36	55,063
821,54	80,000
821,73	48,333
821,91	50,877
822,09	36,290
822,27	53,548
822,46	40,441
822,64	36,800
822,82	38,674
823,00	12,707
823,19	41,758
823,37	48,485
823,55	38,636
823,73	49,655
823,91	59,420
824,10	43,011
824,28	67,337
824,46	8,738
824,64	46,053
824,83	42,236
825,01	31,333
825,19	52,419
825,37	19,130
825,56	53,302
825,74	37,245
825,92	36,306
826,10	50,000
826,28	38,095
826,47	32,632
826,65	49,645
826,83	0,862
827,01	35,838
827,19	43,452
827,38	51,852
827,56	26,705
827,74	51,955
827,92	24,419
828,10	48,718
828,29	60,355
828,47	28,049
828,65	53,846
828,83	52,121
829,01	25,543
829,20	35,714
829,38	50,000
829,56	46,739
829,74	20,755
829,92	28,571
830,10	48,851
830,29	10,050
830,47	28,141
830,65	5,488
830,83	32,143
831,01	44,048
831,20	47,087
831,38	40,191
831,56	29,302
831,74	39,336
831,92	55,921
832,10	31,905
832,29	54,730
832,47	19,101
832,65	35,784
832,83	13,146
833,01	45,500
833,19	28,054
833,37	38,914
833,56	31,224
833,74	42,157
833,92	9,722
834,10	28,216
834,28	16,456
834,46	26,697
834,64	28,241
834,83	14,545
835,01	35,270
835,19	44,400
835,37	33,884
835,55	8,854
835,73	31,034
835,91	45,756
836,09	30,418
836,28	32,103
836,46	27,200
836,64	33,459
836,82	31,222
837,00	18,478
837,18	21,190
837,36	27,092
837,54	32,273
837,72	19,828
837,91	23,507
838,09	33,466
838,27	22,333
838,45	23,759
838,63	26,838
838,81	8,861
838,99	27,016
839,17	18,581
839,35	22,695
839,53	42,456
839,72	16,541
839,90	32,646
840,08	21,231
840,26	23,810
840,44	26,284
840,62	25,517
840,80	38,435
840,98	16,471
841,16	12,548
841,34	26,087
841,52	31,498
841,70	32,615
841,89	18,548
842,07	16,928
842,25	27,011
842,43	10,776
842,61	32,281
842,79	28,249
842,97	19,870
843,15	11,881
843,33	15,457
843,51	14,157
843,69	31,339
843,87	7,836
844,05	18,845
844,23	34,535
844,41	17,241
844,59	19,597
844,77	12,605
844,95	12,717
845,13	15,077
845,31	11,337
845,50	20,681
845,68	10,289
845,86	2,874
846,04	29,330
846,22	21,526
846,40	21,774
846,58	11,396
846,76	21,505
846,94	28,180
847,12	22,021
847,30	18,041
847,48	-0,619
847,66	27,340
847,84	16,940
848,02	18,599
848,20	25,840
848,38	14,530
848,56	20,170
848,74	14,797
848,92	11,222
849,10	10,750
849,28	16,194
849,46	23,467
849,64	24,018
849,82	20,370
850,00	25,467
850,18	20,000
850,36	10,817
850,54	20,802
850,72	4,370
850,90	21,304
851,08	15,536
851,26	21,225
851,44	11,726
851,62	14,651
851,80	13,656
851,98	20,440
852,16	19,858
852,34	19,381
852,52	13,839
852,70	-1,822
852,87	17,580
853,05	7,407
853,23	7,010
853,41	20,408
853,59	18,672
853,77	11,905
853,95	19,198
854,13	8,850
854,31	17,659
854,49	5,788
854,67	15,551
854,85	9,317
855,03	20,240
855,21	13,053
855,39	11,268
855,57	14,337
855,75	14,781
855,93	10,000
856,11	22,437
856,28	15,314
856,46	16,192
856,64	16,381
856,82	10,137
857,00	6,085
857,18	14,440
857,36	20,236
857,54	12,457
857,72	12,456
857,90	6,827
858,08	14,902
858,26	6,832
858,44	7,212
858,61	7,491
858,79	11,938
858,97	15,929
859,15	14,551
859,33	11,406
859,51	4,690
859,69	0,537
859,87	9,390
860,05	7,105
860,23	14,448
860,40	18,327
860,58	13,279
860,76	9,841
860,94	15,285
861,12	9,077
861,30	10,518
861,48	11,714
861,66	8,571
861,84	5,979
862,01	16,348
862,19	5,593
862,37	15,885
862,55	12,680
862,73	2,941
862,91	4,846
863,09	11,607
863,27	9,770
863,44	5,078
863,62	4,348
863,80	7,876
863,98	10,386
864,16	7,370
864,34	17,115
864,52	7,641
864,69	8,626
864,87	3,184
865,05	10,748
865,23	9,150
865,41	7,661
865,59	6,191
865,76	12,678
865,94	7,106
866,12	11,742
866,30	4,488
866,48	15,422
866,66	6,855
866,83	11,450
867,01	8,312
867,19	11,183
867,37	5,951
867,55	7,407
867,73	7,452
867,90	9,222
868,08	7,981
868,26	9,804
868,44	4,807
868,62	12,654
868,79	8,935
868,97	3,023
869,15	1,508
869,33	9,646
869,51	4,878
869,69	5,488
869,86	11,345
870,04	12,414
870,22	8,008
870,40	6,550
870,57	4,614
870,75	6,188
870,93	8,947
871,11	10,714
871,29	7,877
871,46	6,733
871,64	7,427
871,82	6,674
872,00	9,671
872,18	6,540
872,35	14,152
872,53	8,553
872,71	8,163
872,89	13,270
873,06	9,657
873,24	8,535
873,42	9,524
873,60	7,482
873,77	5,624
873,95	5,688
874,13	3,700
874,31	9,082
874,49	4,647
874,66	5,263
874,84	6,018
875,02	7,883
875,20	6,700
875,37	7,583
875,55	7,634
875,73	4,021
875,91	3,717
876,08	1,005
876,26	6,449
876,44	7,472
876,61	6,608
876,79	6,212
876,97	3,832
877,15	5,110
877,32	5,456
877,50	1,407
877,68	4,284
877,86	0,170
878,03	7,527
878,21	6,097
878,39	5,613
878,56	2,066
878,74	6,269
878,92	4,681
879,10	4,458
879,27	9,715
879,45	7,264
879,63	4,503
879,80	6,961
879,98	2,032
880,16	7,496
880,34	7,222
880,51	0,946
880,69	1,042
880,87	8,003
881,04	3,690
881,22	5,198
881,40	6,718
881,57	8,848
881,75	5,748
881,93	5,518
882,10	3,022
882,28	7,379
882,46	5,959
882,63	5,633
882,81	8,044
882,99	4,237
883,16	5,191
883,34	3,409
883,52	5,701
883,69	6,675
883,87	0,456
884,05	6,212
884,22	3,718
884,40	5,058
884,58	-1,547
884,75	4,327
884,93	4,197
885,11	8,126
885,28	2,495
885,46	0,185
885,64	2,075
885,81	3,062
885,99	1,115
886,17	3,260
886,34	3,623
886,52	2,506
886,70	4,646
886,87	1,468
887,05	4,938
887,22	2,933
887,40	5,714
887,58	2,619
887,75	3,535
887,93	5,666
888,11	3,539
888,28	3,450
888,46	3,956
888,63	3,175
888,81	3,387
888,99	4,141
889,16	4,967
889,34	1,093
889,51	3,052
889,69	2,621
889,87	6,014
890,04	3,990
890,22	3,169
890,39	3,524
890,57	3,573
890,75	1,449
890,92	2,865
891,10	3,893
891,27	4,113
891,45	2,737
891,63	3,646
891,80	3,675
891,98	1,793
892,15	2,794
892,33	3,138
892,51	3,805
892,68	3,578
892,86	3,055
893,03	2,746
893,21	5,301
893,38	2,632
893,56	2,941
893,74	1,890
893,91	3,516
894,09	2,724
894,26	2,292
894,44	3,330
894,61	2,850
894,79	3,227
894,96	2,901
895,14	2,839
895,32	3,286
895,49	3,281
895,67	3,167
895,84	3,893
896,02	1,761
896,19	2,027
896,37	3,825
896,54	3,175
896,72	1,705
896,89	3,154
897,07	4,380
897,25	3,464
897,42	2,068
897,60	3,925
897,77	3,339
897,95	3,148
898,12	4,567
898,30	1,696
898,47	1,630
898,65	1,919
898,82	1,865
899,00	2,006
899,17	3,625
899,35	1,891
899,52	3,599
899,70	2,747
899,87	1,145
900,05	0,989
900,22	2,629
900,40	0,719
900,57	2,375
900,75	1,457
900,92	2,892
901,10	3,387
901,27	1,702
901,45	3,534
901,62	3,072
901,80	0,970
901,97	3,597
902,15	1,337
902,32	3,126
902,50	1,579
902,67	4,482
902,85	1,604
903,02	2,643
903,20	3,532
903,37	1,673
903,54	2,874
903,72	2,382
903,89	2,493
904,07	1,070
904,24	4,003
904,42	2,042
904,59	0,286
904,77	2,016
904,94	2,055
905,12	0,213
905,29	1,581
905,47	1,847
905,64	2,790
905,81	2,436
905,99	1,645
906,16	0,971
906,34	2,054
906,51	2,003
906,69	3,520
906,86	2,010
907,03	0,572
907,21	1,195
907,38	2,280
907,56	1,906
907,73	2,574
907,91	1,418
908,08	2,508
908,25	2,937
908,43	1,846
908,60	-0,615
908,78	2,820
908,95	2,099
909,13	2,319
909,30	2,754
909,47	1,077
909,65	3,318
909,82	2,412
910,00	2,168
910,17	1,278
910,34	2,618
910,52	1,526
910,69	0,631
910,87	2,757
911,04	1,938
911,21	3,119
911,39	1,398
911,56	2,491
911,73	1,983
911,91	2,746
912,08	3,484
912,26	0,997
912,43	2,900
912,60	1,045
912,78	2,380
912,95	1,500
913,13	1,905
913,30	3,055
913,47	2,751
913,65	2,544
913,82	2,622
913,99	2,008
914,17	1,901
914,34	1,464
914,51	2,601
914,69	2,640
914,86	3,310
915,03	2,650
915,21	1,493
915,38	2,168
915,56	2,806
915,73	0,881
915,90	2,368
916,08	2,376
916,25	0,809
916,42	1,409
916,60	2,140
916,77	1,241
916,94	2,197
917,12	1,886
917,29	1,709
917,46	2,087
917,64	1,780
917,81	0,958
917,98	1,201
918,16	0,803
918,33	2,145
918,50	2,206
918,67	1,511
918,85	1,739
919,02	0,932
919,19	2,502
919,37	1,833
919,54	2,079
919,71	2,123
919,89	1,849
920,06	1,460
920,23	1,919
920,41	1,945
920,58	1,638
920,75	2,146
920,92	1,750
921,10	1,001
921,27	1,150
921,44	2,880
921,62	1,789
921,79	1,216
921,96	0,883
922,13	1,527
922,31	0,900
922,48	1,399
922,65	0,729
922,82	1,258
923,00	1,931
923,17	1,442
923,34	1,237
923,52	1,381
923,69	1,383
923,86	1,684
924,03	1,840
924,21	1,772
924,38	0,972
924,55	1,473
924,72	1,512
924,90	1,351
925,07	0,780
925,24	1,368
925,41	1,882
925,59	0,617
925,76	0,554
925,93	1,340
926,10	1,656
926,28	2,042
926,45	0,635
926,62	1,060
926,79	1,275
926,96	1,546
927,14	1,805
927,31	1,677
927,48	1,690
927,65	2,054
927,83	1,081
928,00	1,098
928,17	1,434
928,34	1,150
928,51	0,701
928,69	1,923
928,86	1,268
929,03	0,527
929,20	0,947
929,37	0,830
929,55	2,251
929,72	0,931
929,89	1,361
930,06	1,106
930,23	1,883
930,41	1,145
930,58	1,620
930,75	0,851
930,92	1,951
931,09	1,905
931,27	1,073
931,44	1,166
931,61	1,916
931,78	1,360
931,95	1,857
932,12	2,004
932,30	1,139
932,47	0,371
932,64	1,685
932,81	1,116
932,98	1,241
933,16	0,826
933,33	0,993
933,50	0,835
933,67	2,344
933,84	1,844
934,01	1,208
934,18	1,928
934,36	1,823
934,53	1,549
934,70	1,267
934,87	0,830
935,04	1,057
935,21	0,020
935,38	0,641
935,56	1,453
935,73	0,938
935,90	2,123
936,07	1,943
936,24	2,332
936,41	0,848
936,58	1,048
936,76	1,140
936,93	1,555
937,10	1,154
937,27	1,426
937,44	0,856
937,61	1,608
937,78	1,370
937,95	2,060
938,13	0,952
938,30	1,347
938,47	1,063
938,64	0,340
938,81	0,040
938,98	0,319
939,15	1,408
939,32	0,728
939,49	0,279
939,66	0,855
939,84	1,656
940,01	0,608
940,18	0,648
940,35	1,171
940,52	0,863
940,69	-0,304
940,86	1,441
941,03	1,010
941,20	0,506
941,37	0,691
941,54	1,348
941,71	2,176
941,89	0,297
942,06	0,776
942,23	1,699
942,40	0,610
942,57	1,178
942,74	1,020
942,91	1,673
943,08	2,072
943,25	1,354
943,42	0,888
943,59	2,119
943,76	1,148
943,93	0,897
944,10	0,968
944,27	1,054
944,44	1,175
944,61	0,437
944,79	2,433
944,96	2,053
945,13	0,258
945,30	0,655
945,47	0,845
945,64	1,359
945,81	0,926
945,98	1,440
946,15	1,345
946,32	2,100
946,49	1,230
946,66	1,963
946,83	1,040
947,00	1,444
947,17	0,163
947,34	2,215
947,51	1,701
947,68	3,429
947,85	0,634
948,02	1,836
948,19	0,464
948,36	1,959
948,53	-0,349
948,70	0,533
948,87	1,852
949,04	3,308
949,21	1,557
949,38	1,637
949,55	3,161
949,72	1,660
949,89	3,042
950,06	2,360
950,23	0,841
950,40	2,001
950,57	2,283
950,74	1,847
950,91	0,990
951,08	2,282
951,25	2,980
951,42	1,733
951,59	0,798
951,76	0,915
951,93	1,211
952,10	2,056
952,27	2,535
952,44	2,850
952,61	3,029
952,77	1,397
952,94	1,932
953,11	2,472
953,28	3,371
953,45	3,914
953,62	3,511
953,79	2,420
953,96	4,420
954,13	3,473
954,30	4,874
954,47	4,621
954,64	0,057
954,81	4,087
954,98	2,528
955,15	4,111
955,32	4,121
955,49	3,273
955,65	2,236
955,82	5,741
955,99	4,230
956,16	5,199
956,33	4,022
956,50	4,351
956,67	5,301
956,84	6,290
957,01	4,179
957,18	6,996
957,35	5,941
957,52	5,804
957,68	6,271
957,85	6,985
958,02	7,024
958,19	3,374
958,36	9,012
958,53	6,988
958,70	9,023
958,87	5,090
959,04	7,464
959,21	10,589
959,37	7,630
959,54	7,435
959,71	6,353
959,88	-0,698
960,05	7,451
960,22	5,283
960,39	2,889
960,56	4,604
960,72	7,064
960,89	10,872
961,06	9,003
961,23	0,765
961,40	4,993
961,57	11,821
961,74	10,753
961,90	7,692
962,07	12,706
962,24	13,323
962,41	13,793
962,58	12,709
962,75	9,060
962,92	12,281
963,08	8,125
963,25	10,359
963,42	11,446
963,59	9,240
963,76	18,091
963,93	17,515
964,10	11,086
964,26	17,619
964,43	11,163
964,60	8,817
964,77	22,819
964,94	9,136
965,10	9,192
965,27	8,659
965,44	7,619
965,61	9,589
965,78	7,453
965,95	28,856
966,11	16,667
966,28	16,760
966,45	24,837
966,62	11,847
966,79	4,437
966,95	12,456
967,12	29,524
967,29	20,679
967,46	19,929
967,63	22,745
967,79	38,255
967,96	25,229
968,13	36,667
968,30	39,506
968,47	30,769
968,63	33,824
968,80	30,651
968,97	34,104
969,14	40,678
969,31	27,551
969,47	36,957
969,64	31,868
969,81	12,258
969,98	36,316
970,14	34,946
970,31	31,447
970,48	46,309
970,65	18,182
970,81	61,538
970,98	51,562
971,15	70,909
971,32	25,000
971,48	91,071
971,65	27,152
971,82	77,273
971,99	60,127
972,15	15,116
972,32	46,528
972,49	69,672
972,66	54,545
972,82	57,534
972,99	6,250
973,16	47,682
973,33	51,111
973,49	82,927
973,66	81,905
973,83	91,358
974,00	48,101
974,16	107,273
974,33	118,667
974,50	116,162
974,67	28,571
974,83	98,980
975,00	121,818
975,17	83,871
975,33	90,805
975,50	116,393
975,67	142,308
975,84	53,659
976,00	144,737
976,17	163,043
976,34	83,529
976,50	56,044
976,67	105,952
976,84	183,333
977,00	70,513
977,17	171,111
977,34	153,846
977,50	91,667
977,67	103,529
977,84	147,458
978,01	68,919
978,17	25,862
978,34	118,519
978,51	188,000
978,67	175,510
978,84	118,182
979,01	89,474
979,17	35,714
979,34	158,696
979,51	120,455
979,67	445,833
979,84	154,237
980,01	115,385
980,17	94,118
980,34	124,658
980,51	277,778
980,67	66,667
980,84	90,000
981,01	361,765
981,17	54,412
981,34	104,286
981,50	131,579
981,67	102,381
981,84	296,429
982,00	8100,000
982,17	135,938
982,34	146,341
982,50	0,000
982,67	-342,857
982,84	195,000
983,00	62,963
983,17	-585,714
983,33	511,111
983,50	100,000
983,67	42,029
983,83	314,286
984,00	208,696
984,17	1188,889
984,33	-628,571
984,50	200,000
984,66	281,250
984,83	525,000
985,00	253,846
985,16	129,032
985,33	4600,000
985,49	109,302
985,66	200,000
985,83	-2566,667
985,99	600,000
986,16	273,684
986,32	128,767
986,49	-880,000
986,66	720,000
986,82	224,242
986,99	-740,000
987,15	278,788
987,32	523,529
987,49	321,429
987,65	-73,913
987,82	-115,000
987,98	116,667
988,15	1200,000
988,31	237,143
988,48	245,098
988,65	490,000
988,81	70,909
988,98	186,486
989,14	660,000
989,31	130,508
989,47	-100,000
989,64	394,444
989,80	117,021
989,97	225,455
990,14	628,571
990,30	-575,000
990,47	-245,833
990,63	284,211
990,80	1316,667
990,96	775,000
991,13	333,333
991,29	164,706
991,46	168,750
991,62	0,000
991,79	-380,000
991,95	135,294
992,12	716,667
992,29	-342,857
992,45	152,381
992,62	-160,714
992,78	-983,333
992,95	206,452
993,11	1050,000
993,28	-1500,000
993,44	-206,897
993,61	124,561
993,77	0,000
993,94	261,538
994,10	914,286
994,27	-147,368
994,43	287,500
994,60	764,286
994,76	284,848
994,93	-600,000
995,09	-375,000
995,26	475,000
995,42	912,500
995,59	210,000
995,75	-425,000
995,92	-1357,143
996,08	-1680,000
996,25	290,909
996,41	1400,000
996,58	268,000
996,74	-240,000
996,91	159,677
997,07	452,000
997,23	125,490
997,40	1350,000
997,56	-3700,000
997,73	426,087
997,89	1360,000
998,06	131,579
998,22	225,532
998,39	214,286
998,55	742,105
998,72	-5000,000
998,88	154,000
999,05	386,667
999,21	664,706
999,37	260,465
999,54	370,968
999,70	342,857
999,87	1616,667
1000,03	190,000
1000,20	185,714
1000,36	-437,500
1000,52	1950,000
1000,69	424,000
1000,85	-475,000
1001,02	390,476
1001,18	1040,000
1001,35	0,000
1001,51	428,571
1001,67	330,000
1001,84	192,683
1002,00	-627,273
1002,17	1300,000
1002,33	-737,500
1002,50	850,000
1002,66	1050,000
1002,82	304,878
1002,99	-350,000
1003,15	-4300,000
1003,32	-21,429
1003,48	-2166,667
1003,64	443,478
1003,81	-126,316
1003,97	188,406
1004,14	-40,000
1004,30	609,091
1004,46	-6900,000
1004,63	-338,462
1004,79	151,351
1004,95	-1020,000
1005,12	-138,462
1005,28	158,333
1005,45	-1266,667
1005,61	500,000
1005,77	-757,143
1005,94	252,174
1006,10	-560,000
1006,26	-96,296
1006,43	300,000
1006,59	316,129
1006,76	-400,000
1006,92	304,348
1007,08	106,061
1007,25	213,889
1007,41	240,909
1007,57	-652,941
1007,74	373,913
1007,90	-521,429
1008,06	-400,000
1008,23	-326,316
1008,39	269,444
1008,55	100,000
1008,72	-1075,000
1008,88	-168,571
1009,04	-1044,444
1009,21	356,250
1009,37	448,387
1009,53	-440,000
1009,70	-22,727
1009,86	310,526
1010,02	290,909
1010,19	840,000
1010,35	6500,000
1010,51	314,286
1010,68	309,091
1010,84	425,000
1011,00	535,714
1011,17	2900,000
1011,33	192,308
1011,49	493,750
1011,66	281,250
1011,82	-1150,000
1011,98	726,667
1012,14	461,538
1012,31	297,727
1012,47	-928,571
1012,63	4000,000
1012,80	250,000
1012,96	119,444
1013,12	-118,519
1013,29	487,500
1013,45	-182,353
1013,61	-1420,000
1013,77	-300,000
1013,94	450,000
1014,10	6800,000
1014,26	-100,000
1014,43	323,684
1014,59	0,000
1014,75	930,000
1014,91	302,857
1015,08	307,692
1015,24	446,667
1015,40	466,667
1015,56	688,235
1015,73	208,163
1015,89	355,556
1016,05	286,486
1016,21	333,333
1016,38	234,211
1016,54	-184,000
1016,70	621,053
1016,86	-376,923
1017,03	0,000
1017,19	1375,000
1017,35	313,333
1017,51	800,000
1017,68	1114,286
1017,84	536,842
1018,00	357,143
1018,16	-750,000
1018,33	436,364
1018,49	350,000
1018,65	-490,909
1018,81	-148,780
1018,97	646,154
1019,14	-942,857
1019,30	314,286
1019,46	215,385
1019,62	4350,000
1019,79	-1114,286
1019,95	-1500,000
1020,11	1280,000
1020,27	125,000
1020,43	-887,500
1020,60	0,000
1020,76	132,353
1020,92	6100,000
1021,08	-48,889
1021,24	-1750,000
1021,41	242,424
1021,57	-341,667
1021,73	0,000
1021,89	-259,091
1022,05	297,143
1022,21	-400,000
1022,38	247,368
1022,54	1320,000
1022,70	314,815
1022,86	-3150,000
1023,02	588,889
1023,19	-400,000
1023,35	116,981
1023,51	283,871
1023,67	160,526
1023,83	509,091
1023,99	357,143
1024,16	-36,923
1024,32	500,000
1024,48	334,694
1024,64	-540,000
1024,80	441,667
1024,96	623,077
1025,12	3100,000
1025,29	-575,000
1025,45	404,167
1025,61	3700,000
1025,77	485,714
1025,93	-400,000
1026,09	3850,000
1026,26	-785,714
1026,42	-1000,000
1026,58	190,385
1026,74	800,000
1026,90	57,895
1027,06	-570,000
1027,22	-683,333
1027,38	1244,444
1027,55	-356,000
1027,71	837,500
1027,87	257,500
1028,03	104,545
1028,19	-133,333
1028,35	67,568
1028,51	-8,065
1028,67	-1880,000
1028,83	219,048
1029,00	592,857
1029,16	-486,667
1029,32	258,824
1029,48	4650,000
1029,64	1314,286
1029,80	1733,333
1029,96	190,196
1030,12	-37,500
1030,28	2300,000
1030,44	-2150,000
1030,61	256,250
1030,77	-373,913
1030,93	248,837
1031,09	-314,286
1031,25	-633,333
1031,41	-2150,000
1031,57	-215,789
1031,73	636,364
1031,89	-151,515
1032,05	1000,000
1032,21	700,000
1032,37	-135,294
1032,53	-100,000
1032,69	-7500,000
1032,86	1350,000
1033,02	406,250
1033,18	-676,923
1033,34	-307,692
1033,50	235,484
1033,66	-244,444
1033,82	242,857
1033,98	-558,824
1034,14	922,222
1034,30	-195,455
1034,46	279,167
1034,62	316,667
1034,78	177,778
1034,94	-100,000
1035,10	-322,727
1035,26	-922,222
1035,42	334,286
1035,58	1560,000
1035,74	-80,000
1035,90	-600,000
1036,06	118,868
1036,22	-348,000
1036,38	873,333
1036,54	700,000
1036,70	-4100,000
1036,86	-421,429
1037,02	-3500,000
1037,18	-171,429
1037,34	295,652
1037,50	-640,000
1037,66	-3766,667
1037,82	-223,529
1037,98	290,476
1038,14	-206,897
1038,30	-7,692
1038,46	193,750
1038,62	161,290
1038,78	300,000
1038,94	-81,579
1039,10	-337,500
1039,26	-347,368
1039,42	-957,143
1039,58	141,509
1039,74	278,125
1039,90	-220,513
1040,06	388,235
>>>>>End Processed Spectral Data<<<<<
