SpectraSuite Data File
++++++++++++++++++++++++++++++++++++
Date: Thu Feb 02 17:52:45 EET 2017
User: optolab
Dark Spectrum Present: Yes
Reference Spectrum Present: Yes
Number of Sampled Component Spectra: 1
Spectrometers: USB4C02475
Integration Time (usec): 100000 (USB4C02475)
Spectra Averaged: 1 (USB4C02475)
Boxcar Smoothing: 0 (USB4C02475)
Correct for Electrical Dark: No (USB4C02475)
Strobe/Lamp Enabled: No (USB4C02475)
Correct for Detector Non-linearity: No (USB4C02475)
Correct for Stray Light: No (USB4C02475)
Number of Pixels in Processed Spectrum: 3648
>>>>>Begin Processed Spectral Data<<<<<
344,91	-850,000
345,13	-850,000
345,35	-850,000
345,57	-264,706
345,79	34,783
346,00	-150,000
346,22	-1485,714
346,44	-57,576
346,66	212,766
346,87	421,739
347,09	738,462
347,31	7700,000
347,53	-1900,000
347,74	-125,581
347,96	-1085,714
348,18	326,471
348,40	488,235
348,61	-194,872
348,83	9000,000
349,05	205,128
349,27	423,529
349,48	-5300,000
349,70	657,143
349,92	419,048
350,14	154,054
350,35	-284,615
350,57	-411,111
350,79	-100,000
351,01	-480,000
351,22	670,000
351,44	808,333
351,66	250,000
351,87	1433,333
352,09	109,211
352,31	244,643
352,53	337,143
352,74	-271,429
352,96	221,053
353,18	34,375
353,40	-887,500
353,61	586,667
353,83	235,417
354,05	346,875
354,26	303,571
354,48	-2040,000
354,70	295,238
354,92	250,000
355,13	-144,186
355,35	175,926
355,57	235,938
355,78	364,286
356,00	253,191
356,22	350,000
356,44	283,721
356,65	635,714
356,87	213,889
357,09	351,429
357,30	75,000
357,52	-1550,000
357,74	293,548
357,95	314,286
358,17	152,174
358,39	200,000
358,60	263,889
358,82	309,091
359,04	287,179
359,26	154,545
359,47	-600,000
359,69	396,429
359,91	480,000
360,12	305,000
360,34	30,556
360,56	-1800,000
360,77	644,444
360,99	425,000
361,21	182,609
361,42	-2075,000
361,64	-200,000
361,86	153,731
362,07	806,667
362,29	320,000
362,51	200,000
362,72	-560,000
362,94	381,481
363,16	145,714
363,37	954,545
363,59	-4300,000
363,81	1200,000
364,02	172,000
364,24	188,636
364,46	485,714
364,67	133,333
364,89	429,412
365,11	313,514
365,32	355,556
365,54	93,750
365,76	115,909
365,97	263,415
366,19	131,579
366,41	650,000
366,62	112,000
366,84	675,000
367,05	131,373
367,27	1040,000
367,49	384,615
367,70	988,889
367,92	189,583
368,14	-161,538
368,35	110,294
368,57	169,697
368,79	265,385
369,00	97,436
369,22	494,444
369,43	436,842
369,65	-231,034
369,87	-394,118
370,08	545,000
370,30	557,143
370,51	827,273
370,73	258,333
370,95	240,000
371,16	214,035
371,38	220,755
371,60	303,333
371,81	153,261
372,03	-1600,000
372,24	-200,000
372,46	3400,000
372,68	229,412
372,89	174,312
373,11	218,605
373,32	72,269
373,54	654,545
373,76	294,444
373,97	124,242
374,19	-336,842
374,40	192,857
374,62	782,353
374,84	225,000
375,05	142,308
375,27	248,649
375,48	111,111
375,70	452,941
375,92	205,357
376,13	657,895
376,35	387,500
376,56	485,000
376,78	151,020
376,99	218,182
377,21	343,750
377,43	203,030
377,64	192,000
377,86	431,250
378,07	154,545
378,29	166,667
378,51	88,095
378,72	-300,000
378,94	123,913
379,15	118,182
379,37	506,250
379,58	76,667
379,80	222,727
380,01	196,000
380,23	269,565
380,45	193,750
380,66	97,222
380,88	221,622
381,09	343,478
381,31	315,385
381,52	386,957
381,74	158,929
381,95	214,286
382,17	360,000
382,39	98,387
382,60	517,647
382,82	251,724
383,03	1933,333
383,25	75,309
383,46	750,000
383,68	265,957
383,89	377,273
384,11	102,740
384,32	157,895
384,54	-1357,143
384,76	241,176
384,97	300,000
385,19	84,211
385,40	243,750
385,62	138,710
385,83	172,340
386,05	1214,286
386,26	450,000
386,48	446,154
386,69	238,889
386,91	340,000
387,12	197,436
387,34	140,678
387,55	134,286
387,77	332,000
387,98	216,327
388,20	183,099
388,41	125,397
388,63	140,000
388,84	282,500
389,06	246,512
389,27	84,375
389,49	114,458
389,70	164,407
389,92	125,000
390,13	192,308
390,35	93,750
390,56	198,437
390,78	236,364
390,99	188,889
391,21	120,455
391,42	67,391
391,64	-500,000
391,85	186,207
392,07	-7,143
392,28	238,462
392,50	1580,000
392,71	3000,000
392,93	61,290
393,14	206,522
393,36	112,821
393,57	333,333
393,79	165,079
394,00	84,932
394,22	142,000
394,43	296,429
394,65	425,000
394,86	262,500
395,08	-1125,000
395,29	161,702
395,50	-4600,000
395,72	814,286
395,93	456,000
396,15	-350,000
396,36	220,000
396,58	-261,905
396,79	186,047
397,01	285,714
397,22	143,478
397,44	176,596
397,65	135,135
397,87	127,143
398,08	234,615
398,29	441,667
398,51	219,512
398,72	139,130
398,94	239,535
399,15	71,667
399,37	191,304
399,58	150,794
399,80	60,000
400,01	294,118
400,22	414,286
400,44	352,381
400,65	43,836
400,87	5000,000
401,08	74,157
401,30	132,000
401,51	56,364
401,72	145,161
401,94	190,244
402,15	163,265
402,37	134,091
402,58	172,093
402,80	381,250
403,01	5,556
403,22	93,976
403,44	211,111
403,65	144,898
403,87	136,000
404,08	140,385
404,30	150,000
404,51	70,000
404,72	890,909
404,94	92,771
405,15	110,448
405,37	128,571
405,58	103,226
405,79	328,571
406,01	81,481
406,22	108,333
406,44	61,404
406,65	113,095
406,86	95,000
407,08	80,247
407,29	88,000
407,51	56,731
407,72	78,218
407,93	93,671
408,15	81,818
408,36	171,429
408,58	69,167
408,79	62,016
409,00	79,433
409,22	64,706
409,43	90,991
409,64	62,821
409,86	77,273
410,07	18,261
410,29	31,333
410,50	30,159
410,71	52,419
410,93	34,653
411,14	54,206
411,35	36,806
411,57	32,639
411,78	55,882
412,00	44,667
412,21	33,628
412,42	24,390
412,64	52,222
412,85	15,026
413,06	47,321
413,28	45,882
413,49	34,419
413,70	27,897
413,92	38,095
414,13	18,972
414,34	27,509
414,56	30,638
414,77	30,996
414,98	5,654
415,20	35,842
415,41	20,455
415,63	25,356
415,84	26,316
416,05	18,976
416,27	13,649
416,48	26,066
416,69	15,698
416,91	28,533
417,12	9,502
417,33	16,027
417,55	19,200
417,76	17,336
417,97	19,288
418,19	13,180
418,40	8,529
418,61	12,178
418,83	13,732
419,04	6,822
419,25	11,962
419,46	11,396
419,68	6,490
419,89	13,966
420,10	9,946
420,32	9,139
420,53	7,757
420,74	7,766
420,96	10,071
421,17	10,034
421,38	5,993
421,60	13,076
421,81	9,610
422,02	6,771
422,23	8,468
422,45	3,445
422,66	5,518
422,87	5,598
423,09	4,979
423,30	7,172
423,51	7,658
423,73	7,891
423,94	2,527
424,15	1,748
424,36	3,399
424,58	3,163
424,79	5,140
425,00	4,280
425,22	5,471
425,43	5,694
425,64	4,658
425,85	3,044
426,07	4,997
426,28	2,936
426,49	3,154
426,71	3,711
426,92	5,996
427,13	3,431
427,34	3,799
427,56	5,885
427,77	0,373
427,98	2,221
428,19	2,443
428,41	2,090
428,62	3,355
428,83	1,643
429,04	2,945
429,26	1,517
429,47	3,069
429,68	1,462
429,89	1,620
430,11	2,836
430,32	1,358
430,53	1,805
430,74	2,935
430,96	2,064
431,17	1,658
431,38	1,338
431,59	1,464
431,81	2,320
432,02	2,164
432,23	2,302
432,44	2,515
432,66	1,665
432,87	0,106
433,08	1,845
433,29	1,794
433,51	1,471
433,72	1,623
433,93	1,844
434,14	1,157
434,35	1,102
434,57	0,928
434,78	1,371
434,99	0,739
435,20	1,931
435,42	1,449
435,63	0,969
435,84	1,351
436,05	1,146
436,26	0,526
436,48	1,562
436,69	1,323
436,90	0,773
437,11	1,369
437,32	1,429
437,54	1,111
437,75	0,976
437,96	1,325
438,17	1,152
438,38	1,080
438,60	1,500
438,81	0,800
439,02	0,921
439,23	1,370
439,44	0,631
439,66	0,494
439,87	0,829
440,08	0,983
440,29	0,802
440,50	1,041
440,72	0,983
440,93	1,097
441,14	0,659
441,35	0,472
441,56	0,750
441,77	0,641
441,99	0,631
442,20	0,700
442,41	0,608
442,62	0,607
442,83	0,676
443,04	0,811
443,26	0,951
443,47	0,879
443,68	0,602
443,89	0,889
444,10	0,865
444,31	1,119
444,53	0,844
444,74	0,614
444,95	0,612
445,16	0,341
445,37	0,741
445,58	0,703
445,80	0,631
446,01	0,842
446,22	1,027
446,43	1,336
446,64	0,868
446,85	0,868
447,06	1,221
447,28	1,169
447,49	1,261
447,70	2,063
447,91	2,309
448,12	3,008
448,33	4,049
448,54	5,175
448,76	6,615
448,97	8,889
449,18	10,661
449,39	12,875
449,60	15,618
449,81	18,310
450,02	21,268
450,23	24,297
450,45	27,897
450,66	30,413
450,87	33,208
451,08	35,613
451,29	38,546
451,50	39,592
451,71	42,351
451,92	44,102
452,13	45,980
452,35	46,644
452,56	48,632
452,77	50,167
452,98	50,692
453,19	53,581
453,40	54,977
453,61	55,956
453,82	57,937
454,03	62,258
454,25	64,428
454,46	67,791
454,67	71,658
454,88	74,221
455,09	77,827
455,30	80,704
455,51	82,490
455,72	84,499
455,93	85,554
456,14	87,882
456,35	86,906
456,56	87,285
456,78	89,663
456,99	87,346
457,20	87,363
457,41	88,248
457,62	87,055
457,83	86,731
458,04	86,697
458,25	85,963
458,46	87,491
458,67	87,299
458,88	87,851
459,09	87,068
459,30	87,478
459,51	87,123
459,73	86,178
459,94	85,451
460,15	85,476
460,36	83,182
460,57	83,787
460,78	81,916
460,99	82,872
461,20	81,615
461,41	79,775
461,62	81,790
461,83	80,682
462,04	80,195
462,25	81,091
462,46	81,645
462,67	81,535
462,88	82,570
463,09	83,748
463,30	84,416
463,51	84,754
463,72	85,540
463,93	86,167
464,15	85,395
464,36	84,702
464,57	85,912
464,78	85,942
464,99	85,998
465,20	86,973
465,41	86,929
465,62	85,986
465,83	86,619
466,04	86,846
466,25	85,327
466,46	84,824
466,67	84,157
466,88	83,689
467,09	82,420
467,30	81,668
467,51	80,477
467,72	78,758
467,93	78,176
468,14	76,551
468,35	74,695
468,56	71,828
468,77	71,098
468,98	68,594
469,19	66,803
469,40	63,548
469,61	60,571
469,82	58,392
470,03	54,132
470,24	51,368
470,45	48,514
470,66	45,259
470,87	42,145
471,08	38,589
471,29	35,532
471,50	31,602
471,71	29,070
471,92	26,102
472,13	23,452
472,34	20,396
472,55	17,920
472,76	15,637
472,97	13,559
473,18	11,755
473,39	9,969
473,60	8,125
473,81	6,965
474,01	5,946
474,22	5,108
474,43	4,056
474,64	3,401
474,85	2,667
475,06	2,188
475,27	1,978
475,48	1,547
475,69	1,247
475,90	1,137
476,11	0,869
476,32	0,829
476,53	0,926
476,74	0,660
476,95	0,624
477,16	0,507
477,37	0,902
477,58	0,596
477,79	0,501
478,00	0,527
478,21	0,794
478,41	0,466
478,62	0,386
478,83	0,484
479,04	0,596
479,25	0,412
479,46	0,477
479,67	0,437
479,88	0,420
480,09	0,578
480,30	0,416
480,51	0,527
480,72	0,402
480,93	0,528
481,14	0,415
481,34	0,455
481,55	0,504
481,76	0,600
481,97	0,407
482,18	0,239
482,39	0,423
482,60	0,521
482,81	0,386
483,02	0,482
483,23	0,463
483,44	0,523
483,65	0,178
483,85	0,362
484,06	0,432
484,27	0,335
484,48	0,273
484,69	0,357
484,90	0,315
485,11	0,519
485,32	0,268
485,53	0,478
485,73	0,508
485,94	0,271
486,15	0,407
486,36	0,492
486,57	0,319
486,78	0,464
486,99	0,436
487,20	0,534
487,41	0,357
487,61	0,356
487,82	0,214
488,03	0,395
488,24	0,417
488,45	0,550
488,66	0,328
488,87	0,342
489,08	0,388
489,28	0,222
489,49	0,454
489,70	0,368
489,91	0,523
490,12	0,286
490,33	0,200
490,54	0,251
490,74	0,368
490,95	0,291
491,16	0,367
491,37	0,439
491,58	0,303
491,79	0,240
492,00	0,195
492,20	0,390
492,41	0,422
492,62	0,338
492,83	0,413
493,04	0,426
493,25	0,524
493,45	0,299
493,66	0,304
493,87	0,295
494,08	0,302
494,29	0,275
494,50	0,229
494,70	0,382
494,91	0,394
495,12	0,340
495,33	0,460
495,54	0,232
495,75	0,340
495,95	0,368
496,16	0,346
496,37	0,238
496,58	0,235
496,79	0,352
496,99	0,157
497,20	0,442
497,41	0,403
497,62	0,399
497,83	0,403
498,04	0,331
498,24	0,213
498,45	0,155
498,66	0,360
498,87	0,324
499,08	0,273
499,28	0,222
499,49	0,460
499,70	0,343
499,91	0,267
500,12	0,263
500,32	0,320
500,53	0,347
500,74	0,549
500,95	0,182
501,15	0,505
501,36	0,303
501,57	0,314
501,78	0,281
501,99	0,341
502,19	0,339
502,40	0,302
502,61	0,184
502,82	0,413
503,02	0,376
503,23	0,353
503,44	0,440
503,65	0,402
503,86	0,224
504,06	0,267
504,27	0,464
504,48	0,363
504,69	0,330
504,89	0,280
505,10	0,317
505,31	0,429
505,52	0,326
505,72	0,556
505,93	0,356
506,14	0,287
506,35	0,413
506,55	0,262
506,76	0,216
506,97	0,316
507,18	0,618
507,38	0,375
507,59	0,405
507,80	0,328
508,01	0,297
508,21	0,352
508,42	0,330
508,63	0,493
508,84	0,521
509,04	0,255
509,25	0,353
509,46	0,436
509,67	0,334
509,87	0,425
510,08	0,326
510,29	0,294
510,49	0,333
510,70	0,393
510,91	0,411
511,12	0,222
511,32	0,418
511,53	0,411
511,74	0,196
511,94	0,200
512,15	0,434
512,36	0,362
512,57	0,315
512,77	0,413
512,98	0,336
513,19	0,597
513,39	0,420
513,60	0,299
513,81	0,357
514,01	0,468
514,22	0,524
514,43	0,388
514,64	0,330
514,84	0,496
515,05	0,541
515,26	0,384
515,46	0,242
515,67	0,343
515,88	0,436
516,08	0,453
516,29	0,220
516,50	0,283
516,70	0,423
516,91	0,438
517,12	0,442
517,32	0,247
517,53	0,195
517,74	0,280
517,95	0,468
518,15	0,310
518,36	0,548
518,57	0,191
518,77	0,357
518,98	0,333
519,19	0,178
519,39	0,536
519,60	0,408
519,80	0,251
520,01	0,270
520,22	0,459
520,42	0,247
520,63	0,493
520,84	0,258
521,04	0,345
521,25	0,367
521,46	0,231
521,66	0,243
521,87	0,374
522,08	0,470
522,28	0,598
522,49	0,641
522,70	0,266
522,90	0,287
523,11	0,192
523,31	0,295
523,52	0,538
523,73	0,396
523,93	0,572
524,14	0,554
524,35	0,551
524,55	0,687
524,76	0,449
524,97	0,703
525,17	0,670
525,38	0,780
525,58	0,842
525,79	1,129
526,00	1,149
526,20	1,285
526,41	1,473
526,61	1,995
526,82	2,297
527,03	2,940
527,23	3,418
527,44	3,935
527,64	4,968
527,85	5,603
528,06	7,127
528,26	8,020
528,47	9,542
528,68	11,205
528,88	12,475
529,09	13,937
529,29	16,287
529,50	17,928
529,70	20,302
529,91	22,179
530,12	23,865
530,32	25,275
530,53	27,952
530,73	29,891
530,94	31,245
531,15	32,514
531,35	34,587
531,56	35,896
531,76	37,009
531,97	38,216
532,17	38,766
532,38	40,015
532,59	41,149
532,79	41,907
533,00	43,148
533,20	44,274
533,41	45,240
533,61	45,758
533,82	46,790
534,03	47,961
534,23	49,986
534,44	50,761
534,64	51,631
534,85	53,793
535,05	55,408
535,26	56,170
535,46	57,978
535,67	59,017
535,88	60,337
536,08	62,611
536,29	63,378
536,49	65,573
536,70	67,183
536,90	67,555
537,11	68,038
537,31	67,985
537,52	68,272
537,72	67,938
537,93	66,931
538,13	66,331
538,34	64,668
538,55	64,090
538,75	63,431
538,96	61,385
539,16	61,151
539,37	59,730
539,57	57,989
539,78	56,457
539,98	55,759
540,19	54,802
540,39	53,895
540,60	52,550
540,80	51,612
541,01	50,079
541,21	49,392
541,42	48,202
541,62	47,308
541,83	46,102
542,03	45,168
542,24	44,134
542,44	42,472
542,65	41,858
542,85	39,076
543,06	38,747
543,26	37,826
543,47	35,368
543,67	34,737
543,88	33,129
544,08	31,079
544,29	28,938
544,49	26,408
544,70	24,738
544,90	23,064
545,11	21,206
545,31	19,462
545,52	17,441
545,72	16,038
545,93	14,039
546,13	12,408
546,34	10,902
546,54	9,121
546,75	7,775
546,95	6,538
547,15	5,257
547,36	4,388
547,56	3,610
547,77	2,756
547,97	2,041
548,18	1,730
548,38	1,449
548,59	1,155
548,79	1,180
549,00	0,746
549,20	0,543
549,41	0,600
549,61	0,546
549,81	0,482
550,02	0,345
550,22	0,372
550,43	0,438
550,63	0,187
550,84	0,501
551,04	0,263
551,25	0,350
551,45	0,521
551,65	0,418
551,86	0,401
552,06	0,253
552,27	0,127
552,47	0,247
552,68	0,523
552,88	0,283
553,08	0,276
553,29	0,279
553,49	0,379
553,70	0,444
553,90	0,342
554,11	0,391
554,31	0,215
554,51	0,449
554,72	0,237
554,92	0,315
555,13	0,416
555,33	0,212
555,53	0,271
555,74	0,452
555,94	0,374
556,15	0,247
556,35	0,185
556,56	0,186
556,76	0,311
556,96	0,375
557,17	0,435
557,37	0,539
557,58	0,241
557,78	0,345
557,98	0,355
558,19	0,220
558,39	0,289
558,59	0,259
558,80	0,277
559,00	0,188
559,21	0,406
559,41	0,292
559,61	0,303
559,82	0,434
560,02	0,374
560,23	0,241
560,43	0,432
560,63	0,268
560,84	0,348
561,04	0,313
561,24	0,489
561,45	0,358
561,65	0,271
561,85	0,275
562,06	0,236
562,26	0,122
562,47	0,422
562,67	0,336
562,87	0,151
563,08	0,459
563,28	0,443
563,48	0,388
563,69	0,220
563,89	0,431
564,09	0,347
564,30	0,118
564,50	0,254
564,70	0,239
564,91	0,255
565,11	0,303
565,31	0,398
565,52	0,163
565,72	0,490
565,92	0,316
566,13	0,202
566,33	0,335
566,53	0,336
566,74	0,247
566,94	0,087
567,14	0,318
567,35	0,387
567,55	0,365
567,75	0,548
567,96	0,400
568,16	0,320
568,36	0,212
568,57	0,403
568,77	0,317
568,97	0,362
569,18	0,305
569,38	0,346
569,58	0,210
569,79	0,093
569,99	0,285
570,19	0,198
570,39	0,349
570,60	0,250
570,80	0,100
571,00	0,208
571,21	0,295
571,41	0,238
571,61	0,444
571,82	0,336
572,02	0,237
572,22	0,193
572,42	0,263
572,63	0,217
572,83	0,384
573,03	0,190
573,24	0,063
573,44	0,330
573,64	0,319
573,84	-0,019
574,05	0,280
574,25	0,148
574,45	0,383
574,66	0,287
574,86	0,252
575,06	0,226
575,26	0,269
575,47	0,373
575,67	0,248
575,87	0,436
576,07	0,247
576,28	0,225
576,48	0,181
576,68	0,369
576,88	0,306
577,09	0,368
577,29	0,401
577,49	0,153
577,69	0,033
577,90	0,295
578,10	0,203
578,30	0,357
578,50	0,201
578,71	0,343
578,91	0,266
579,11	0,335
579,31	0,417
579,52	0,252
579,72	0,177
579,92	0,336
580,12	0,272
580,33	0,303
580,53	0,182
580,73	0,145
580,93	0,362
581,13	0,249
581,34	0,191
581,54	0,428
581,74	0,307
581,94	0,331
582,15	0,561
582,35	0,240
582,55	0,356
582,75	0,337
582,95	0,331
583,16	0,335
583,36	0,248
583,56	0,528
583,76	0,240
583,96	0,298
584,17	0,207
584,37	0,367
584,57	0,286
584,77	0,210
584,97	0,217
585,18	0,402
585,38	0,214
585,58	0,334
585,78	0,396
585,98	0,333
586,19	0,332
586,39	0,458
586,59	0,103
586,79	0,432
586,99	0,154
587,20	0,263
587,40	0,271
587,60	0,177
587,80	0,317
588,00	0,352
588,20	0,383
588,41	0,395
588,61	0,461
588,81	0,285
589,01	0,443
589,21	0,395
589,41	0,294
589,62	0,406
589,82	0,300
590,02	0,285
590,22	0,395
590,42	0,318
590,62	0,370
590,83	0,347
591,03	0,225
591,23	0,258
591,43	0,550
591,63	0,266
591,83	0,355
592,03	0,328
592,24	0,470
592,44	0,310
592,64	0,364
592,84	0,462
593,04	0,368
593,24	0,381
593,44	0,475
593,65	0,523
593,85	0,491
594,05	0,547
594,25	0,520
594,45	0,638
594,65	0,587
594,85	0,793
595,06	0,964
595,26	1,465
595,46	1,393
595,66	1,583
595,86	1,866
596,06	2,409
596,26	2,717
596,46	3,381
596,66	4,165
596,87	5,000
597,07	5,879
597,27	6,708
597,47	8,005
597,67	9,132
597,87	10,570
598,07	12,056
598,27	13,827
598,47	15,631
598,67	17,153
598,88	19,537
599,08	21,773
599,28	23,702
599,48	26,239
599,68	29,345
599,88	30,683
600,08	33,660
600,28	35,464
600,48	37,696
600,68	40,412
600,88	43,083
601,09	44,883
601,29	46,975
601,49	49,197
601,69	51,531
601,89	52,778
602,09	55,533
602,29	57,867
602,49	60,116
602,69	63,414
602,89	65,140
603,09	67,461
603,29	69,087
603,49	72,878
603,69	74,143
603,90	76,015
604,10	77,646
604,30	79,880
604,50	80,940
604,70	82,643
604,90	83,559
605,10	83,848
605,30	85,288
605,50	86,204
605,70	87,244
605,90	87,955
606,10	87,978
606,30	88,979
606,50	89,187
606,70	89,115
606,90	89,446
607,10	89,838
607,30	91,053
607,50	90,644
607,70	91,551
607,90	90,721
608,10	91,623
608,30	92,584
608,50	92,359
608,70	92,304
608,90	92,624
609,11	93,139
609,31	91,837
609,51	91,665
609,71	92,201
609,91	90,377
610,11	90,157
610,31	89,663
610,51	88,828
610,71	88,703
610,91	87,071
611,11	85,362
611,31	84,213
611,51	82,288
611,71	81,434
611,91	79,717
612,11	77,325
612,31	75,911
612,51	72,854
612,71	71,670
612,91	69,342
613,11	67,605
613,31	65,324
613,51	63,529
613,71	60,919
613,91	59,322
614,11	57,197
614,31	56,448
614,50	54,854
614,70	53,314
614,90	52,693
615,10	51,374
615,30	50,368
615,50	49,482
615,70	49,227
615,90	48,909
616,10	48,032
616,30	47,564
616,50	46,971
616,70	45,971
616,90	45,316
617,10	44,743
617,30	44,522
617,50	43,535
617,70	43,388
617,90	42,276
618,10	41,011
618,30	40,450
618,50	39,731
618,70	39,150
618,90	37,366
619,10	36,189
619,30	34,574
619,49	33,426
619,69	31,682
619,89	29,853
620,09	28,087
620,29	26,419
620,49	24,237
620,69	22,423
620,89	20,418
621,09	17,910
621,29	15,986
621,49	13,870
621,69	11,984
621,89	10,289
622,09	9,000
622,29	7,455
622,48	6,462
622,68	5,208
622,88	4,276
623,08	3,660
623,28	2,919
623,48	2,355
623,68	1,916
623,88	1,581
624,08	1,268
624,28	1,260
624,48	1,222
624,67	0,848
624,87	0,689
625,07	0,625
625,27	0,703
625,47	0,554
625,67	0,492
625,87	0,352
626,07	0,450
626,27	0,270
626,47	0,502
626,66	0,346
626,86	0,332
627,06	0,393
627,26	0,315
627,46	0,224
627,66	0,298
627,86	0,318
628,06	0,326
628,25	0,484
628,45	0,334
628,65	0,377
628,85	0,280
629,05	0,340
629,25	0,238
629,45	0,300
629,65	0,205
629,84	0,131
630,04	0,329
630,24	0,207
630,44	0,245
630,64	0,315
630,84	0,165
631,04	0,274
631,23	0,303
631,43	0,262
631,63	0,210
631,83	0,071
632,03	0,203
632,23	0,394
632,42	0,367
632,62	0,270
632,82	0,311
633,02	0,206
633,22	0,393
633,42	0,205
633,62	0,191
633,81	0,233
634,01	0,420
634,21	0,224
634,41	0,555
634,61	0,261
634,80	0,432
635,00	0,326
635,20	0,284
635,40	0,125
635,60	0,265
635,80	0,315
635,99	0,483
636,19	0,216
636,39	-0,005
636,59	0,339
636,79	0,366
636,98	0,454
637,18	0,254
637,38	0,568
637,58	0,151
637,78	0,324
637,97	0,369
638,17	0,277
638,37	0,549
638,57	0,236
638,77	0,483
638,96	0,429
639,16	0,415
639,36	0,172
639,56	0,500
639,76	0,459
639,95	0,443
640,15	0,459
640,35	0,316
640,55	0,345
640,75	0,433
640,94	0,291
641,14	0,247
641,34	0,210
641,54	0,322
641,73	0,200
641,93	0,449
642,13	0,439
642,33	0,391
642,53	0,454
642,72	0,481
642,92	0,215
643,12	0,339
643,32	0,508
643,51	0,581
643,71	0,221
643,91	0,420
644,11	0,568
644,30	0,329
644,50	0,453
644,70	0,383
644,90	0,457
645,09	0,404
645,29	0,440
645,49	0,378
645,69	0,460
645,88	0,339
646,08	0,413
646,28	0,745
646,48	0,501
646,67	0,488
646,87	0,310
647,07	0,515
647,26	0,805
647,46	0,355
647,66	0,516
647,86	0,733
648,05	0,774
648,25	0,839
648,45	0,665
648,65	0,313
648,84	0,207
649,04	0,657
649,24	0,748
649,43	0,575
649,63	0,591
649,83	0,501
650,03	0,754
650,22	0,337
650,42	0,452
650,62	0,673
650,81	0,612
651,01	0,647
651,21	0,532
651,40	0,864
651,60	0,081
651,80	0,563
652,00	0,650
652,19	0,492
652,39	0,561
652,59	0,790
652,78	0,501
652,98	0,008
653,18	0,502
653,37	0,744
653,57	0,834
653,77	0,552
653,96	0,424
654,16	0,530
654,36	0,670
654,55	0,522
654,75	0,492
654,95	0,434
655,14	0,388
655,34	0,726
655,54	0,404
655,73	0,208
655,93	0,401
656,13	0,322
656,32	0,352
656,52	0,486
656,72	0,634
656,91	0,459
657,11	0,474
657,31	0,348
657,50	0,578
657,70	0,764
657,90	0,452
658,09	0,720
658,29	0,424
658,49	0,332
658,68	0,687
658,88	0,663
659,07	0,523
659,27	0,131
659,47	0,705
659,66	0,450
659,86	-0,009
660,06	0,476
660,25	0,327
660,45	0,625
660,64	0,307
660,84	0,427
661,04	0,280
661,23	0,429
661,43	0,624
661,63	0,490
661,82	-0,087
662,02	0,591
662,21	0,288
662,41	0,551
662,61	0,735
662,80	0,386
663,00	0,243
663,19	0,672
663,39	0,259
663,59	0,930
663,78	0,722
663,98	0,539
664,17	0,673
664,37	0,431
664,57	0,137
664,76	0,552
664,96	-0,068
665,15	0,519
665,35	0,542
665,55	0,367
665,74	0,405
665,94	0,700
666,13	0,216
666,33	0,759
666,53	0,601
666,72	0,556
666,92	0,750
667,11	0,383
667,31	0,239
667,50	0,166
667,70	0,583
667,90	0,204
668,09	0,426
668,29	0,393
668,48	0,317
668,68	0,487
668,87	0,604
669,07	0,232
669,26	0,641
669,46	0,529
669,66	0,325
669,85	0,623
670,05	0,316
670,24	0,504
670,44	0,362
670,63	0,242
670,83	0,187
671,02	0,274
671,22	0,434
671,42	0,371
671,61	0,377
671,81	0,746
672,00	0,704
672,20	0,243
672,39	0,548
672,59	0,345
672,78	0,030
672,98	0,233
673,17	0,230
673,37	0,285
673,56	0,435
673,76	0,102
673,95	0,751
674,15	0,635
674,34	0,222
674,54	0,285
674,73	0,135
674,93	0,319
675,13	0,516
675,32	0,512
675,52	0,581
675,71	0,288
675,91	0,429
676,10	0,659
676,30	0,096
676,49	0,149
676,69	0,535
676,88	0,329
677,08	0,236
677,27	0,065
677,47	0,442
677,66	0,562
677,86	0,448
678,05	0,217
678,24	0,419
678,44	0,753
678,63	0,610
678,83	0,235
679,02	0,252
679,22	0,272
679,41	0,464
679,61	0,346
679,80	0,302
680,00	0,053
680,19	0,205
680,39	0,360
680,58	0,296
680,78	0,138
680,97	0,296
681,17	0,226
681,36	0,136
681,56	0,236
681,75	0,229
681,94	0,325
682,14	0,537
682,33	0,482
682,53	0,211
682,72	0,247
682,92	0,485
683,11	0,179
683,31	0,483
683,50	0,402
683,69	0,298
683,89	0,314
684,08	0,289
684,28	0,133
684,47	0,291
684,67	0,134
684,86	0,104
685,06	0,326
685,25	0,337
685,44	0,203
685,64	0,394
685,83	0,342
686,03	0,141
686,22	0,256
686,42	0,379
686,61	0,355
686,80	0,082
687,00	0,117
687,19	0,253
687,39	0,280
687,58	0,349
687,77	0,243
687,97	0,200
688,16	0,400
688,36	0,209
688,55	0,117
688,74	0,123
688,94	0,184
689,13	0,298
689,33	0,354
689,52	0,334
689,71	0,277
689,91	0,243
690,10	0,273
690,30	0,072
690,49	0,016
690,68	0,179
690,88	0,186
691,07	-0,028
691,27	0,024
691,46	0,264
691,65	0,300
691,85	0,165
692,04	0,162
692,23	-0,028
692,43	0,158
692,62	0,283
692,82	0,152
693,01	0,215
693,20	-0,024
693,40	0,168
693,59	0,122
693,78	0,300
693,98	0,024
694,17	0,312
694,36	0,419
694,56	0,265
694,75	0,179
694,94	0,265
695,14	0,157
695,33	0,316
695,53	0,465
695,72	0,215
695,91	-0,005
696,11	0,240
696,30	0,086
696,49	0,201
696,69	0,487
696,88	0,264
697,07	0,343
697,27	0,287
697,46	0,308
697,65	0,170
697,85	0,228
698,04	0,342
698,23	0,249
698,43	0,424
698,62	-0,303
698,81	0,585
699,01	0,609
699,20	0,421
699,39	0,375
699,58	0,203
699,78	0,176
699,97	0,440
700,16	0,250
700,36	0,468
700,55	0,250
700,74	0,657
700,94	0,251
701,13	0,550
701,32	0,078
701,52	0,050
701,71	0,666
701,90	0,235
702,09	0,542
702,29	0,258
702,48	0,182
702,67	0,595
702,87	1,084
703,06	0,451
703,25	0,961
703,44	0,470
703,64	0,760
703,83	0,831
704,02	0,821
704,22	0,797
704,41	0,356
704,60	1,199
704,79	0,673
704,99	1,059
705,18	0,779
705,37	1,379
705,56	0,380
705,76	1,553
705,95	2,001
706,14	1,374
706,33	0,888
706,53	1,034
706,72	1,109
706,91	1,261
707,11	1,268
707,30	-0,449
707,49	2,099
707,68	1,432
707,88	2,281
708,07	-0,195
708,26	0,920
708,45	0,934
708,64	1,246
708,84	1,186
709,03	2,703
709,22	0,752
709,41	2,041
709,61	1,827
709,80	1,928
709,99	1,773
710,18	2,066
710,38	0,912
710,57	-0,572
710,76	1,082
710,95	1,826
711,14	2,218
711,34	1,067
711,53	2,975
711,72	3,426
711,91	2,325
712,11	1,841
712,30	2,270
712,49	2,067
712,68	1,781
712,87	2,531
713,07	3,171
713,26	2,374
713,45	0,916
713,64	1,091
713,83	0,220
714,03	2,193
714,22	2,127
714,41	2,654
714,60	1,898
714,79	-0,336
714,99	0,900
715,18	4,051
715,37	3,058
715,56	0,999
715,75	3,252
715,94	4,970
716,14	4,346
716,33	2,966
716,52	6,027
716,71	3,773
716,90	2,830
717,10	1,114
717,29	-0,056
717,48	3,059
717,67	3,497
717,86	1,961
718,05	3,220
718,24	2,556
718,44	5,545
718,63	1,582
718,82	1,187
719,01	2,802
719,20	1,905
719,39	4,902
719,59	1,172
719,78	2,204
719,97	6,158
720,16	3,629
720,35	3,854
720,54	1,887
720,73	7,167
720,93	1,952
721,12	2,443
721,31	3,061
721,50	6,764
721,69	3,048
721,88	7,220
722,07	1,350
722,27	3,747
722,46	2,624
722,65	2,145
722,84	3,468
723,03	7,170
723,22	2,417
723,41	3,904
723,60	3,107
723,79	6,683
723,99	2,598
724,18	4,396
724,37	3,542
724,56	3,663
724,75	3,478
724,94	9,882
725,13	2,060
725,32	9,181
725,51	4,186
725,71	5,146
725,90	8,790
726,09	4,110
726,28	5,720
726,47	4,635
726,66	7,942
726,85	3,697
727,04	3,670
727,23	7,163
727,42	7,518
727,61	9,979
727,81	-0,216
728,00	4,574
728,19	9,534
728,38	3,057
728,57	7,708
728,76	12,017
728,95	6,771
729,14	7,035
729,33	8,172
729,52	3,487
729,71	2,278
729,90	8,022
730,09	7,377
730,28	2,556
730,48	6,433
730,67	8,036
730,86	6,501
731,05	6,301
731,24	-0,122
731,43	8,711
731,62	9,278
731,81	0,568
732,00	7,186
732,19	6,490
732,38	7,051
732,57	9,535
732,76	8,208
732,95	3,732
733,14	-1,004
733,33	3,175
733,52	7,303
733,71	5,308
733,90	2,260
734,09	9,054
734,28	8,005
734,47	4,722
734,66	5,481
734,85	2,714
735,04	8,131
735,23	9,524
735,42	8,743
735,61	9,475
735,81	10,651
736,00	3,704
736,19	5,927
736,38	7,934
736,57	14,678
736,76	13,431
736,95	9,076
737,14	15,152
737,33	12,023
737,52	6,154
737,71	7,213
737,90	12,674
738,09	16,134
738,28	11,510
738,47	4,927
738,66	4,647
738,85	16,366
739,04	9,091
739,22	12,207
739,41	1,103
739,60	8,532
739,79	2,338
739,98	2,867
740,17	5,290
740,36	16,998
740,55	11,624
740,74	20,240
740,93	7,648
741,12	12,500
741,31	9,155
741,50	5,860
741,69	12,920
741,88	3,162
742,07	11,051
742,26	14,476
742,45	20,697
742,64	11,700
742,83	13,805
743,02	9,053
743,21	12,635
743,40	5,176
743,59	14,154
743,78	9,785
743,97	13,269
744,16	15,748
744,34	2,331
744,53	16,701
744,72	10,438
744,91	4,202
745,10	18,868
745,29	10,887
745,48	7,955
745,67	9,112
745,86	16,336
746,05	10,664
746,24	11,959
746,43	2,784
746,62	17,241
746,81	17,303
747,00	10,941
747,18	15,251
747,37	16,421
747,56	16,000
747,75	-0,985
747,94	11,650
748,13	24,609
748,32	19,048
748,51	17,513
748,70	12,775
748,89	7,963
749,08	11,047
749,26	13,656
749,45	1,340
749,64	11,335
749,83	20,674
750,02	21,467
750,21	10,433
750,40	25,709
750,59	13,137
750,78	14,963
750,96	10,497
751,15	14,252
751,34	12,216
751,53	13,934
751,72	16,620
751,91	15,803
752,10	5,759
752,29	18,667
752,47	16,046
752,66	3,492
752,85	18,579
753,04	20,950
753,23	22,291
753,42	22,911
753,61	16,928
753,80	7,904
753,98	23,737
754,17	10,638
754,36	28,710
754,55	8,133
754,74	6,818
754,93	30,028
755,12	16,617
755,30	13,961
755,49	14,535
755,68	18,098
755,87	23,669
756,06	23,611
756,25	22,796
756,43	0,671
756,62	21,429
756,81	19,205
757,00	15,789
757,19	5,208
757,38	10,811
757,56	9,200
757,75	20,478
757,94	5,323
758,13	18,151
758,32	22,552
758,51	15,488
758,69	15,444
758,88	2,020
759,07	25,150
759,26	14,488
759,45	18,246
759,63	4,762
759,82	12,281
760,01	16,117
760,20	40,252
760,39	14,511
760,57	-2,787
760,76	25,784
760,95	23,958
761,14	32,117
761,33	24,516
761,51	25,000
761,70	35,316
761,89	10,667
762,08	28,253
762,27	7,942
762,45	13,768
762,64	23,116
762,83	31,474
763,02	24,348
763,21	-5,000
763,39	24,476
763,58	21,561
763,77	34,177
763,96	9,562
764,14	18,750
764,33	10,476
764,52	20,089
764,71	4,918
764,89	31,250
765,08	22,660
765,27	17,872
765,46	30,493
765,65	31,373
765,83	47,511
766,02	-0,952
766,21	26,230
766,40	44,747
766,58	21,164
766,77	33,486
766,96	29,268
767,15	36,975
767,33	35,266
767,52	28,384
767,71	19,737
767,90	27,136
768,08	29,940
768,27	30,488
768,46	35,965
768,64	15,278
768,83	34,804
769,02	21,675
769,21	14,583
769,39	33,571
769,58	37,229
769,77	44,681
769,96	28,829
770,14	24,590
770,33	28,972
770,52	47,482
770,70	22,162
770,89	38,919
771,08	-9,036
771,27	34,737
771,45	22,353
771,64	69,091
771,83	26,961
772,01	38,660
772,20	23,881
772,39	18,354
772,57	27,363
772,76	37,838
772,95	11,494
773,14	54,422
773,32	25,989
773,51	27,976
773,70	45,324
773,88	33,548
774,07	43,147
774,26	8,065
774,44	60,150
774,63	38,922
774,82	27,273
775,00	28,505
775,19	22,024
775,38	35,638
775,56	53,416
775,75	38,462
775,94	20,000
776,12	68,627
776,31	20,301
776,50	30,137
776,68	28,495
776,87	54,545
777,06	62,264
777,24	36,975
777,43	42,246
777,62	64,607
777,80	49,686
777,99	61,667
778,18	25,862
778,36	67,797
778,55	21,186
778,74	62,500
778,92	28,395
779,11	58,182
779,29	-7,801
779,48	43,262
779,67	54,054
779,85	66,667
780,04	39,855
780,23	50,000
780,41	54,237
780,60	29,530
780,79	49,194
780,97	36,601
781,16	14,894
781,34	43,919
781,53	53,571
781,72	18,919
781,90	51,497
782,09	34,884
782,28	33,333
782,46	50,000
782,65	37,324
782,83	45,283
783,02	75,439
783,21	44,361
783,39	65,546
783,58	50,435
783,76	46,939
783,95	94,366
784,14	26,316
784,32	-8,235
784,51	54,054
784,69	39,063
784,88	39,252
785,06	50,331
785,25	29,787
785,44	33,871
785,62	60,714
785,81	52,778
785,99	35,338
786,18	12,613
786,37	82,418
786,55	61,111
786,74	84,545
786,92	17,483
787,11	20,833
787,29	55,357
787,48	43,011
787,67	49,057
787,85	88,608
788,04	39,640
788,22	64,356
788,41	55,118
788,59	43,421
788,78	50,549
788,96	32,231
789,15	31,667
789,34	43,269
789,52	20,968
789,71	82,734
789,89	53,247
790,08	86,250
790,26	53,503
790,45	119,444
790,63	55,172
790,82	38,462
791,00	31,858
791,19	20,800
791,38	39,048
791,56	46,364
791,75	31,944
791,93	92,000
792,12	63,478
792,30	67,883
792,49	42,424
792,67	57,353
792,86	58,400
793,04	60,185
793,23	49,474
793,41	39,855
793,60	49,306
793,78	59,048
793,97	54,167
794,15	75,188
794,34	24,000
794,52	12,903
794,71	31,008
794,89	56,061
795,08	93,600
795,26	70,667
795,45	54,167
795,63	45,968
795,82	78,022
796,00	56,000
796,19	49,593
796,37	59,542
796,56	43,689
796,74	15,789
796,93	42,424
797,11	56,627
797,30	50,000
797,48	56,250
797,67	84,553
797,85	50,000
798,04	44,068
798,22	89,744
798,41	23,077
798,59	59,048
798,77	39,759
798,96	45,062
799,14	79,032
799,33	98,165
799,51	84,722
799,70	80,769
799,88	118,349
800,07	79,389
800,25	57,831
800,44	68,519
800,62	66,667
800,80	28,169
800,99	165,753
801,17	76,724
801,36	69,286
801,54	74,000
801,73	48,421
801,91	90,909
802,10	94,118
802,28	40,800
802,46	34,211
802,65	62,590
802,83	85,333
803,02	48,387
803,20	66,265
803,39	122,989
803,57	55,118
803,75	79,675
803,94	51,587
804,12	77,931
804,31	30,435
804,49	42,400
804,67	32,353
804,86	76,106
805,04	22,892
805,23	56,637
805,41	60,833
805,59	77,397
805,78	57,600
805,96	50,602
806,15	90,099
806,33	56,579
806,51	81,333
806,70	72,180
806,88	56,977
807,07	71,171
807,25	65,934
807,43	70,536
807,62	59,292
807,80	50,476
807,99	74,615
808,17	34,646
808,35	56,000
808,54	60,870
808,72	63,964
808,90	56,164
809,09	83,696
809,27	73,333
809,46	68,132
809,64	63,415
809,82	54,967
810,01	22,656
810,19	40,404
810,37	44,531
810,56	150,000
810,74	20,779
810,92	32,667
811,11	18,421
811,29	103,774
811,48	36,154
811,66	46,067
811,84	18,681
812,03	36,066
812,21	54,386
812,39	63,478
812,58	62,105
812,76	57,554
812,94	8,434
813,13	53,191
813,31	82,000
813,49	71,296
813,68	38,182
813,86	8,989
814,04	62,810
814,23	41,566
814,41	53,933
814,59	50,485
814,78	33,088
814,96	51,572
815,14	80,374
815,33	53,488
815,51	68,504
815,69	106,667
815,87	63,366
816,06	46,087
816,24	69,565
816,42	68,382
816,61	35,849
816,79	61,207
816,97	73,864
817,16	27,811
817,34	66,667
817,52	61,157
817,70	75,248
817,89	19,259
818,07	50,685
818,25	37,755
818,44	41,026
818,62	39,535
818,80	30,075
818,98	56,051
819,17	47,059
819,35	38,298
819,53	113,433
819,72	53,165
819,90	61,240
820,08	35,897
820,26	68,966
820,45	19,463
820,63	106,250
820,81	49,600
820,99	43,972
821,18	59,864
821,36	50,000
821,54	55,862
821,73	50,000
821,91	58,772
822,09	45,968
822,27	64,516
822,46	27,206
822,64	42,400
822,82	45,856
823,00	21,547
823,19	31,868
823,37	55,758
823,55	31,818
823,73	45,517
823,91	23,188
824,10	24,194
824,28	53,266
824,46	22,330
824,64	34,868
824,83	46,584
825,01	72,667
825,19	41,935
825,37	37,391
825,56	44,340
825,74	43,367
825,92	48,408
826,10	49,432
826,28	44,643
826,47	24,737
826,65	48,227
826,83	25,000
827,01	29,480
827,19	55,357
827,38	44,444
827,56	64,773
827,74	37,430
827,92	34,884
828,10	42,308
828,29	62,722
828,47	44,715
828,65	43,077
828,83	19,394
829,01	33,696
829,20	52,747
829,38	39,773
829,56	27,174
829,74	25,786
829,92	42,460
830,10	43,103
830,29	32,663
830,47	18,593
830,65	4,268
830,83	32,589
831,01	42,857
831,20	30,583
831,38	39,713
831,56	41,860
831,74	54,976
831,92	43,421
832,10	20,476
832,29	12,838
832,47	14,045
832,65	50,490
832,83	32,864
833,01	34,500
833,19	31,222
833,37	51,584
833,56	37,975
833,74	49,020
833,92	18,981
834,10	16,183
834,28	43,460
834,46	37,557
834,64	35,648
834,83	35,455
835,01	42,739
835,19	22,800
835,37	15,289
835,55	19,792
835,73	23,153
835,91	33,948
836,09	22,433
836,28	29,151
836,46	10,000
836,64	49,248
836,82	15,837
837,00	23,188
837,18	24,164
837,36	26,295
837,54	15,455
837,72	3,017
837,91	32,836
838,09	15,139
838,27	31,667
838,45	24,823
838,63	20,221
838,81	32,911
838,99	39,113
839,17	16,892
839,35	23,759
839,53	34,386
839,72	19,549
839,90	21,306
840,08	28,308
840,26	20,635
840,44	27,492
840,62	19,655
840,80	26,871
840,98	20,000
841,16	22,814
841,34	19,732
841,52	17,737
841,70	28,308
841,89	24,194
842,07	21,003
842,25	34,770
842,43	16,810
842,61	30,526
842,79	15,819
842,97	10,749
843,15	18,812
843,33	18,612
843,51	24,398
843,69	26,211
843,87	4,851
844,05	16,413
844,23	25,826
844,41	24,138
844,59	14,986
844,77	14,006
844,95	11,272
845,13	25,846
845,31	16,860
845,50	27,225
845,68	19,614
845,86	7,184
846,04	20,950
846,22	13,351
846,40	23,387
846,58	27,066
846,76	17,204
846,94	25,436
847,12	16,839
847,30	15,206
847,48	13,313
847,66	21,182
847,84	9,836
848,02	22,947
848,20	26,873
848,38	26,211
848,56	23,580
848,74	23,150
848,92	15,960
849,10	19,000
849,28	10,931
849,46	14,933
849,64	21,247
849,82	14,198
850,00	25,000
850,18	23,617
850,36	10,817
850,54	16,541
850,72	20,308
850,90	23,913
851,08	16,630
851,26	19,912
851,44	16,372
851,62	17,907
851,80	12,555
851,98	18,462
852,16	7,565
852,34	15,464
852,52	18,750
852,70	-3,417
852,87	10,959
853,05	11,111
853,23	13,608
853,41	12,698
853,59	14,315
853,77	21,230
853,95	23,207
854,13	19,027
854,31	18,480
854,49	18,164
854,67	14,255
854,85	12,629
855,03	21,242
855,21	17,895
855,39	14,286
855,57	14,337
855,75	14,964
855,93	7,451
856,11	22,244
856,28	6,273
856,46	20,285
856,64	13,143
856,82	7,732
857,00	6,085
857,18	12,094
857,36	8,094
857,54	15,571
857,72	6,140
857,90	8,856
858,08	16,863
858,26	3,934
858,44	9,552
858,61	11,498
858,79	13,668
858,97	13,274
859,15	19,040
859,33	16,250
859,51	10,553
859,69	3,757
859,87	8,896
860,05	6,572
860,23	9,903
860,40	19,039
860,58	11,148
860,76	10,476
860,94	15,935
861,12	11,385
861,30	12,716
861,48	10,143
861,66	3,492
861,84	6,577
862,01	9,573
862,19	4,407
862,37	5,749
862,55	15,994
862,73	11,610
862,91	2,643
863,09	8,333
863,27	8,190
863,44	7,052
863,62	7,473
863,80	6,892
863,98	9,941
864,16	-1,012
864,34	13,296
864,52	8,713
864,69	11,404
864,87	3,907
865,05	7,075
865,23	8,366
865,41	9,946
865,59	10,767
865,76	12,807
865,94	10,465
866,12	13,032
866,30	2,945
866,48	10,526
866,66	3,763
866,83	13,232
867,01	9,847
867,19	10,923
867,37	-1,164
867,55	6,452
867,73	8,654
867,90	6,228
868,08	11,729
868,26	7,966
868,44	4,689
868,62	11,302
868,79	10,309
868,97	4,660
869,15	4,872
869,33	5,128
869,51	7,549
869,69	6,829
869,86	8,772
870,04	10,575
870,22	8,641
870,40	10,292
870,57	5,306
870,75	3,425
870,93	4,526
871,11	10,173
871,29	5,822
871,46	7,726
871,64	8,473
871,82	7,858
872,00	10,494
872,18	2,848
872,35	8,949
872,53	8,772
872,71	8,878
872,89	12,739
873,06	6,750
873,24	6,693
873,42	0,595
873,60	3,688
873,77	4,397
873,95	2,689
874,13	4,757
874,31	7,740
874,49	5,227
874,66	6,015
874,84	6,820
875,02	11,091
875,20	5,025
875,37	7,226
875,55	7,824
875,73	3,147
875,91	6,877
876,08	3,016
876,26	3,887
876,44	6,777
876,61	6,688
876,79	7,524
876,97	1,095
877,15	4,229
877,32	8,951
877,50	6,871
877,68	2,742
877,86	3,229
878,03	9,264
878,21	6,413
878,39	4,411
878,56	3,058
878,74	5,810
878,92	0,484
879,10	3,536
879,27	7,093
879,45	5,951
879,63	5,590
879,80	6,063
879,98	1,053
880,16	5,604
880,34	7,959
880,51	2,997
880,69	2,455
880,87	5,453
881,04	3,763
881,22	3,283
881,40	7,768
881,57	6,110
881,75	3,324
881,93	5,518
882,10	1,827
882,28	4,207
882,46	5,274
882,63	5,368
882,81	7,194
882,99	4,433
883,16	6,373
883,34	0,936
883,52	3,555
883,69	8,592
883,87	1,302
884,05	3,898
884,22	4,240
884,40	4,997
884,58	-0,129
884,75	1,322
884,93	4,684
885,11	6,186
885,28	3,681
885,46	1,661
885,64	3,320
885,81	5,477
885,99	3,098
886,17	2,910
886,34	3,066
886,52	3,030
886,70	6,620
886,87	3,154
887,05	6,790
887,22	3,818
887,40	4,670
887,58	3,207
887,75	4,545
887,93	6,106
888,11	5,600
888,28	3,609
888,46	4,747
888,63	5,223
888,81	3,491
888,99	4,747
889,16	3,345
889,34	1,640
889,51	2,751
889,69	2,369
889,87	4,622
890,04	2,463
890,22	2,584
890,39	2,134
890,57	4,405
890,75	2,384
890,92	2,149
891,10	4,503
891,27	0,236
891,45	3,775
891,63	2,953
891,80	5,237
891,98	1,287
892,15	1,741
892,33	3,230
892,51	4,697
892,68	3,125
892,86	3,192
893,03	3,890
893,21	3,670
893,38	1,906
893,56	1,644
893,74	2,115
893,91	3,602
894,09	4,150
894,26	5,289
894,44	3,071
894,61	2,254
894,79	0,679
894,96	1,408
895,14	4,068
895,32	3,827
895,49	2,855
895,67	2,449
895,84	1,016
896,02	2,363
896,19	2,280
896,37	3,368
896,54	2,186
896,72	3,693
896,89	3,761
897,07	4,257
897,25	2,363
897,42	2,068
897,60	3,124
897,77	3,218
897,95	3,761
898,12	4,723
898,30	3,194
898,47	1,592
898,65	2,467
898,82	2,176
899,00	3,146
899,17	3,310
899,35	-0,039
899,52	4,774
899,70	2,938
899,87	2,215
900,05	1,636
900,22	3,924
900,40	1,362
900,57	2,635
900,75	0,523
900,92	1,298
901,10	1,935
901,27	2,850
901,45	2,571
901,62	4,046
901,80	1,754
901,97	1,115
902,15	1,829
902,32	2,839
902,50	1,076
902,67	4,482
902,85	3,066
903,02	3,312
903,20	2,640
903,37	1,459
903,54	2,945
903,72	2,934
903,89	2,493
904,07	0,820
904,24	2,588
904,42	1,690
904,59	2,821
904,77	2,759
904,94	1,747
905,12	0,886
905,29	0,667
905,47	1,987
905,64	2,790
905,81	2,331
905,99	1,540
906,16	2,185
906,34	3,355
906,51	1,900
906,69	2,381
906,86	2,915
907,03	1,783
907,21	1,726
907,38	1,872
907,56	3,253
907,73	1,805
907,91	1,997
908,08	2,039
908,25	2,066
908,43	1,208
908,60	1,780
908,78	1,279
908,95	3,067
909,13	4,058
909,30	3,554
909,47	0,979
909,65	2,425
909,82	1,999
910,00	1,920
910,17	1,470
910,34	2,864
910,52	2,180
910,69	1,798
910,87	2,600
911,04	1,454
911,21	4,088
911,39	0,547
911,56	1,339
911,73	0,300
911,91	2,293
912,08	3,484
912,26	1,601
912,43	3,759
912,60	1,105
912,78	1,741
912,95	0,900
913,13	1,559
913,30	4,004
913,47	2,693
913,65	2,949
913,82	1,844
913,99	0,727
914,17	2,237
914,34	1,723
914,51	2,772
914,69	1,923
914,86	2,653
915,03	2,477
915,21	1,033
915,38	1,677
915,56	0,695
915,73	1,023
915,90	2,786
916,08	2,037
916,25	2,147
916,42	1,860
916,60	2,057
916,77	1,986
916,94	2,503
917,12	1,605
917,29	1,434
917,46	1,455
917,64	1,502
917,81	1,013
917,98	0,983
918,16	1,017
918,33	1,827
918,50	1,560
918,67	2,267
918,85	1,495
919,02	1,917
919,19	1,147
919,37	1,938
919,54	2,869
919,71	2,376
919,89	1,407
920,06	2,613
920,23	2,123
920,41	1,347
920,58	1,248
920,75	1,692
920,92	0,964
921,10	0,924
921,27	0,825
921,44	2,067
921,62	2,181
921,79	2,234
921,96	1,913
922,13	2,227
922,31	0,413
922,48	0,810
922,65	0,948
922,82	0,641
923,00	2,390
923,17	1,344
923,34	0,952
923,52	0,655
923,69	1,031
923,86	2,213
924,03	0,896
924,21	1,087
924,38	1,684
924,55	2,221
924,72	1,535
924,90	1,328
925,07	1,773
925,24	0,354
925,41	2,071
925,59	0,662
925,76	0,508
925,93	1,862
926,10	1,225
926,28	1,135
926,45	1,044
926,62	0,361
926,79	1,230
926,96	2,694
927,14	2,752
927,31	1,126
927,48	1,711
927,65	2,227
927,83	1,037
928,00	2,218
928,17	2,086
928,34	1,063
928,51	0,373
928,69	1,197
928,86	1,836
929,03	1,164
929,20	0,990
929,37	1,191
929,55	1,792
929,72	0,909
929,89	0,963
930,06	1,461
930,23	1,987
930,41	1,457
930,58	2,167
930,75	0,664
930,92	1,606
931,09	0,840
931,27	1,630
931,44	0,880
931,61	2,017
931,78	1,623
931,95	1,653
932,12	1,563
932,30	1,139
932,47	0,970
932,64	1,624
932,81	0,304
932,98	1,530
933,16	0,907
933,33	1,236
933,50	1,242
933,67	1,940
933,84	1,623
934,01	1,953
934,18	1,486
934,36	1,256
934,53	1,610
934,70	0,965
934,87	1,174
935,04	1,914
935,21	0,217
935,38	0,741
935,56	1,569
935,73	0,479
935,90	1,448
936,07	0,805
936,24	2,508
936,41	0,848
936,58	0,553
936,76	1,808
936,93	0,709
937,10	0,763
937,27	2,226
937,44	1,693
937,61	1,507
937,78	1,311
937,95	2,100
938,13	0,874
938,30	1,545
938,47	1,043
938,64	1,040
938,81	0,298
938,98	0,618
939,15	0,503
939,32	1,418
939,49	0,916
939,66	0,974
939,84	1,333
940,01	1,094
940,18	0,951
940,35	0,719
940,52	0,534
940,69	0,182
940,86	1,563
941,03	1,175
941,20	0,466
941,37	0,335
941,54	2,406
941,71	1,883
941,89	0,849
942,06	0,713
942,23	2,732
942,40	0,926
942,57	1,325
942,74	1,807
942,91	2,060
943,08	2,307
943,25	1,443
943,42	0,133
943,59	1,360
943,76	1,396
943,93	0,448
944,10	0,653
944,27	-0,069
944,44	0,829
944,61	1,449
944,79	1,993
944,96	1,983
945,13	1,710
945,30	1,614
945,47	1,979
945,64	0,170
945,81	1,657
945,98	0,869
946,15	1,544
946,32	2,174
946,49	1,844
946,66	2,371
946,83	0,364
947,00	2,166
947,17	0,299
947,34	1,351
947,51	1,350
947,68	2,305
947,85	1,984
948,02	2,412
948,19	1,101
948,36	2,592
948,53	0,408
948,70	1,538
948,87	2,192
949,04	2,887
949,21	2,412
949,38	2,424
949,55	1,852
949,72	1,171
949,89	3,139
950,06	2,060
950,23	1,783
950,40	2,204
950,57	1,738
950,74	2,246
950,91	1,174
951,08	3,497
951,25	2,458
951,42	2,713
951,59	2,432
951,76	0,557
951,93	1,485
952,10	2,177
952,27	0,634
952,44	3,521
952,61	3,161
952,77	3,055
952,94	2,300
953,11	3,731
953,28	3,098
953,45	4,240
953,62	3,652
953,79	3,012
953,96	1,708
954,13	2,919
954,30	4,403
954,47	4,030
954,64	2,173
954,81	5,207
954,98	3,596
955,15	0,967
955,32	5,514
955,49	4,172
955,65	3,898
955,82	4,164
955,99	3,701
956,16	7,698
956,33	1,040
956,50	6,858
956,67	2,106
956,84	8,127
957,01	4,478
957,18	7,376
957,35	4,455
957,52	4,809
957,68	3,713
957,85	6,985
958,02	6,585
958,19	6,279
958,36	8,406
958,53	4,910
958,70	4,279
958,87	3,992
959,04	6,953
959,21	8,292
959,37	12,309
959,54	7,853
959,71	11,939
959,88	2,674
960,05	7,683
960,22	6,038
960,39	7,789
960,56	10,486
960,72	9,418
960,89	7,919
961,06	3,601
961,23	1,682
961,40	4,993
961,57	4,792
961,74	11,060
961,90	12,482
962,07	16,293
962,24	10,594
962,41	14,310
962,58	8,863
962,75	11,966
962,92	7,018
963,08	8,542
963,25	0,797
963,42	14,859
963,59	12,731
963,76	15,308
963,93	16,293
964,10	12,896
964,26	17,143
964,43	5,581
964,60	10,441
964,77	14,541
964,94	9,877
965,10	6,407
965,27	-0,279
965,44	9,524
965,61	13,699
965,78	13,665
965,95	13,433
966,11	23,333
966,28	20,950
966,45	20,915
966,62	4,878
966,79	13,311
966,95	28,114
967,12	20,000
967,29	29,938
967,46	32,740
967,63	34,510
967,79	28,523
967,96	2,294
968,13	28,095
968,30	43,210
968,47	32,308
968,63	26,471
968,80	37,165
968,97	30,058
969,14	29,379
969,31	28,061
969,47	49,457
969,64	18,132
969,81	34,194
969,98	16,316
970,14	38,172
970,31	27,044
970,48	39,597
970,65	41,322
970,81	48,951
970,98	39,583
971,15	81,818
971,32	43,182
971,48	66,071
971,65	28,477
971,82	50,000
971,99	53,165
972,15	-1,163
972,32	73,611
972,49	77,049
972,66	41,322
972,82	63,699
972,99	45,000
973,16	85,430
973,33	42,222
973,49	104,878
973,66	80,000
973,83	97,531
974,00	44,304
974,16	127,273
974,33	150,667
974,50	98,990
974,67	34,524
974,83	60,204
975,00	158,182
975,17	100,000
975,33	122,989
975,50	121,311
975,67	163,462
975,84	71,951
976,00	96,053
976,17	113,043
976,34	77,647
976,50	54,945
976,67	105,952
976,84	181,250
977,00	93,590
977,17	97,778
977,34	234,615
977,50	105,952
977,67	118,824
977,84	101,695
978,01	91,892
978,17	108,621
978,34	151,852
978,51	124,000
978,67	142,857
978,84	112,727
979,01	89,474
979,17	92,857
979,34	197,826
979,51	204,545
979,67	387,500
979,84	127,119
980,01	161,538
980,17	155,882
980,34	65,753
980,51	666,667
980,67	-4,444
980,84	92,857
981,01	297,059
981,17	86,765
981,34	78,571
981,50	78,947
981,67	247,619
981,84	200,000
982,00	6300,000
982,17	93,750
982,34	187,805
982,50	0,000
982,67	-1271,429
982,84	595,000
983,00	66,667
983,17	-614,286
983,33	200,000
983,50	114,634
983,67	121,739
983,83	452,381
984,00	282,609
984,17	688,889
984,33	-464,286
984,50	127,027
984,66	218,750
984,83	812,500
985,00	638,462
985,16	190,323
985,33	5750,000
985,49	120,930
985,66	142,500
985,83	-2733,333
985,99	400,000
986,16	347,368
986,32	100,000
986,49	-320,000
986,66	740,000
986,82	236,364
986,99	-40,000
987,15	184,848
987,32	458,824
987,49	264,286
987,65	-186,957
987,82	-60,000
987,98	106,061
988,15	285,714
988,31	134,286
988,48	200,000
988,65	380,000
988,81	107,273
988,98	237,838
989,14	280,000
989,31	184,746
989,47	-103,571
989,64	400,000
989,80	113,830
989,97	192,727
990,14	435,714
990,30	-637,500
990,47	-150,000
990,63	213,158
990,80	1316,667
990,96	741,667
991,13	183,333
991,29	200,000
991,46	162,500
991,62	0,000
991,79	-680,000
991,95	505,882
992,12	1400,000
992,29	-190,476
992,45	216,667
992,62	-171,429
992,78	-983,333
992,95	303,226
993,11	850,000
993,28	-7800,000
993,44	-231,034
993,61	187,719
993,77	0,000
993,94	335,897
994,10	1171,429
994,27	-44,737
994,43	337,500
994,60	864,286
994,76	203,030
994,93	-560,000
995,09	-400,000
995,26	262,500
995,42	462,500
995,59	370,000
995,75	-475,000
995,92	-1157,143
996,08	-1560,000
996,25	275,758
996,41	820,000
996,58	256,000
996,74	-690,000
996,91	150,000
997,07	312,000
997,23	107,843
997,40	1300,000
997,56	-2766,667
997,73	460,870
997,89	1920,000
998,06	163,158
998,22	144,681
998,39	214,286
998,55	505,263
998,72	-9500,000
998,88	216,000
999,05	373,333
999,21	258,824
999,37	320,930
999,54	345,161
999,70	323,810
999,87	933,333
1000,03	370,000
1000,20	371,429
1000,36	-825,000
1000,52	3000,000
1000,69	624,000
1000,85	-625,000
1001,02	271,429
1001,18	1420,000
1001,35	0,000
1001,51	535,714
1001,67	340,000
1001,84	202,439
1002,00	-863,636
1002,17	200,000
1002,33	-412,500
1002,50	683,333
1002,66	937,500
1002,82	295,122
1002,99	-504,545
1003,15	-4500,000
1003,32	-342,857
1003,48	-2033,333
1003,64	434,783
1003,81	-100,000
1003,97	208,696
1004,14	-101,818
1004,30	354,545
1004,46	-5700,000
1004,63	-476,923
1004,79	156,757
1004,95	-980,000
1005,12	-176,923
1005,28	297,222
1005,45	-666,667
1005,61	830,769
1005,77	-857,143
1005,94	258,696
1006,10	-200,000
1006,26	-137,037
1006,43	269,697
1006,59	219,355
1006,76	-176,000
1006,92	313,043
1007,08	113,636
1007,25	288,889
1007,41	13,636
1007,57	-441,176
1007,74	282,609
1007,90	-528,571
1008,06	-246,667
1008,23	-315,789
1008,39	255,556
1008,55	117,647
1008,72	-750,000
1008,88	-151,429
1009,04	-466,667
1009,21	306,250
1009,37	361,290
1009,53	-505,000
1009,70	-27,273
1009,86	342,105
1010,02	113,636
1010,19	633,333
1010,35	8800,000
1010,51	220,000
1010,68	504,545
1010,84	315,000
1011,00	571,429
1011,17	2166,667
1011,33	276,923
1011,49	581,250
1011,66	393,750
1011,82	-858,333
1011,98	540,000
1012,14	323,077
1012,31	334,091
1012,47	-514,286
1012,63	8100,000
1012,80	311,111
1012,96	5,556
1013,12	-125,926
1013,29	412,500
1013,45	-147,059
1013,61	-1180,000
1013,77	-766,667
1013,94	279,167
1014,10	2500,000
1014,26	-102,941
1014,43	323,684
1014,59	0,000
1014,75	600,000
1014,91	205,714
1015,08	173,077
1015,24	546,667
1015,40	553,333
1015,56	476,471
1015,73	255,102
1015,89	588,889
1016,05	283,784
1016,21	348,148
1016,38	194,737
1016,54	-424,000
1016,70	505,263
1016,86	-523,077
1017,03	0,000
1017,19	787,500
1017,35	340,000
1017,51	1533,333
1017,68	1214,286
1017,84	442,105
1018,00	361,905
1018,16	-593,750
1018,33	609,091
1018,49	564,286
1018,65	-568,182
1018,81	-82,927
1018,97	500,000
1019,14	-771,429
1019,30	361,905
1019,46	135,897
1019,62	3600,000
1019,79	-871,429
1019,95	-1350,000
1020,11	1120,000
1020,27	185,000
1020,43	-1137,500
1020,60	0,000
1020,76	169,118
1020,92	4600,000
1021,08	-155,556
1021,24	-2900,000
1021,41	206,061
1021,57	-391,667
1021,73	0,000
1021,89	-290,909
1022,05	262,857
1022,21	-630,769
1022,38	710,526
1022,54	1300,000
1022,70	255,556
1022,86	-2600,000
1023,02	888,889
1023,19	-315,000
1023,35	166,038
1023,51	270,968
1023,67	147,368
1023,83	609,091
1023,99	248,571
1024,16	-35,385
1024,32	618,750
1024,48	265,306
1024,64	-520,000
1024,80	533,333
1024,96	269,231
1025,12	2733,333
1025,29	25,000
1025,45	266,667
1025,61	3333,333
1025,77	357,143
1025,93	-384,615
1026,09	4350,000
1026,26	-1057,143
1026,42	-2025,000
1026,58	221,154
1026,74	814,286
1026,90	678,947
1027,06	-670,000
1027,22	-316,667
1027,38	566,667
1027,55	-296,000
1027,71	937,500
1027,87	145,000
1028,03	142,424
1028,19	-187,879
1028,35	106,757
1028,51	-27,419
1028,67	-380,000
1028,83	176,190
1029,00	721,429
1029,16	-386,667
1029,32	317,647
1029,48	3250,000
1029,64	914,286
1029,80	1516,667
1029,96	203,922
1030,12	275,000
1030,28	1550,000
1030,44	-2500,000
1030,61	193,750
1030,77	-204,348
1030,93	206,977
1031,09	-257,143
1031,25	-966,667
1031,41	-3050,000
1031,57	-21,053
1031,73	763,636
1031,89	-221,212
1032,05	571,429
1032,21	450,000
1032,37	-182,353
1032,53	-245,000
1032,69	-1400,000
1032,86	1350,000
1033,02	156,250
1033,18	-884,615
1033,34	-515,385
1033,50	167,742
1033,66	-755,556
1033,82	392,857
1033,98	-541,176
1034,14	755,556
1034,30	-186,364
1034,46	395,833
1034,62	566,667
1034,78	122,222
1034,94	-35,484
1035,10	-386,364
1035,26	-744,444
1035,42	105,714
1035,58	920,000
1035,74	-153,333
1035,90	-733,333
1036,06	186,792
1036,22	-244,000
1036,38	473,333
1036,54	670,000
1036,70	-4500,000
1036,86	-485,714
1037,02	-2300,000
1037,18	-60,714
1037,34	200,000
1037,50	-386,667
1037,66	-2866,667
1037,82	-205,882
1037,98	552,381
1038,14	-289,655
1038,30	36,538
1038,46	160,417
1038,62	167,742
1038,78	259,524
1038,94	-126,316
1039,10	-333,333
1039,26	-52,632
1039,42	-1114,286
1039,58	209,434
1039,74	137,500
1039,90	-123,077
1040,06	535,294
>>>>>End Processed Spectral Data<<<<<
