SpectraSuite Data File
++++++++++++++++++++++++++++++++++++
Date: Thu Feb 02 17:54:06 EET 2017
User: optolab
Dark Spectrum Present: Yes
Reference Spectrum Present: Yes
Number of Sampled Component Spectra: 1
Spectrometers: USB4C02475
Integration Time (usec): 100000 (USB4C02475)
Spectra Averaged: 1 (USB4C02475)
Boxcar Smoothing: 0 (USB4C02475)
Correct for Electrical Dark: No (USB4C02475)
Strobe/Lamp Enabled: No (USB4C02475)
Correct for Detector Non-linearity: No (USB4C02475)
Correct for Stray Light: No (USB4C02475)
Number of Pixels in Processed Spectrum: 3648
>>>>>Begin Processed Spectral Data<<<<<
344,91	-1700,000
345,13	-1700,000
345,35	-1700,000
345,57	-170,588
345,79	-6,522
346,00	-252,941
346,22	-1357,143
346,44	-127,273
346,66	231,915
346,87	356,522
347,09	653,846
347,31	11000,000
347,53	-1650,000
347,74	-174,419
347,96	-1314,286
348,18	252,941
348,40	429,412
348,61	-238,462
348,83	9900,000
349,05	258,974
349,27	435,294
349,48	-4450,000
349,70	521,429
349,92	357,143
350,14	210,811
350,35	-423,077
350,57	-627,778
350,79	-94,872
351,01	-473,333
351,22	520,000
351,44	791,667
351,66	366,667
351,87	1583,333
352,09	100,000
352,31	148,214
352,53	302,857
352,74	-957,143
352,96	284,211
353,18	68,750
353,40	-1300,000
353,61	513,333
353,83	200,000
354,05	393,750
354,26	346,429
354,48	-1760,000
354,70	257,143
354,92	358,333
355,13	-118,605
355,35	220,370
355,57	187,500
355,78	342,857
356,00	227,660
356,22	150,000
356,44	258,140
356,65	214,286
356,87	250,000
357,09	174,286
357,30	34,091
357,52	-1433,333
357,74	325,806
357,95	342,857
358,17	92,754
358,39	268,000
358,60	216,667
358,82	150,000
359,04	302,564
359,26	213,636
359,47	-446,154
359,69	367,857
359,91	516,000
360,12	420,000
360,34	238,889
360,56	-400,000
360,77	1011,111
360,99	454,167
361,21	269,565
361,42	-1475,000
361,64	-270,370
361,86	167,164
362,07	660,000
362,29	297,500
362,51	262,162
362,72	-2000,000
362,94	437,037
363,16	94,286
363,37	672,727
363,59	-6900,000
363,81	1275,000
364,02	141,333
364,24	195,455
364,46	423,810
364,67	190,476
364,89	429,412
365,11	329,730
365,32	303,704
365,54	200,000
365,76	127,273
365,97	207,317
366,19	63,158
366,41	720,000
366,62	161,000
366,84	491,667
367,05	92,157
367,27	1340,000
367,49	279,487
367,70	777,778
367,92	204,167
368,14	-476,923
368,35	189,706
368,57	251,515
368,79	215,385
369,00	114,103
369,22	500,000
369,43	647,368
369,65	-106,897
369,87	-176,471
370,08	495,000
370,30	735,714
370,51	290,909
370,73	122,222
370,95	400,000
371,16	164,912
371,38	232,075
371,60	283,333
371,81	131,522
372,03	-1800,000
372,24	-215,625
372,46	2066,667
372,68	200,000
372,89	81,651
373,11	202,326
373,32	79,832
373,54	400,000
373,76	538,889
373,97	193,939
374,19	-357,895
374,40	104,286
374,62	588,235
374,84	533,333
375,05	200,000
375,27	205,405
375,48	60,494
375,70	288,235
375,92	207,143
376,13	521,053
376,35	387,500
376,56	370,000
376,78	163,265
376,99	303,030
377,21	259,375
377,43	175,758
377,64	126,000
377,86	543,750
378,07	136,364
378,29	191,667
378,51	141,667
378,72	-277,273
378,94	123,913
379,15	75,000
379,37	556,250
379,58	173,333
379,80	154,545
380,01	158,000
380,23	360,870
380,45	183,333
380,66	144,444
380,88	270,270
381,09	508,696
381,31	248,718
381,52	347,826
381,74	185,714
381,95	275,000
382,17	264,000
382,39	111,290
382,60	470,588
382,82	382,759
383,03	1100,000
383,25	111,111
383,46	800,000
383,68	204,255
383,89	318,182
384,11	167,123
384,32	197,368
384,54	-1328,571
384,76	311,765
384,97	415,000
385,19	189,474
385,40	187,500
385,62	329,032
385,83	221,277
386,05	900,000
386,26	261,538
386,48	661,538
386,69	255,556
386,91	390,000
387,12	169,231
387,34	179,661
387,55	188,571
387,77	316,000
387,98	240,816
388,20	187,324
388,41	44,444
388,63	150,000
388,84	197,500
389,06	227,907
389,27	268,750
389,49	75,904
389,70	181,356
389,92	156,818
390,13	246,154
390,35	95,833
390,56	162,500
390,78	377,273
390,99	166,667
391,21	104,545
391,42	102,174
391,64	-140,000
391,85	144,828
392,07	-271,429
392,28	276,923
392,50	1500,000
392,71	7700,000
392,93	67,742
393,14	267,391
393,36	161,538
393,57	375,000
393,79	114,286
394,00	106,849
394,22	142,000
394,43	257,143
394,65	353,571
394,86	231,250
395,08	-987,500
395,29	138,298
395,50	-3200,000
395,72	1228,571
395,93	312,000
396,15	-78,571
396,36	153,333
396,58	-347,619
396,79	148,837
397,01	311,905
397,22	73,913
397,44	159,574
397,65	114,865
397,87	132,857
398,08	223,077
398,29	300,000
398,51	217,073
398,72	202,174
398,94	190,698
399,15	120,000
399,37	202,174
399,58	138,095
399,80	493,333
400,01	241,176
400,22	428,571
400,44	171,429
400,65	102,740
400,87	5600,000
401,08	89,888
401,30	132,000
401,51	58,182
401,72	116,129
401,94	219,512
402,15	163,265
402,37	227,273
402,58	176,744
402,80	37,500
403,01	83,333
403,22	139,759
403,44	166,667
403,65	77,551
403,87	118,667
404,08	186,538
404,30	256,250
404,51	90,000
404,72	618,182
404,94	122,892
405,15	91,045
405,37	107,692
405,58	116,129
405,79	542,857
406,01	67,407
406,22	44,048
406,44	98,246
406,65	89,286
406,86	91,000
407,08	74,074
407,29	56,000
407,51	55,769
407,72	77,228
407,93	88,608
408,15	55,682
408,36	211,429
408,58	71,667
408,79	55,814
409,00	73,759
409,22	55,882
409,43	94,595
409,64	53,846
409,86	54,545
410,07	48,696
410,29	18,000
410,50	30,159
410,71	25,000
410,93	20,792
411,14	62,617
411,35	49,306
411,57	32,639
411,78	55,882
412,00	19,333
412,21	42,035
412,42	34,146
412,64	63,333
412,85	29,016
413,06	38,393
413,28	46,667
413,49	37,209
413,70	35,622
413,92	32,857
414,13	18,577
414,34	20,818
414,56	33,617
414,77	40,959
414,98	22,615
415,20	45,161
415,41	22,727
415,63	28,490
415,84	27,978
416,05	19,277
416,27	18,106
416,48	28,673
416,69	3,198
416,91	14,400
417,12	10,181
417,33	15,576
417,55	23,600
417,76	20,085
417,97	17,790
418,19	4,812
418,40	0,213
418,61	12,007
418,83	14,261
419,04	11,008
419,25	9,569
419,46	10,433
419,68	6,785
419,89	13,570
420,10	11,694
420,32	8,874
420,53	10,143
420,74	11,231
420,96	15,521
421,17	8,096
421,38	6,104
421,60	8,146
421,81	4,505
422,02	5,299
422,23	4,853
422,45	6,603
422,66	6,271
422,87	3,647
423,09	6,266
423,30	5,560
423,51	9,294
423,73	4,097
423,94	9,025
424,15	3,357
424,36	5,846
424,58	6,729
424,79	4,034
425,00	4,653
425,22	6,000
425,43	4,532
425,64	2,601
425,85	2,875
426,07	4,156
426,28	4,218
426,49	2,238
426,71	2,922
426,92	4,922
427,13	2,629
427,34	3,969
427,56	6,097
427,77	0,538
427,98	2,697
428,19	1,435
428,41	1,354
428,62	3,902
428,83	2,431
429,04	2,637
429,26	1,872
429,47	4,168
429,68	0,902
429,89	1,590
430,11	2,286
430,32	2,303
430,53	1,333
430,74	2,021
430,96	2,858
431,17	2,461
431,38	1,389
431,59	2,269
431,81	1,579
432,02	1,520
432,23	2,727
432,44	2,383
432,66	1,960
432,87	0,698
433,08	1,578
433,29	2,642
433,51	1,687
433,72	1,948
433,93	1,445
434,14	1,442
434,35	2,081
434,57	0,742
434,78	1,632
434,99	1,109
435,20	1,298
435,42	1,283
435,63	0,939
435,84	1,557
436,05	1,490
436,26	0,443
436,48	1,508
436,69	0,934
436,90	1,001
437,11	1,540
437,32	0,949
437,54	1,386
437,75	1,203
437,96	1,246
438,17	0,837
438,38	1,260
438,60	1,378
438,81	0,881
439,02	0,862
439,23	1,090
439,44	0,863
439,66	0,765
439,87	1,276
440,08	1,203
440,29	1,084
440,50	1,692
440,72	1,008
440,93	1,540
441,14	1,626
441,35	1,323
441,56	1,826
441,77	2,005
441,99	2,826
442,20	3,587
442,41	4,184
442,62	5,194
442,83	6,843
443,04	7,865
443,26	9,800
443,47	12,445
443,68	14,201
443,89	16,734
444,10	18,914
444,31	22,096
444,53	24,305
444,74	26,763
444,95	29,600
445,16	32,848
445,37	33,486
445,58	36,665
445,80	39,246
446,01	40,438
446,22	41,335
446,43	43,194
446,64	43,892
446,85	44,982
447,06	46,254
447,28	46,832
447,49	47,429
447,70	48,168
447,91	48,652
448,12	49,303
448,33	50,282
448,54	51,167
448,76	52,634
448,97	54,626
449,18	57,039
449,39	58,890
449,60	60,512
449,81	62,900
450,02	65,209
450,23	68,365
450,45	71,602
450,66	72,528
450,87	76,399
451,08	77,536
451,29	78,017
451,50	78,708
451,71	79,621
451,92	80,163
452,13	81,137
452,35	78,180
452,56	79,691
452,77	78,577
452,98	78,047
453,19	78,576
453,40	76,085
453,61	75,584
453,82	75,394
454,03	75,834
454,25	75,703
454,46	75,240
454,67	74,499
454,88	73,900
455,09	73,867
455,30	74,058
455,51	72,431
455,72	72,356
455,93	70,316
456,14	70,895
456,35	70,400
456,56	70,569
456,78	70,803
456,99	70,286
457,20	69,705
457,41	71,967
457,62	72,689
457,83	72,775
458,04	74,515
458,25	74,184
458,46	75,698
458,67	75,871
458,88	75,477
459,09	75,470
459,30	76,790
459,51	75,597
459,73	75,608
459,94	75,578
460,15	75,581
460,36	74,690
460,57	74,430
460,78	73,235
460,99	71,788
461,20	70,170
461,41	68,487
461,62	67,826
461,83	66,422
462,04	63,879
462,25	62,898
462,46	61,086
462,67	59,086
462,88	56,517
463,09	55,301
463,30	51,400
463,51	49,348
463,72	46,586
463,93	45,117
464,15	41,561
464,36	39,073
464,57	36,668
464,78	33,129
464,99	31,089
465,20	28,548
465,41	26,339
465,62	23,739
465,83	21,381
466,04	18,881
466,25	17,002
466,46	14,840
466,67	13,256
466,88	11,208
467,09	9,482
467,30	8,349
467,51	7,408
467,72	6,119
467,93	5,215
468,14	4,305
468,35	3,895
468,56	3,147
468,77	2,589
468,98	2,303
469,19	1,786
469,40	1,594
469,61	1,198
469,82	1,135
470,03	1,014
470,24	0,878
470,45	0,705
470,66	0,678
470,87	0,762
471,08	0,679
471,29	0,508
471,50	0,521
471,71	0,429
471,92	0,464
472,13	0,656
472,34	0,410
472,55	0,604
472,76	0,608
472,97	0,538
473,18	0,565
473,39	0,372
473,60	0,207
473,81	0,308
474,01	0,625
474,22	0,430
474,43	0,521
474,64	0,381
474,85	0,511
475,06	0,558
475,27	0,514
475,48	0,355
475,69	0,562
475,90	0,425
476,11	0,491
476,32	0,306
476,53	0,526
476,74	0,509
476,95	0,408
477,16	0,433
477,37	0,535
477,58	0,272
477,79	0,420
478,00	0,386
478,21	0,733
478,41	0,508
478,62	0,442
478,83	0,503
479,04	0,475
479,25	0,270
479,46	0,387
479,67	0,211
479,88	0,577
480,09	0,483
480,30	0,345
480,51	0,594
480,72	0,317
480,93	0,414
481,14	0,387
481,34	0,272
481,55	0,462
481,76	0,633
481,97	0,412
482,18	0,468
482,39	0,298
482,60	0,270
482,81	0,354
483,02	0,428
483,23	0,358
483,44	0,683
483,65	0,306
483,85	0,248
484,06	0,418
484,27	0,393
484,48	0,404
484,69	0,420
484,90	0,252
485,11	0,421
485,32	0,263
485,53	0,212
485,73	0,332
485,94	0,450
486,15	0,487
486,36	0,312
486,57	0,397
486,78	0,547
486,99	0,475
487,20	0,293
487,41	0,353
487,61	0,267
487,82	0,415
488,03	0,336
488,24	0,456
488,45	0,605
488,66	0,277
488,87	0,418
489,08	0,388
489,28	0,122
489,49	0,438
489,70	0,364
489,91	0,342
490,12	0,180
490,33	0,364
490,54	0,460
490,74	0,470
490,95	0,400
491,16	0,290
491,37	0,282
491,58	0,482
491,79	0,372
492,00	0,156
492,20	0,346
492,41	0,370
492,62	0,448
492,83	0,252
493,04	0,197
493,25	0,383
493,45	0,279
493,66	0,417
493,87	0,236
494,08	0,282
494,29	0,329
494,50	0,331
494,70	0,355
494,91	0,382
495,12	0,201
495,33	0,456
495,54	0,221
495,75	0,401
495,95	0,334
496,16	0,483
496,37	0,260
496,58	0,147
496,79	0,333
496,99	0,138
497,20	0,328
497,41	0,357
497,62	0,362
497,83	0,452
498,04	0,380
498,24	0,251
498,45	0,369
498,66	0,353
498,87	0,253
499,08	0,447
499,28	0,248
499,49	0,483
499,70	0,283
499,91	0,207
500,12	0,293
500,32	0,357
500,53	0,335
500,74	0,367
500,95	0,208
501,15	0,332
501,36	0,296
501,57	0,436
501,78	0,150
501,99	0,326
502,19	0,347
502,40	0,309
502,61	0,261
502,82	0,368
503,02	0,341
503,23	0,234
503,44	0,486
503,65	0,521
503,86	0,135
504,06	0,309
504,27	0,410
504,48	0,275
504,69	0,491
504,89	0,300
505,10	0,259
505,31	0,394
505,52	0,283
505,72	0,537
505,93	0,353
506,14	0,229
506,35	0,330
506,55	0,235
506,76	0,204
506,97	0,446
507,18	0,364
507,38	0,332
507,59	0,294
507,80	0,154
508,01	0,214
508,21	0,387
508,42	0,203
508,63	0,282
508,84	0,449
509,04	0,363
509,25	0,357
509,46	0,384
509,67	0,342
509,87	0,433
510,08	0,338
510,29	0,278
510,49	0,369
510,70	0,466
510,91	0,468
511,12	0,380
511,32	0,410
511,53	0,439
511,74	0,265
511,94	0,285
512,15	0,446
512,36	0,267
512,57	0,485
512,77	0,552
512,98	0,474
513,19	0,466
513,39	0,271
513,60	0,270
513,81	0,547
514,01	0,614
514,22	0,356
514,43	0,478
514,64	0,457
514,84	0,632
515,05	0,578
515,26	0,450
515,46	0,361
515,67	0,264
515,88	0,502
516,08	0,490
516,29	0,200
516,50	0,345
516,70	0,440
516,91	0,669
517,12	0,524
517,32	0,470
517,53	0,505
517,74	0,821
517,95	0,903
518,15	0,766
518,36	1,128
518,57	1,100
518,77	1,372
518,98	1,665
519,19	1,736
519,39	2,307
519,60	2,408
519,80	3,021
520,01	3,570
520,22	4,323
520,42	4,957
520,63	5,976
520,84	6,729
521,04	7,667
521,25	9,102
521,46	10,353
521,66	11,459
521,87	13,016
522,08	14,706
522,28	16,588
522,49	18,429
522,70	20,307
522,90	22,043
523,11	23,613
523,31	25,686
523,52	26,891
523,73	28,891
523,93	31,073
524,14	32,305
524,35	34,029
524,55	35,350
524,76	36,494
524,97	37,360
525,17	39,376
525,38	39,851
525,58	41,405
525,79	42,308
526,00	42,988
526,20	43,468
526,41	44,597
526,61	45,157
526,82	45,713
527,03	45,594
527,23	45,714
527,44	47,271
527,64	46,690
527,85	47,157
528,06	47,641
528,26	47,357
528,47	48,127
528,68	48,681
528,88	48,750
529,09	48,483
529,29	48,979
529,50	48,626
529,70	49,304
529,91	48,426
530,12	48,827
530,32	49,020
530,53	50,310
530,73	49,399
530,94	49,692
531,15	49,530
531,35	50,053
531,56	50,219
531,76	49,866
531,97	49,887
532,17	48,426
532,38	48,752
532,59	48,561
532,79	47,903
533,00	47,828
533,20	46,918
533,41	46,377
533,61	45,766
533,82	45,335
534,03	43,826
534,23	43,755
534,44	43,470
534,64	41,916
534,85	41,179
535,05	40,080
535,26	38,096
535,46	37,426
535,67	36,198
535,88	35,214
536,08	33,568
536,29	32,464
536,49	30,770
536,70	29,415
536,90	28,245
537,11	25,980
537,31	24,464
537,52	23,260
537,72	21,273
537,93	19,574
538,13	17,764
538,34	16,288
538,55	15,441
538,75	13,997
538,96	12,761
539,16	11,285
539,37	9,586
539,57	8,714
539,78	7,533
539,98	6,374
540,19	5,274
540,39	4,563
540,60	3,830
540,80	2,964
541,01	2,578
541,21	2,105
541,42	1,525
541,62	1,380
541,83	1,061
542,03	0,945
542,24	0,913
542,44	0,517
542,65	0,556
542,85	0,636
543,06	0,554
543,26	0,445
543,47	0,524
543,67	0,641
543,88	0,363
544,08	0,188
544,29	0,420
544,49	0,216
544,70	0,125
544,90	0,439
545,11	0,380
545,31	0,301
545,52	0,363
545,72	0,362
545,93	0,413
546,13	0,435
546,34	0,345
546,54	0,407
546,75	0,401
546,95	0,378
547,15	0,180
547,36	0,418
547,56	0,391
547,77	0,277
547,97	0,044
548,18	0,156
548,38	0,306
548,59	0,250
548,79	0,421
549,00	0,385
549,20	0,289
549,41	0,314
549,61	0,336
549,81	0,217
550,02	0,365
550,22	0,196
550,43	0,334
550,63	0,286
550,84	0,413
551,04	0,291
551,25	0,342
551,45	0,407
551,65	0,366
551,86	0,169
552,06	0,312
552,27	0,174
552,47	0,298
552,68	0,449
552,88	0,193
553,08	0,249
553,29	0,314
553,49	0,375
553,70	0,390
553,90	0,244
554,11	0,276
554,31	0,145
554,51	0,352
554,72	0,272
554,92	0,175
555,13	0,140
555,33	0,266
555,53	0,232
555,74	0,459
555,94	0,316
556,15	0,378
556,35	0,135
556,56	0,182
556,76	0,272
556,96	0,276
557,17	0,574
557,37	0,435
557,58	0,153
557,78	0,276
557,98	0,220
558,19	0,108
558,39	0,201
558,59	0,328
558,80	0,223
559,00	0,211
559,21	0,394
559,41	0,304
559,61	0,349
559,82	0,323
560,02	0,416
560,23	0,303
560,43	0,302
560,63	0,130
560,84	0,363
561,04	0,298
561,24	0,275
561,45	0,343
561,65	0,088
561,85	0,275
562,06	0,308
562,26	0,243
562,47	0,457
562,67	0,348
562,87	0,193
563,08	0,311
563,28	0,447
563,48	0,270
563,69	0,284
563,89	0,347
564,09	0,312
564,30	0,312
564,50	0,208
564,70	0,243
564,91	0,065
565,11	0,172
565,31	0,371
565,52	0,216
565,72	0,313
565,92	0,343
566,13	0,142
566,33	0,286
566,53	0,295
566,74	0,165
566,94	0,254
567,14	0,507
567,35	0,271
567,55	0,316
567,75	0,510
567,96	0,400
568,16	0,353
568,36	0,071
568,57	0,313
568,77	0,190
568,97	0,276
569,18	0,417
569,38	0,282
569,58	0,176
569,79	0,232
569,99	0,363
570,19	0,153
570,39	0,219
570,60	0,328
570,80	0,199
571,00	0,368
571,21	0,388
571,41	0,205
571,61	0,281
571,82	0,454
572,02	0,189
572,22	0,033
572,42	0,392
572,63	0,191
572,83	0,509
573,03	0,202
573,24	0,145
573,44	0,311
573,64	0,349
573,84	0,093
574,05	0,221
574,25	0,308
574,45	0,254
574,66	0,448
574,86	0,374
575,06	0,441
575,26	0,355
575,47	0,488
575,67	0,352
575,87	0,340
576,07	0,228
576,28	0,395
576,48	0,344
576,68	0,307
576,88	0,504
577,09	0,173
577,29	0,445
577,49	0,234
577,69	0,173
577,90	0,228
578,10	0,166
578,30	0,423
578,50	0,256
578,71	0,232
578,91	0,270
579,11	0,530
579,31	0,491
579,52	0,353
579,72	0,313
579,92	0,413
580,12	0,327
580,33	0,307
580,53	0,219
580,73	0,297
580,93	0,262
581,13	0,371
581,34	0,275
581,54	0,465
581,74	0,377
581,94	0,419
582,15	0,506
582,35	0,101
582,55	0,323
582,75	0,329
582,95	0,394
583,16	0,390
583,36	0,510
583,56	0,554
583,76	0,221
583,96	0,298
584,17	0,426
584,37	0,356
584,57	0,357
584,77	0,409
584,97	0,393
585,18	0,505
585,38	0,550
585,58	0,761
585,78	0,788
585,98	1,018
586,19	1,113
586,39	1,306
586,59	1,517
586,79	1,868
586,99	1,906
587,20	2,508
587,40	2,887
587,60	3,289
587,80	4,040
588,00	4,796
588,20	5,522
588,41	6,323
588,61	7,163
588,81	8,517
589,01	9,535
589,21	10,687
589,41	11,880
589,62	13,420
589,82	15,203
590,02	16,796
590,22	18,467
590,42	20,085
590,62	22,402
590,83	23,550
591,03	25,520
591,23	27,584
591,43	29,756
591,63	30,625
591,83	32,629
592,03	33,813
592,24	35,738
592,44	37,052
592,64	37,776
592,84	38,995
593,04	39,523
593,24	42,349
593,44	42,996
593,65	44,836
593,85	46,194
594,05	48,231
594,25	50,460
594,45	52,193
594,65	54,663
594,85	55,788
595,06	58,064
595,26	59,429
595,46	62,272
595,66	64,102
595,86	66,047
596,06	68,203
596,26	70,632
596,46	71,691
596,66	73,105
596,87	74,205
597,07	76,592
597,27	77,196
597,47	78,886
597,67	78,950
597,87	79,707
598,07	80,451
598,27	80,932
598,47	81,421
598,67	81,352
598,88	81,199
599,08	81,870
599,28	81,783
599,48	80,343
599,68	81,300
599,88	80,088
600,08	79,071
600,28	77,237
600,48	77,544
600,68	76,178
600,88	75,007
601,09	73,666
601,29	71,966
601,49	70,826
601,69	68,976
601,89	67,200
602,09	65,913
602,29	64,087
602,49	62,506
602,69	62,121
602,89	59,622
603,09	58,846
603,29	56,742
603,49	56,845
603,69	55,304
603,90	54,707
604,10	53,299
604,30	53,637
604,50	52,115
604,70	51,281
604,90	50,503
605,10	50,255
605,30	49,144
605,50	49,061
605,70	48,833
605,90	48,398
606,10	47,862
606,30	48,325
606,50	47,556
606,70	46,595
606,90	45,764
607,10	46,059
607,30	46,048
607,50	45,502
607,70	45,216
607,90	44,355
608,10	44,207
608,30	44,101
608,50	42,741
608,70	42,834
608,90	42,500
609,11	41,873
609,31	41,305
609,51	40,088
609,71	40,127
609,91	39,083
610,11	38,265
610,31	37,036
610,51	36,095
610,71	34,434
610,91	33,532
611,11	32,403
611,31	31,039
611,51	29,299
611,71	27,506
611,91	26,138
612,11	24,132
612,31	22,297
612,51	20,580
612,71	18,578
612,91	16,421
613,11	14,814
613,31	12,712
613,51	11,487
613,71	9,784
613,91	8,687
614,11	7,327
614,31	6,067
614,50	5,346
614,70	4,406
614,90	3,977
615,10	2,926
615,30	2,662
615,50	1,994
615,70	1,812
615,90	1,609
616,10	1,238
616,30	0,953
616,50	0,765
616,70	0,707
616,90	0,652
617,10	0,823
617,30	0,605
617,50	0,487
617,70	0,351
617,90	0,448
618,10	0,490
618,30	0,285
618,50	0,496
618,70	0,422
618,90	0,286
619,10	0,300
619,30	0,180
619,49	0,450
619,69	0,408
619,89	0,407
620,09	0,234
620,29	0,265
620,49	0,174
620,69	0,280
620,89	0,270
621,09	0,304
621,29	0,276
621,49	0,274
621,69	0,281
621,89	0,380
622,09	0,410
622,29	0,214
622,48	0,337
622,68	0,223
622,88	0,452
623,08	0,225
623,28	0,205
623,48	0,402
623,68	0,270
623,88	0,298
624,08	0,250
624,28	0,298
624,48	0,347
624,67	0,186
624,87	0,325
625,07	0,222
625,27	0,242
625,47	0,377
625,67	0,234
625,87	0,225
626,07	0,214
626,27	0,126
626,47	0,472
626,66	0,297
626,86	0,279
627,06	0,381
627,26	0,094
627,46	0,198
627,66	0,272
627,86	0,281
628,06	0,435
628,25	0,185
628,45	0,271
628,65	0,176
628,85	0,287
629,05	0,403
629,25	0,071
629,45	0,233
629,65	0,167
629,84	0,139
630,04	0,393
630,24	0,418
630,44	0,193
630,64	0,409
630,84	0,157
631,04	0,400
631,23	0,280
631,43	0,235
631,63	0,174
631,83	0,298
632,03	0,350
632,23	0,197
632,42	0,318
632,62	0,339
632,82	0,183
633,02	0,421
633,22	0,207
633,42	0,338
633,62	0,113
633,81	0,119
634,01	0,357
634,21	0,353
634,41	0,423
634,61	0,362
634,80	0,451
635,00	0,261
635,20	0,342
635,40	-0,053
635,60	0,289
635,80	0,226
635,99	0,437
636,19	0,211
636,39	0,151
636,59	0,257
636,79	0,396
636,98	0,376
637,18	0,232
637,38	0,303
637,58	0,075
637,78	0,248
637,97	0,209
638,17	0,210
638,37	0,493
638,57	0,331
638,77	0,341
638,96	0,029
639,16	0,340
639,36	0,287
639,56	0,495
639,76	0,389
639,95	0,378
640,15	0,251
640,35	0,267
640,55	0,514
640,75	0,737
640,94	0,254
641,14	0,617
641,34	0,210
641,54	0,227
641,73	0,400
641,93	0,373
642,13	0,439
642,33	0,319
642,53	0,298
642,72	0,299
642,92	0,351
643,12	0,339
643,32	0,244
643,51	0,501
643,71	0,161
643,91	0,440
644,11	0,500
644,30	0,123
644,50	0,718
644,70	0,307
644,90	0,935
645,09	0,468
645,29	0,106
645,49	0,463
645,69	0,295
645,88	0,497
646,08	0,441
646,28	0,548
646,48	0,022
646,67	0,692
646,87	0,495
647,07	0,261
647,26	0,544
647,46	0,537
647,66	0,319
647,86	0,665
648,05	0,706
648,25	1,076
648,45	0,395
648,65	0,443
648,84	0,299
649,04	0,610
649,24	0,632
649,43	0,551
649,63	0,295
649,83	0,689
650,03	0,927
650,22	0,526
650,42	0,571
650,62	0,799
650,81	0,290
651,01	0,591
651,21	0,564
651,40	0,541
651,60	0,349
651,80	0,653
652,00	0,561
652,19	0,508
652,39	0,374
652,59	0,568
652,78	0,238
652,98	0,041
653,18	0,368
653,37	0,593
653,57	0,659
653,77	0,485
653,96	0,102
654,16	0,530
654,36	0,458
654,55	0,244
654,75	0,578
654,95	0,570
655,14	0,569
655,34	0,880
655,54	0,396
655,73	0,226
655,93	0,462
656,13	0,452
656,32	0,211
656,52	0,415
656,72	0,461
656,91	0,529
657,11	0,560
657,31	0,313
657,50	0,673
657,70	0,634
657,90	0,565
658,09	0,373
658,29	0,329
658,49	0,585
658,68	0,600
658,88	0,201
659,07	0,532
659,27	0,375
659,47	0,392
659,66	0,459
659,86	0,105
660,06	0,199
660,25	0,230
660,45	0,573
660,64	0,263
660,84	0,584
661,04	0,429
661,23	0,833
661,43	0,527
661,63	0,378
661,82	0,208
662,02	0,608
662,21	0,610
662,41	0,665
662,61	1,025
662,80	0,211
663,00	0,312
663,19	0,873
663,39	0,345
663,59	0,895
663,78	0,559
663,98	0,675
664,17	0,801
664,37	0,293
664,57	0,643
664,76	0,628
664,96	0,409
665,15	0,451
665,35	0,203
665,55	0,325
665,74	0,371
665,94	0,489
666,13	0,308
666,33	0,734
666,53	0,668
666,72	0,312
666,92	0,618
667,11	0,591
667,31	-0,058
667,50	0,132
667,70	0,435
667,90	0,204
668,09	0,500
668,29	0,286
668,48	0,439
668,68	0,211
668,87	0,564
669,07	0,216
669,26	0,353
669,46	0,609
669,66	0,214
669,85	0,536
670,05	0,584
670,24	0,432
670,44	0,323
670,63	0,023
670,83	0,094
671,02	0,274
671,22	0,341
671,42	0,471
671,61	0,377
671,81	0,462
672,00	0,333
672,20	0,061
672,39	0,488
672,59	0,308
672,78	0,392
672,98	0,444
673,17	0,348
673,37	0,232
673,56	0,298
673,76	0,109
673,95	0,306
674,15	0,643
674,34	0,193
674,54	0,578
674,73	0,327
674,93	0,404
675,13	0,488
675,32	0,645
675,52	0,588
675,71	0,480
675,91	0,306
676,10	0,707
676,30	0,542
676,49	0,014
676,69	0,174
676,88	0,198
677,08	0,229
677,27	0,209
677,47	0,377
677,66	0,627
677,86	0,538
678,05	0,198
678,24	0,178
678,44	0,555
678,63	0,517
678,83	0,341
679,02	0,350
679,22	0,395
679,41	0,411
679,61	0,339
679,80	0,278
680,00	0,095
680,19	0,544
680,39	0,348
680,58	0,250
680,78	0,298
680,97	0,450
681,17	0,510
681,36	0,141
681,56	0,303
681,75	0,117
681,94	0,132
682,14	0,580
682,33	0,369
682,53	0,027
682,72	0,290
682,92	0,549
683,11	0,316
683,31	0,420
683,50	0,277
683,69	0,206
683,89	0,077
684,08	0,157
684,28	0,122
684,47	0,301
684,67	0,183
684,86	0,143
685,06	0,301
685,25	0,409
685,44	0,189
685,64	0,289
685,83	0,408
686,03	0,234
686,22	0,181
686,42	0,310
686,61	0,277
686,80	0,155
687,00	0,135
687,19	0,169
687,39	0,156
687,58	0,035
687,77	0,417
687,97	0,313
688,16	0,209
688,36	0,074
688,55	-0,026
688,74	0,081
688,94	0,205
689,13	0,261
689,33	0,208
689,52	0,313
689,71	0,215
689,91	0,174
690,10	0,143
690,30	-0,032
690,49	0,099
690,68	0,333
690,88	-0,044
691,07	0,174
691,27	0,149
691,46	0,229
691,65	0,170
691,85	0,279
692,04	0,178
692,23	-0,040
692,43	0,356
692,62	0,339
692,82	0,228
693,01	0,155
693,20	0,185
693,40	0,072
693,59	0,162
693,78	0,300
693,98	0,037
694,17	0,166
694,36	0,407
694,56	0,038
694,75	0,217
694,94	0,201
695,14	0,240
695,33	0,259
695,53	0,356
695,72	0,320
695,91	0,056
696,11	0,202
696,30	0,221
696,49	0,342
696,69	0,102
696,88	0,066
697,07	0,275
697,27	0,266
697,46	0,335
697,65	0,136
697,85	0,006
698,04	0,401
698,23	0,061
698,43	0,399
698,62	0,019
698,81	0,329
699,01	0,793
699,20	0,246
699,39	0,476
699,58	0,315
699,78	0,115
699,97	0,479
700,16	0,048
700,36	0,509
700,55	0,578
700,74	0,403
700,94	0,287
701,13	0,209
701,32	0,291
701,52	0,428
701,71	0,287
701,90	0,598
702,09	0,867
702,29	0,695
702,48	0,194
702,67	0,785
702,87	0,554
703,06	0,513
703,25	1,130
703,44	0,470
703,64	0,995
703,83	1,118
704,02	0,908
704,22	1,166
704,41	0,573
704,60	1,246
704,79	0,817
704,99	1,158
705,18	1,118
705,37	0,862
705,56	0,597
705,76	1,463
705,95	1,627
706,14	0,310
706,33	0,966
706,53	1,338
706,72	0,670
706,91	1,324
707,11	1,311
707,30	0,202
707,49	1,802
707,68	1,614
707,88	1,480
708,07	1,195
708,26	1,119
708,45	1,324
708,64	2,129
708,84	1,348
709,03	2,298
709,22	-0,056
709,41	3,215
709,61	1,653
709,80	2,551
709,99	1,743
710,18	3,053
710,38	0,818
710,57	-0,381
710,76	0,328
710,95	2,603
711,14	1,324
711,34	1,170
711,53	2,765
711,72	1,784
711,91	3,432
712,11	2,347
712,30	2,347
712,49	2,871
712,68	1,345
712,87	2,327
713,07	3,252
713,26	2,332
713,45	0,999
713,64	2,052
713,83	0,572
714,03	2,014
714,22	2,308
714,41	2,654
714,60	1,851
714,79	0,912
714,99	0,189
715,18	3,075
715,37	4,252
715,56	2,546
715,75	4,252
715,94	4,774
716,14	7,226
716,33	3,434
716,52	1,468
716,71	4,463
716,90	1,776
717,10	1,893
717,29	4,333
717,48	1,112
717,67	4,174
717,86	2,710
718,05	4,625
718,24	3,983
718,44	4,673
718,63	0,122
718,82	1,811
719,01	2,553
719,20	4,063
719,39	5,098
719,59	1,563
719,78	2,204
719,97	4,485
720,16	5,847
720,35	2,478
720,54	3,284
720,73	4,846
720,93	3,109
721,12	1,796
721,31	4,009
721,50	8,727
721,69	2,751
721,88	5,914
722,07	5,926
722,27	5,699
722,46	2,999
722,65	1,589
722,84	1,452
723,03	4,241
723,22	6,205
723,41	3,571
723,60	1,554
723,79	9,736
723,99	6,706
724,18	8,876
724,37	2,180
724,56	4,940
724,75	4,522
724,94	6,926
725,13	2,575
725,32	10,711
725,51	2,884
725,71	2,130
725,90	8,129
726,09	6,941
726,28	5,338
726,47	2,071
726,66	9,477
726,85	7,867
727,04	4,791
727,23	6,686
727,42	4,943
727,61	3,704
727,81	-2,378
728,00	8,212
728,19	6,609
728,38	2,729
728,57	5,313
728,76	4,506
728,95	11,771
729,14	6,494
729,33	7,634
729,52	5,399
729,71	4,881
729,90	4,945
730,09	4,567
730,28	3,834
730,48	7,675
730,67	7,701
730,86	7,447
731,05	4,317
731,24	1,220
731,43	8,827
731,62	2,749
731,81	3,632
732,00	10,299
732,19	1,923
732,38	4,231
732,57	5,379
732,76	8,071
732,95	3,218
733,14	-2,582
733,33	2,381
733,52	14,747
733,71	1,865
733,90	2,401
734,09	7,568
734,28	6,955
734,47	4,722
734,66	5,348
734,85	5,286
735,04	7,275
735,23	10,084
735,42	9,426
735,61	13,703
735,81	8,876
736,00	7,550
736,19	9,119
736,38	11,078
736,57	7,956
736,76	8,029
736,95	7,166
737,14	11,324
737,33	9,760
737,52	9,538
737,71	11,803
737,90	6,801
738,09	10,959
738,28	11,211
738,47	3,102
738,66	-1,763
738,85	10,661
739,04	2,058
739,22	7,692
739,41	7,721
739,60	5,290
739,79	7,734
739,98	7,348
740,17	9,898
740,36	12,477
740,55	15,127
740,74	15,437
740,93	7,839
741,12	10,357
741,31	4,049
741,50	0,756
741,69	8,319
741,88	4,348
742,07	11,957
742,26	8,762
742,45	15,369
742,64	5,850
742,83	15,221
743,02	4,421
743,21	14,260
743,40	1,242
743,59	12,316
743,78	10,568
743,97	13,846
744,16	12,795
744,34	8,858
744,53	4,536
744,72	13,570
744,91	-1,261
745,10	12,998
745,29	18,145
745,48	12,955
745,67	7,745
745,86	11,038
746,05	4,976
746,24	14,227
746,43	4,069
746,62	13,362
746,81	12,360
747,00	6,346
747,18	3,704
747,37	16,842
747,56	13,412
747,75	9,360
747,94	20,631
748,13	25,280
748,32	19,524
748,51	15,482
748,70	13,656
748,89	11,241
749,08	2,035
749,26	20,925
749,45	16,354
749,64	7,305
749,83	14,607
750,02	19,022
750,21	12,214
750,40	21,457
750,59	9,383
750,78	14,963
750,96	13,536
751,15	14,252
751,34	0,000
751,53	13,661
751,72	4,507
751,91	22,021
752,10	13,351
752,29	22,133
752,47	8,309
752,66	7,302
752,85	15,574
753,04	3,631
753,23	19,505
753,42	32,345
753,61	7,210
753,80	8,247
753,98	15,152
754,17	10,638
754,36	3,548
754,55	20,482
754,74	9,091
754,93	25,069
755,12	18,398
755,30	19,481
755,49	21,221
755,68	15,644
755,87	13,018
756,06	23,264
756,25	27,964
756,43	-2,013
756,62	21,118
756,81	31,457
757,00	17,763
757,19	13,889
757,38	5,019
757,56	14,000
757,75	15,017
757,94	19,772
758,13	9,589
758,32	17,804
758,51	1,010
758,69	16,988
758,88	9,764
759,07	24,251
759,26	16,254
759,45	22,105
759,63	17,749
759,82	38,947
760,01	17,582
760,20	33,648
760,39	31,861
760,57	34,843
760,76	19,861
760,95	21,875
761,14	20,803
761,33	37,097
761,51	27,500
761,70	18,587
761,89	0,444
762,08	23,420
762,27	32,491
762,45	22,464
762,64	16,080
762,83	51,394
763,02	24,348
763,21	-6,000
763,39	22,378
763,58	23,792
763,77	21,097
763,96	17,530
764,14	17,917
764,33	26,667
764,52	19,643
764,71	10,492
764,89	17,411
765,08	10,837
765,27	23,404
765,46	34,081
765,65	29,804
765,83	30,317
766,02	9,524
766,21	29,508
766,40	33,852
766,58	30,688
766,77	23,394
766,96	26,016
767,15	36,555
767,33	28,986
767,52	12,227
767,71	28,509
767,90	34,171
768,08	25,749
768,27	13,008
768,46	42,982
768,64	26,852
768,83	18,137
769,02	-2,956
769,21	21,354
769,39	23,571
769,58	29,004
769,77	38,298
769,96	18,468
770,14	36,612
770,33	38,785
770,52	33,813
770,70	42,703
770,89	44,865
771,08	24,096
771,27	17,368
771,45	32,353
771,64	40,000
771,83	44,608
772,01	47,423
772,20	28,358
772,39	20,886
772,57	43,284
772,76	40,541
772,95	38,506
773,14	55,102
773,32	24,294
773,51	27,976
773,70	38,849
773,88	32,903
774,07	28,426
774,26	8,871
774,44	36,842
774,63	52,695
774,82	8,442
775,00	26,636
775,19	28,571
775,38	38,830
775,56	33,540
775,75	31,868
775,94	31,667
776,12	43,137
776,31	33,835
776,50	20,548
776,68	23,656
776,87	72,249
777,06	25,786
777,24	31,092
777,43	55,615
777,62	52,809
777,80	45,283
777,99	62,500
778,18	37,356
778,36	60,169
778,55	-5,932
778,74	26,563
778,92	33,951
779,11	74,545
779,29	30,496
779,48	36,170
779,67	28,829
779,85	38,596
780,04	45,652
780,23	35,119
780,41	39,831
780,60	22,148
780,79	4,032
780,97	28,105
781,16	36,702
781,34	56,081
781,53	83,929
781,72	20,721
781,90	25,150
782,09	45,349
782,28	55,782
782,46	40,000
782,65	65,493
782,83	32,704
783,02	78,070
783,21	42,857
783,39	78,992
783,58	42,609
783,76	55,782
783,95	56,338
784,14	19,737
784,32	11,765
784,51	93,243
784,69	25,000
784,88	43,925
785,06	36,424
785,25	31,206
785,44	40,323
785,62	60,000
785,81	75,926
785,99	37,594
786,18	54,054
786,37	81,319
786,55	30,556
786,74	40,909
786,92	43,357
787,11	49,306
787,29	43,750
787,48	66,667
787,67	50,943
787,85	121,519
788,04	34,234
788,22	67,327
788,41	55,118
788,59	43,421
788,78	34,066
788,96	59,504
789,15	55,833
789,34	86,538
789,52	58,065
789,71	92,806
789,89	49,351
790,08	41,250
790,26	58,599
790,45	52,778
790,63	50,575
790,82	69,231
791,00	46,018
791,19	56,800
791,38	24,762
791,56	68,182
791,75	19,444
791,93	102,000
792,12	53,043
792,30	57,664
792,49	12,121
792,67	30,147
792,86	76,000
793,04	52,778
793,23	62,105
793,41	45,652
793,60	49,306
793,78	63,810
793,97	72,917
794,15	91,729
794,34	66,667
794,52	19,355
794,71	74,419
794,89	31,061
795,08	75,200
795,26	84,000
795,45	66,667
795,63	54,839
795,82	60,440
796,00	75,000
796,19	65,854
796,37	47,328
796,56	25,243
796,74	60,000
796,93	50,000
797,11	89,157
797,30	57,778
797,48	65,625
797,67	56,098
797,85	68,462
798,04	26,271
798,22	116,667
798,41	38,462
798,59	75,238
798,77	79,518
798,96	24,691
799,14	80,645
799,33	61,468
799,51	79,167
799,70	63,077
799,88	67,890
800,07	78,626
800,25	14,458
800,44	87,037
800,62	87,500
800,80	69,014
800,99	134,247
801,17	71,552
801,36	51,429
801,54	72,000
801,73	72,632
801,91	53,719
802,10	67,059
802,28	40,800
802,46	65,789
802,65	61,151
802,83	88,000
803,02	78,226
803,20	96,386
803,39	81,609
803,57	32,283
803,75	48,780
803,94	52,381
804,12	80,000
804,31	56,522
804,49	44,800
804,67	20,588
804,86	59,292
805,04	-6,024
805,23	78,761
805,41	20,833
805,59	78,767
805,78	88,800
805,96	68,675
806,15	60,396
806,33	85,526
806,51	72,000
806,70	59,398
806,88	34,884
807,07	71,171
807,25	40,659
807,43	50,000
807,62	50,442
807,80	70,476
807,99	64,615
808,17	7,874
808,35	57,000
808,54	46,377
808,72	76,577
808,90	45,890
809,09	40,217
809,27	70,667
809,46	123,077
809,64	89,024
809,82	43,046
810,01	34,375
810,19	39,394
810,37	39,062
810,56	113,333
810,74	90,909
810,92	39,333
811,11	18,421
811,29	75,472
811,48	43,077
811,66	61,798
811,84	85,714
812,03	72,131
812,21	39,474
812,39	47,826
812,58	71,579
812,76	60,432
812,94	44,578
813,13	57,447
813,31	61,000
813,49	45,370
813,68	48,182
813,86	44,944
814,04	56,198
814,23	31,928
814,41	44,944
814,59	41,748
814,78	63,971
814,96	35,849
815,14	55,140
815,33	56,589
815,51	25,197
815,69	58,095
815,87	105,941
816,06	59,130
816,24	54,037
816,42	52,941
816,61	65,409
816,79	21,552
816,97	63,636
817,16	57,988
817,34	75,397
817,52	23,967
817,70	48,515
817,89	60,741
818,07	34,932
818,25	38,776
818,44	96,154
818,62	24,806
818,80	15,038
818,98	50,318
819,17	84,034
819,35	46,809
819,53	63,433
819,72	48,734
819,90	57,364
820,08	27,350
820,26	46,552
820,45	14,765
820,63	102,679
820,81	67,200
820,99	30,496
821,18	59,184
821,36	37,342
821,54	62,069
821,73	50,000
821,91	30,702
822,09	38,710
822,27	30,323
822,46	21,324
822,64	40,000
822,82	43,646
823,00	23,757
823,19	42,857
823,37	39,394
823,55	39,205
823,73	60,000
823,91	37,681
824,10	55,914
824,28	55,779
824,46	-0,971
824,64	50,658
824,83	54,037
825,01	26,000
825,19	83,065
825,37	28,696
825,56	60,377
825,74	48,469
825,92	56,051
826,10	44,886
826,28	41,071
826,47	44,211
826,65	62,411
826,83	50,000
827,01	45,665
827,19	35,119
827,38	25,926
827,56	34,659
827,74	44,693
827,92	38,372
828,10	64,744
828,29	57,396
828,47	41,057
828,65	10,769
828,83	9,091
829,01	40,217
829,20	46,703
829,38	48,864
829,56	53,804
829,74	29,560
829,92	27,778
830,10	44,828
830,29	24,623
830,47	42,211
830,65	14,634
830,83	25,893
831,01	26,190
831,20	42,233
831,38	33,493
831,56	24,651
831,74	47,393
831,92	55,263
832,10	36,190
832,29	45,946
832,47	10,112
832,65	29,412
832,83	23,474
833,01	34,500
833,19	15,837
833,37	23,077
833,56	26,160
833,74	61,275
833,92	17,130
834,10	32,365
834,28	43,882
834,46	34,389
834,64	15,278
834,83	37,727
835,01	55,187
835,19	41,600
835,37	28,926
835,55	23,958
835,73	11,823
835,91	41,697
836,09	22,433
836,28	21,033
836,46	8,400
836,64	30,827
836,82	20,814
837,00	19,928
837,18	20,818
837,36	17,131
837,54	42,727
837,72	9,052
837,91	26,866
838,09	14,343
838,27	30,667
838,45	24,823
838,63	25,735
838,81	15,612
838,99	37,903
839,17	17,568
839,35	30,851
839,53	23,509
839,72	12,782
839,90	13,746
840,08	22,154
840,26	15,079
840,44	27,795
840,62	13,448
840,80	29,932
840,98	25,882
841,16	22,814
841,34	21,070
841,52	15,902
841,70	20,308
841,89	18,145
842,07	18,809
842,25	38,218
842,43	14,224
842,61	22,456
842,79	27,966
842,97	20,195
843,15	36,964
843,33	24,290
843,51	26,807
843,69	46,154
843,87	17,537
844,05	14,590
844,23	33,634
844,41	17,868
844,59	21,902
844,77	15,406
844,95	7,514
845,13	17,538
845,31	21,802
845,50	28,796
845,68	11,254
845,86	21,839
846,04	26,536
846,22	7,902
846,40	19,086
846,58	19,943
846,76	25,806
846,94	26,185
847,12	18,912
847,30	6,959
847,48	8,669
847,66	25,862
847,84	13,115
848,02	17,874
848,20	17,054
848,38	13,960
848,56	26,420
848,74	16,706
848,92	12,219
849,10	22,250
849,28	16,397
849,46	13,333
849,64	22,402
849,82	11,420
850,00	31,308
850,18	18,723
850,36	4,194
850,54	15,789
850,72	14,139
850,90	23,043
851,08	12,035
851,26	12,035
851,44	9,292
851,62	13,023
851,80	10,793
851,98	22,418
852,16	19,149
852,34	17,113
852,52	13,170
852,70	0,911
852,87	14,384
853,05	7,602
853,23	11,546
853,41	17,460
853,59	14,523
853,77	13,492
853,95	19,831
854,13	12,611
854,31	18,686
854,49	12,176
854,67	6,911
854,85	15,321
855,03	13,026
855,21	22,316
855,39	8,249
855,57	13,620
855,75	19,708
855,93	9,804
856,11	27,079
856,28	12,731
856,46	16,904
856,64	17,143
856,82	10,825
857,00	9,128
857,18	9,567
857,36	17,369
857,54	19,204
857,72	12,982
857,90	11,808
858,08	12,941
858,26	11,387
858,44	8,967
858,61	11,672
858,79	10,208
858,97	5,664
859,15	17,647
859,33	11,719
859,51	16,415
859,69	6,977
859,87	11,038
860,05	-1,066
860,23	13,474
860,40	12,811
860,58	11,475
860,76	9,683
860,94	11,870
861,12	12,769
861,30	6,750
861,48	15,000
861,66	15,714
861,84	11,211
862,01	10,898
862,19	11,525
862,37	9,077
862,55	13,256
862,73	6,502
862,91	5,433
863,09	10,565
863,27	11,063
863,44	5,924
863,62	6,793
863,80	3,938
863,98	13,205
864,16	3,035
864,34	13,579
864,52	10,858
864,69	11,257
864,87	4,920
865,05	13,197
865,23	6,405
865,41	6,317
865,59	7,941
865,76	15,912
865,94	15,762
866,12	13,290
866,30	8,836
866,48	12,485
866,66	8,737
866,83	13,740
867,01	5,371
867,19	8,973
867,37	5,692
867,55	7,885
867,73	10,457
867,90	9,820
868,08	9,553
868,26	7,843
868,44	-0,234
868,62	8,968
868,79	11,455
868,97	6,423
869,15	3,132
869,33	6,471
869,51	7,085
869,69	5,732
869,86	4,211
870,04	10,230
870,22	9,062
870,40	12,749
870,57	5,882
870,75	9,834
870,93	10,526
871,11	6,061
871,29	6,279
871,46	5,740
871,64	10,565
871,82	8,611
872,00	9,671
872,18	1,266
872,35	11,342
872,53	5,811
872,71	11,429
872,89	13,694
873,06	7,477
873,24	5,917
873,42	4,861
873,60	6,322
873,77	6,748
873,95	3,413
874,13	7,928
874,31	6,089
874,49	7,551
874,66	4,981
874,84	9,027
875,02	9,349
875,20	5,517
875,37	6,869
875,55	6,393
875,73	4,283
875,91	8,736
876,08	3,108
876,26	2,650
876,44	8,254
876,61	6,446
876,79	9,449
876,97	0,821
877,15	4,141
877,32	6,309
877,50	4,470
877,68	2,656
877,86	0,680
878,03	7,692
878,21	7,284
878,39	5,132
878,56	3,306
878,74	4,893
878,92	0,323
879,10	2,537
879,27	4,703
879,45	4,250
879,63	3,727
879,80	5,539
879,98	1,806
880,16	5,750
880,34	7,885
880,51	1,814
880,69	0,521
880,87	3,895
881,04	3,690
881,22	6,361
881,40	3,989
881,57	4,775
881,75	4,917
881,93	7,402
882,10	3,654
882,28	5,862
882,46	6,644
882,63	2,916
882,81	6,867
882,99	3,325
883,16	4,796
883,34	4,078
883,52	2,146
883,69	7,138
883,87	1,432
884,05	2,801
884,22	2,674
884,40	5,119
884,58	0,387
884,75	4,928
884,93	2,737
885,11	4,184
885,28	0,686
885,46	0,738
885,64	1,838
885,81	4,476
885,99	1,735
886,17	1,222
886,34	3,512
886,52	0,874
886,70	5,633
886,87	3,263
887,05	3,648
887,22	2,158
887,40	4,560
887,58	2,619
887,75	2,918
887,93	4,345
888,11	3,539
888,28	3,981
888,46	5,538
888,63	2,253
888,81	2,397
888,99	4,899
889,16	3,852
889,34	0,845
889,51	2,151
889,69	3,327
889,87	3,728
890,04	3,202
890,22	4,437
890,39	4,318
890,57	3,573
890,75	2,665
890,92	3,677
891,10	1,548
891,27	3,168
891,45	2,737
891,63	4,984
891,80	3,537
891,98	3,310
892,15	3,802
892,33	2,123
892,51	3,335
892,68	3,578
892,86	1,003
893,03	2,426
893,21	3,761
893,38	1,543
893,56	4,152
893,74	4,410
893,91	4,803
894,09	5,837
894,26	3,746
894,44	3,201
894,61	3,020
894,79	1,359
894,96	2,688
895,14	3,644
895,32	2,496
895,49	1,790
895,67	3,590
895,84	1,862
896,02	0,644
896,19	1,605
896,37	2,786
896,54	2,392
896,72	2,435
896,89	2,750
897,07	4,748
897,25	2,160
897,42	2,425
897,60	4,165
897,77	3,741
897,95	1,635
898,12	3,981
898,30	3,233
898,47	3,571
898,65	2,584
898,82	-0,039
899,00	1,573
899,17	2,916
899,35	0,827
899,52	5,325
899,70	2,671
899,87	1,718
900,05	3,120
900,22	1,981
900,40	2,156
900,57	2,449
900,75	0,486
900,92	1,557
901,10	1,935
901,27	1,628
901,45	4,177
901,62	3,484
901,80	1,978
901,97	1,799
902,15	3,447
902,32	3,593
902,50	1,651
902,67	4,303
902,85	2,175
903,02	3,629
903,20	1,070
903,37	1,317
903,54	2,945
903,72	3,038
903,89	0,843
904,07	1,996
904,24	2,622
904,42	2,218
904,59	0,643
904,77	2,794
904,94	1,781
905,12	0,921
905,29	0,000
905,47	2,579
905,64	2,476
905,81	2,366
905,99	0,735
906,16	2,081
906,34	1,438
906,51	1,658
906,69	1,518
906,86	1,173
907,03	2,220
907,21	2,357
907,38	2,042
907,56	2,662
907,73	2,106
907,91	2,030
908,08	3,377
908,25	3,422
908,43	1,242
908,60	1,036
908,78	1,672
908,95	1,421
909,13	3,800
909,30	4,131
909,47	1,990
909,65	2,967
909,82	1,841
910,00	0,991
910,17	1,374
910,34	2,833
910,52	1,401
910,69	2,177
910,87	2,600
911,04	2,059
911,21	3,028
911,39	1,429
911,56	1,681
911,73	2,344
911,91	2,505
912,08	2,114
912,26	0,544
912,43	3,492
912,60	1,493
912,78	1,654
912,95	2,040
913,13	2,079
913,30	3,381
913,47	2,172
913,65	2,486
913,82	3,313
913,99	1,891
914,17	2,153
914,34	0,775
914,51	2,229
914,69	1,291
914,86	3,509
915,03	1,930
915,21	1,579
915,38	2,544
915,56	2,223
915,73	1,080
915,90	2,229
916,08	1,641
916,25	1,729
916,42	1,522
916,60	2,362
916,77	1,296
916,94	1,919
917,12	2,140
917,29	2,178
917,46	2,004
917,64	1,057
917,81	1,287
917,98	0,682
918,16	0,963
918,33	1,800
918,50	2,152
918,67	1,188
918,85	0,978
919,02	2,124
919,19	0,469
919,37	1,048
919,54	1,448
919,71	2,376
919,89	0,912
920,06	2,152
920,23	1,433
920,41	1,521
920,58	1,404
920,75	1,490
920,92	1,319
921,10	0,539
921,27	0,650
921,44	2,486
921,62	1,495
921,79	1,986
921,96	1,104
922,13	2,553
922,31	1,289
922,48	0,884
922,65	1,459
922,82	1,282
923,00	2,197
923,17	2,151
923,34	1,404
923,52	0,679
923,69	1,688
923,86	1,563
924,03	0,873
924,21	0,827
924,38	2,111
924,55	2,595
924,72	1,630
924,90	1,002
925,07	0,851
925,24	0,778
925,41	0,729
925,59	0,731
925,76	0,877
925,93	1,953
926,10	1,588
926,28	0,976
926,45	1,293
926,62	1,217
926,79	1,025
926,96	2,230
927,14	2,224
927,31	1,655
927,48	1,321
927,65	1,449
927,83	2,582
928,00	0,237
928,17	2,672
928,34	1,757
928,51	0,175
928,69	0,962
928,86	1,464
929,03	1,318
929,20	0,861
929,37	0,830
929,55	1,105
929,72	0,783
929,89	1,131
930,06	1,795
930,23	1,490
930,41	1,311
930,58	1,473
930,75	0,623
930,92	2,134
931,09	1,905
931,27	0,846
931,44	0,716
931,61	1,836
931,78	1,502
931,95	1,082
932,12	1,343
932,30	1,851
932,47	0,805
932,64	2,050
932,81	1,034
932,98	1,075
933,16	0,967
933,33	1,641
933,50	1,221
933,67	1,596
933,84	0,942
934,01	0,443
934,18	1,606
934,36	0,750
934,53	1,650
934,70	1,508
934,87	1,336
935,04	1,894
935,21	1,006
935,38	0,942
935,56	1,453
935,73	0,758
935,90	0,992
936,07	1,040
936,24	1,959
936,41	1,578
936,58	1,265
936,76	1,179
936,93	0,453
937,10	1,154
937,27	1,601
937,44	0,996
937,61	1,588
937,78	1,585
937,95	1,605
938,13	0,699
938,30	1,129
938,47	1,525
938,64	1,280
938,81	0,835
938,98	0,718
939,15	0,764
939,32	0,945
939,49	0,976
939,66	1,014
939,84	0,808
940,01	1,175
940,18	1,235
940,35	0,164
940,52	1,110
940,69	0,971
940,86	1,462
941,03	1,113
941,20	0,344
941,37	0,795
941,54	1,929
941,71	2,259
941,89	1,529
942,06	1,090
942,23	2,043
942,40	0,800
942,57	1,325
942,74	1,743
942,91	1,931
943,08	1,196
943,25	1,398
943,42	1,244
943,59	2,163
943,76	1,846
943,93	0,381
944,10	0,225
944,27	0,962
944,44	0,968
944,61	0,782
944,79	2,665
944,96	2,384
945,13	0,305
945,30	0,725
945,47	1,979
945,64	1,165
945,81	1,950
945,98	1,986
946,15	1,569
946,32	2,446
946,49	1,511
946,66	2,473
946,83	1,144
947,00	1,882
947,17	0,951
947,34	1,648
947,51	1,755
947,68	3,128
947,85	2,370
948,02	2,631
948,19	1,739
948,36	1,786
948,53	-0,087
948,70	1,923
948,87	3,427
949,04	2,917
949,21	1,405
949,38	2,361
949,55	2,427
949,72	0,748
949,89	2,718
950,06	3,157
950,23	2,220
950,40	1,560
950,57	0,784
950,74	2,680
950,91	1,541
951,08	3,018
951,25	3,017
951,42	-0,226
951,59	0,684
951,76	0,040
951,93	2,462
952,10	1,773
952,27	0,127
952,44	3,227
952,61	3,380
952,77	1,833
952,94	2,990
953,11	3,265
953,28	4,647
953,45	5,266
953,62	3,324
953,79	3,062
953,96	3,968
954,13	3,825
954,30	5,398
954,47	2,579
954,64	-0,858
954,81	6,607
954,98	3,258
955,15	3,023
955,32	4,005
955,49	5,135
955,65	4,153
955,82	2,587
955,99	5,750
956,16	9,048
956,33	1,664
956,50	3,909
956,67	1,017
956,84	5,300
957,01	6,716
957,18	7,148
957,35	1,815
957,52	4,063
957,68	4,868
957,85	6,899
958,02	5,443
958,19	2,249
958,36	5,979
958,53	5,288
958,70	4,558
958,87	3,293
959,04	9,509
959,21	14,685
959,37	11,699
959,54	6,492
959,71	9,967
959,88	5,000
960,05	7,916
960,22	5,660
960,39	5,905
960,56	4,731
960,72	8,864
960,89	10,336
961,06	5,679
961,23	2,599
961,40	8,223
961,57	9,105
961,74	7,220
961,90	3,628
962,07	7,324
962,24	11,557
962,41	12,241
962,58	11,204
962,75	9,402
962,92	5,965
963,08	0,000
963,25	2,191
963,42	17,269
963,59	12,936
963,76	18,290
963,93	11,405
964,10	7,919
964,26	17,619
964,43	3,023
964,60	6,729
964,77	20,134
964,94	9,383
965,10	-1,950
965,27	3,352
965,44	21,905
965,61	8,219
965,78	22,050
965,95	15,920
966,11	15,455
966,28	19,832
966,45	16,993
966,62	11,498
966,79	7,509
966,95	25,623
967,12	32,063
967,29	24,691
967,46	32,740
967,63	36,078
967,79	44,295
967,96	18,349
968,13	22,381
968,30	39,506
968,47	30,000
968,63	36,275
968,80	23,755
968,97	36,416
969,14	12,994
969,31	33,673
969,47	56,522
969,64	40,659
969,81	19,355
969,98	24,211
970,14	15,054
970,31	44,025
970,48	46,980
970,65	59,504
970,81	41,259
970,98	30,729
971,15	58,788
971,32	45,455
971,48	55,952
971,65	15,894
971,82	54,545
971,99	55,063
972,15	37,209
972,32	67,361
972,49	55,738
972,66	46,281
972,82	60,274
972,99	53,750
973,16	83,444
973,33	70,370
973,49	37,805
973,66	68,571
973,83	113,580
974,00	32,911
974,16	72,727
974,33	61,333
974,50	77,778
974,67	86,905
974,83	101,020
975,00	70,909
975,17	104,839
975,33	73,563
975,50	131,148
975,67	46,154
975,84	87,805
976,00	46,053
976,17	34,783
976,34	64,706
976,50	91,209
976,67	80,952
976,84	206,250
977,00	64,103
977,17	195,556
977,34	275,000
977,50	109,524
977,67	135,294
977,84	144,068
978,01	116,216
978,17	89,655
978,34	140,741
978,51	268,000
978,67	95,918
978,84	130,909
979,01	63,158
979,17	47,143
979,34	104,348
979,51	134,091
979,67	145,833
979,84	215,254
980,01	148,077
980,17	114,706
980,34	78,082
980,51	722,222
980,67	73,333
980,84	81,429
981,01	200,000
981,17	135,294
981,34	171,429
981,50	105,263
981,67	195,238
981,84	121,429
982,00	2800,000
982,17	120,313
982,34	151,220
982,50	0,000
982,67	-742,857
982,84	530,000
983,00	111,111
983,17	-571,429
983,33	633,333
983,50	134,146
983,67	81,159
983,83	371,429
984,00	156,522
984,17	855,556
984,33	-428,571
984,50	172,973
984,66	343,750
984,83	862,500
985,00	269,231
985,16	219,355
985,33	4250,000
985,49	145,349
985,66	230,000
985,83	-2633,333
985,99	133,333
986,16	505,263
986,32	67,123
986,49	-1040,000
986,66	600,000
986,82	224,242
986,99	-160,000
987,15	206,061
987,32	417,647
987,49	185,714
987,65	-234,783
987,82	-230,000
987,98	172,727
988,15	271,429
988,31	185,714
988,48	164,706
988,65	780,000
988,81	112,727
988,98	394,595
989,14	670,000
989,31	172,881
989,47	-67,857
989,64	266,667
989,80	103,191
989,97	172,727
990,14	535,714
990,30	-375,000
990,47	-300,000
990,63	150,000
990,80	783,333
990,96	608,333
991,13	203,333
991,29	149,020
991,46	179,167
991,62	0,000
991,79	-280,000
991,95	500,000
992,12	666,667
992,29	-280,952
992,45	278,571
992,62	-217,857
992,78	-783,333
992,95	316,129
993,11	500,000
993,28	-4200,000
993,44	-144,828
993,61	154,386
993,77	0,000
993,94	238,462
994,10	800,000
994,27	-92,105
994,43	309,375
994,60	800,000
994,76	193,939
994,93	-1190,000
995,09	-350,000
995,26	416,667
995,42	737,500
995,59	233,333
995,75	-525,000
995,92	-1242,857
996,08	-580,000
996,25	248,485
996,41	1400,000
996,58	304,000
996,74	-470,000
996,91	158,065
997,07	356,000
997,23	50,980
997,40	1266,667
997,56	-3133,333
997,73	339,130
997,89	1360,000
998,06	231,579
998,22	253,191
998,39	163,265
998,55	557,895
998,72	-8000,000
998,88	192,000
999,05	726,667
999,21	452,941
999,37	297,674
999,54	216,129
999,70	442,857
999,87	616,667
1000,03	316,667
1000,20	628,571
1000,36	-737,500
1000,52	2250,000
1000,69	500,000
1000,85	-433,333
1001,02	452,381
1001,18	1300,000
1001,35	0,000
1001,51	142,857
1001,67	460,000
1001,84	224,390
1002,00	-290,909
1002,17	925,000
1002,33	-437,500
1002,50	550,000
1002,66	1562,500
1002,82	297,561
1002,99	-236,364
1003,15	-5800,000
1003,32	50,000
1003,48	-1900,000
1003,64	273,913
1003,81	47,368
1003,97	233,333
1004,14	-94,545
1004,30	281,818
1004,46	-6500,000
1004,63	-784,615
1004,79	316,216
1004,95	-1380,000
1005,12	-61,538
1005,28	269,444
1005,45	-1450,000
1005,61	407,692
1005,77	-1214,286
1005,94	295,652
1006,10	-530,000
1006,26	-192,593
1006,43	127,273
1006,59	296,774
1006,76	-320,000
1006,92	360,870
1007,08	113,636
1007,25	283,333
1007,41	318,182
1007,57	-447,059
1007,74	200,000
1007,90	-307,143
1008,06	-206,667
1008,23	-215,789
1008,39	230,556
1008,55	152,941
1008,72	-1087,500
1008,88	-160,000
1009,04	-888,889
1009,21	234,375
1009,37	477,419
1009,53	-425,000
1009,70	-36,364
1009,86	557,895
1010,02	154,545
1010,19	653,333
1010,35	7600,000
1010,51	382,857
1010,68	277,273
1010,84	545,000
1011,00	471,429
1011,17	2200,000
1011,33	292,308
1011,49	443,750
1011,66	287,500
1011,82	-933,333
1011,98	760,000
1012,14	261,538
1012,31	315,909
1012,47	-971,429
1012,63	5800,000
1012,80	350,000
1012,96	152,778
1013,12	-185,185
1013,29	408,333
1013,45	-138,235
1013,61	-1720,000
1013,77	-555,556
1013,94	383,333
1014,10	9200,000
1014,26	-108,824
1014,43	336,842
1014,59	0,000
1014,75	660,000
1014,91	237,143
1015,08	330,769
1015,24	693,333
1015,40	373,333
1015,56	623,529
1015,73	191,837
1015,89	588,889
1016,05	205,405
1016,21	377,778
1016,38	197,368
1016,54	-444,000
1016,70	331,579
1016,86	-676,923
1017,03	0,000
1017,19	937,500
1017,35	340,000
1017,51	1066,667
1017,68	1000,000
1017,84	463,158
1018,00	200,000
1018,16	-506,250
1018,33	-45,455
1018,49	692,857
1018,65	-404,545
1018,81	-95,122
1018,97	492,308
1019,14	-1342,857
1019,30	204,762
1019,46	325,641
1019,62	3000,000
1019,79	-657,143
1019,95	-1000,000
1020,11	580,000
1020,27	210,000
1020,43	-600,000
1020,60	0,000
1020,76	132,353
1020,92	7800,000
1021,08	-117,778
1021,24	-3550,000
1021,41	296,970
1021,57	-258,333
1021,73	0,000
1021,89	-54,545
1022,05	205,714
1022,21	-607,692
1022,38	363,158
1022,54	1240,000
1022,70	314,815
1022,86	-2650,000
1023,02	744,444
1023,19	-235,000
1023,35	181,132
1023,51	319,355
1023,67	181,579
1023,83	509,091
1023,99	274,286
1024,16	-27,692
1024,32	506,250
1024,48	259,184
1024,64	-920,000
1024,80	483,333
1024,96	438,462
1025,12	2400,000
1025,29	-1200,000
1025,45	366,667
1025,61	2766,667
1025,77	300,000
1025,93	-500,000
1026,09	4950,000
1026,26	-1642,857
1026,42	-1200,000
1026,58	128,846
1026,74	1514,286
1026,90	415,789
1027,06	-530,000
1027,22	-316,667
1027,38	800,000
1027,55	-440,000
1027,71	537,500
1027,87	185,000
1028,03	121,212
1028,19	-175,758
1028,35	127,027
1028,51	27,419
1028,67	-600,000
1028,83	233,333
1029,00	771,429
1029,16	-660,000
1029,32	547,059
1029,48	4650,000
1029,64	1214,286
1029,80	783,333
1029,96	184,314
1030,12	-237,500
1030,28	2100,000
1030,44	-4200,000
1030,61	256,250
1030,77	-200,000
1030,93	179,070
1031,09	-464,286
1031,25	-677,778
1031,41	-2350,000
1031,57	-100,000
1031,73	500,000
1031,89	-193,939
1032,05	1271,429
1032,21	550,000
1032,37	-55,882
1032,53	-235,000
1032,69	-4900,000
1032,86	1066,667
1033,02	362,500
1033,18	-776,923
1033,34	-423,077
1033,50	251,613
1033,66	-400,000
1033,82	332,143
1033,98	-441,176
1034,14	1055,556
1034,30	-290,909
1034,46	383,333
1034,62	561,111
1034,78	123,810
1034,94	-141,935
1035,10	-481,818
1035,26	-900,000
1035,42	208,571
1035,58	1600,000
1035,74	3,333
1035,90	-433,333
1036,06	152,830
1036,22	-260,000
1036,38	520,000
1036,54	670,000
1036,70	-4600,000
1036,86	-442,857
1037,02	-500,000
1037,18	-207,143
1037,34	326,087
1037,50	-420,000
1037,66	-2133,333
1037,82	-164,706
1037,98	342,857
1038,14	-286,207
1038,30	46,154
1038,46	193,750
1038,62	274,194
1038,78	245,238
1038,94	-110,526
1039,10	-362,500
1039,26	-442,105
1039,42	-542,857
1039,58	118,868
1039,74	221,875
1039,90	-128,205
1040,06	258,824
>>>>>End Processed Spectral Data<<<<<
