SpectraSuite Data File
++++++++++++++++++++++++++++++++++++
Date: Thu Feb 02 17:54:48 EET 2017
User: optolab
Dark Spectrum Present: Yes
Reference Spectrum Present: Yes
Number of Sampled Component Spectra: 1
Spectrometers: USB4C02475
Integration Time (usec): 100000 (USB4C02475)
Spectra Averaged: 1 (USB4C02475)
Boxcar Smoothing: 0 (USB4C02475)
Correct for Electrical Dark: No (USB4C02475)
Strobe/Lamp Enabled: No (USB4C02475)
Correct for Detector Non-linearity: No (USB4C02475)
Correct for Stray Light: No (USB4C02475)
Number of Pixels in Processed Spectrum: 3648
>>>>>Begin Processed Spectral Data<<<<<
344,91	-1000,000
345,13	-1000,000
345,35	-1000,000
345,57	29,412
345,79	-50,000
346,00	-170,588
346,22	-1142,857
346,44	-196,970
346,66	223,404
346,87	256,522
347,09	1046,154
347,31	8900,000
347,53	-1825,000
347,74	-200,000
347,96	-714,286
348,18	282,353
348,40	494,118
348,61	-225,641
348,83	4500,000
349,05	184,615
349,27	476,471
349,48	-6600,000
349,70	657,143
349,92	433,333
350,14	194,595
350,35	-546,154
350,57	-427,778
350,79	-92,308
351,01	-393,333
351,22	690,000
351,44	350,000
351,66	222,222
351,87	2033,333
352,09	131,579
352,31	171,429
352,53	308,571
352,74	-1100,000
352,96	273,684
353,18	96,875
353,40	-487,500
353,61	693,333
353,83	214,583
354,05	340,625
354,26	439,286
354,48	-1320,000
354,70	257,143
354,92	197,222
355,13	-90,698
355,35	159,259
355,57	173,437
355,78	257,143
356,00	248,936
356,22	118,182
356,44	274,419
356,65	428,571
356,87	258,333
357,09	274,286
357,30	120,455
357,52	-983,333
357,74	316,129
357,95	320,000
358,17	113,043
358,39	360,000
358,60	222,222
358,82	218,182
359,04	141,026
359,26	118,182
359,47	-561,538
359,69	360,714
359,91	532,000
360,12	465,000
360,34	202,778
360,56	-2300,000
360,77	1177,778
360,99	479,167
361,21	226,087
361,42	-3200,000
361,64	-159,259
361,86	147,761
362,07	900,000
362,29	265,000
362,51	321,622
362,72	-2080,000
362,94	296,296
363,16	98,571
363,37	672,727
363,59	-7100,000
363,81	750,000
364,02	114,667
364,24	193,182
364,46	514,286
364,67	121,429
364,89	541,176
365,11	272,973
365,32	307,407
365,54	275,000
365,76	177,273
365,97	314,634
366,19	57,895
366,41	730,000
366,62	143,000
366,84	491,667
367,05	117,647
367,27	860,000
367,49	217,949
367,70	766,667
367,92	170,833
368,14	-638,462
368,35	145,588
368,57	290,909
368,79	215,385
369,00	107,692
369,22	94,444
369,43	347,368
369,65	-58,621
369,87	-300,000
370,08	310,000
370,30	692,857
370,51	536,364
370,73	136,111
370,95	440,000
371,16	107,018
371,38	175,472
371,60	226,667
371,81	160,870
372,03	-1925,000
372,24	-137,500
372,46	2133,333
372,68	202,941
372,89	117,431
373,11	186,047
373,32	102,521
373,54	545,455
373,76	405,556
373,97	230,303
374,19	-489,474
374,40	111,429
374,62	705,882
374,84	508,333
375,05	194,231
375,27	267,568
375,48	129,630
375,70	241,176
375,92	110,714
376,13	368,421
376,35	341,667
376,56	490,000
376,78	222,449
376,99	169,697
377,21	281,250
377,43	163,636
377,64	148,000
377,86	318,750
378,07	88,636
378,29	197,222
378,51	123,810
378,72	-286,364
378,94	141,304
379,15	175,000
379,37	243,750
379,58	96,667
379,80	88,636
380,01	90,000
380,23	282,609
380,45	256,250
380,66	125,000
380,88	175,676
381,09	513,043
381,31	251,282
381,52	360,870
381,74	180,357
381,95	246,429
382,17	368,000
382,39	143,548
382,60	429,412
382,82	368,966
383,03	1433,333
383,25	118,519
383,46	700,000
383,68	259,574
383,89	368,182
384,11	147,945
384,32	142,105
384,54	-1271,429
384,76	311,765
384,97	310,000
385,19	336,842
385,40	468,750
385,62	264,516
385,83	231,915
386,05	914,286
386,26	392,308
386,48	630,769
386,69	305,556
386,91	340,000
387,12	292,308
387,34	132,203
387,55	202,857
387,77	392,000
387,98	218,367
388,20	164,789
388,41	96,825
388,63	150,000
388,84	245,000
389,06	174,419
389,27	250,000
389,49	80,723
389,70	179,661
389,92	106,818
390,13	133,333
390,35	71,875
390,56	203,125
390,78	263,636
390,99	182,222
391,21	121,591
391,42	139,130
391,64	-240,000
391,85	132,759
392,07	-300,000
392,28	200,000
392,50	1700,000
392,71	4800,000
392,93	124,194
393,14	206,522
393,36	130,769
393,57	308,333
393,79	85,714
394,00	124,658
394,22	116,000
394,43	250,000
394,65	196,429
394,86	309,375
395,08	-675,000
395,29	82,979
395,50	-1000,000
395,72	1200,000
395,93	240,000
396,15	-228,571
396,36	236,667
396,58	-466,667
396,79	172,093
397,01	276,190
397,22	102,899
397,44	219,149
397,65	147,297
397,87	144,286
398,08	200,000
398,29	466,667
398,51	178,049
398,72	154,348
398,94	220,930
399,15	153,333
399,37	117,391
399,58	149,206
399,80	206,667
400,01	173,529
400,22	357,143
400,44	219,048
400,65	132,877
400,87	600,000
401,08	94,382
401,30	92,000
401,51	145,455
401,72	125,806
401,94	90,244
402,15	44,898
402,37	163,636
402,58	160,465
402,80	243,750
403,01	47,222
403,22	103,614
403,44	233,333
403,65	130,612
403,87	101,333
404,08	144,231
404,30	190,625
404,51	88,571
404,72	809,091
404,94	134,940
405,15	126,866
405,37	94,505
405,58	193,548
405,79	471,429
406,01	92,593
406,22	59,524
406,44	112,281
406,65	105,952
406,86	103,000
407,08	70,370
407,29	126,667
407,51	57,692
407,72	95,050
407,93	53,165
408,15	94,318
408,36	242,857
408,58	67,500
408,79	37,209
409,00	63,830
409,22	71,569
409,43	50,450
409,64	60,897
409,86	56,818
410,07	40,870
410,29	24,667
410,50	15,873
410,71	58,871
410,93	9,901
411,14	71,028
411,35	35,417
411,57	19,444
411,78	34,559
412,00	30,667
412,21	31,416
412,42	46,341
412,64	56,111
412,85	31,088
413,06	41,071
413,28	50,980
413,49	54,884
413,70	21,888
413,92	46,667
414,13	28,854
414,34	21,561
414,56	30,638
414,77	29,151
414,98	28,269
415,20	28,315
415,41	28,247
415,63	24,786
415,84	33,518
416,05	30,723
416,27	18,663
416,48	21,327
416,69	12,500
416,91	17,600
417,12	13,348
417,33	16,704
417,55	25,800
417,76	22,622
417,97	15,543
418,19	2,929
418,40	9,382
418,61	8,919
418,83	16,373
419,04	8,682
419,25	8,293
419,46	15,409
419,68	9,882
419,89	10,013
420,10	9,543
420,32	9,139
420,53	10,979
420,74	12,186
420,96	4,265
421,17	7,982
421,38	8,324
421,60	6,967
421,81	7,007
422,02	11,580
422,23	8,563
422,45	5,837
422,66	6,689
422,87	7,040
423,09	1,030
423,30	6,688
423,51	5,279
423,73	2,124
423,94	6,354
424,15	2,308
424,36	6,322
424,58	4,172
424,79	6,831
425,00	4,404
425,22	4,412
425,43	4,590
425,64	1,573
425,85	1,747
426,07	4,050
426,28	3,684
426,49	2,391
426,71	2,922
426,92	5,235
427,13	3,209
427,34	3,244
427,56	5,461
427,77	1,656
427,98	3,372
428,19	1,473
428,41	3,135
428,62	3,173
428,83	2,841
429,04	3,390
429,26	0,936
429,47	3,942
429,68	1,617
429,89	2,262
430,11	2,604
430,32	2,657
430,53	1,416
430,74	3,156
430,96	2,170
431,17	2,514
431,38	2,495
431,59	2,318
431,81	2,344
432,02	2,210
432,23	2,950
432,44	1,853
432,66	2,676
432,87	1,923
433,08	3,074
433,29	1,538
433,51	2,217
433,72	2,399
433,93	1,921
434,14	2,083
434,35	2,728
434,57	2,295
434,78	3,183
434,99	3,117
435,20	4,574
435,42	4,740
435,63	6,050
435,84	7,359
436,05	8,397
436,26	9,190
436,48	11,865
436,69	13,669
436,90	15,028
437,11	17,592
437,32	19,933
437,54	22,501
437,75	24,759
437,96	26,735
438,17	30,077
438,38	30,693
438,60	33,452
438,81	34,622
439,02	35,991
439,23	37,494
439,44	38,674
439,66	40,769
439,87	41,446
440,08	41,066
440,29	41,689
440,50	43,663
440,72	43,423
440,93	43,792
441,14	44,508
441,35	44,819
441,56	45,296
441,77	44,686
441,99	45,661
442,20	44,829
442,41	44,408
442,62	46,024
442,83	46,000
443,04	46,456
443,26	47,519
443,47	48,131
443,68	49,917
443,89	52,033
444,10	51,998
444,31	54,181
444,53	57,060
444,74	59,175
444,95	60,242
445,16	62,755
445,37	64,335
445,58	66,218
445,80	67,131
446,01	67,735
446,22	67,892
446,43	67,381
446,64	66,758
446,85	66,123
447,06	64,823
447,28	64,551
447,49	63,801
447,70	63,078
447,91	63,176
448,12	62,355
448,33	61,363
448,54	63,400
448,76	62,566
448,97	63,810
449,18	63,783
449,39	63,400
449,60	62,594
449,81	61,349
450,02	61,212
450,23	61,320
450,45	60,854
450,66	60,137
450,87	59,642
451,08	58,682
451,29	60,280
451,50	60,327
451,71	61,514
451,92	61,900
452,13	64,355
452,35	63,582
452,56	64,349
452,77	63,779
452,98	64,453
453,19	65,800
453,40	62,883
453,61	62,296
453,82	61,310
454,03	60,255
454,25	59,506
454,46	58,098
454,67	56,202
454,88	56,013
455,09	55,280
455,30	52,242
455,51	51,046
455,72	49,728
455,93	47,060
456,14	45,244
456,35	42,647
456,56	41,023
456,78	38,782
456,99	36,160
457,20	33,792
457,41	32,252
457,62	29,473
457,83	27,168
458,04	25,250
458,25	23,237
458,46	20,706
458,67	18,893
458,88	16,988
459,09	15,091
459,30	13,059
459,51	12,055
459,73	10,263
459,94	9,632
460,15	7,837
460,36	7,219
460,57	5,846
460,78	5,232
460,99	4,434
461,20	3,599
461,41	3,385
461,62	2,450
461,83	2,241
462,04	2,165
462,25	1,774
462,46	1,612
462,67	1,214
462,88	1,155
463,09	0,849
463,30	0,805
463,51	0,703
463,72	0,732
463,93	0,594
464,15	0,456
464,36	0,503
464,57	0,363
464,78	0,339
464,99	0,554
465,20	0,297
465,41	0,206
465,62	0,431
465,83	0,424
466,04	0,490
466,25	0,385
466,46	0,645
466,67	0,439
466,88	0,403
467,09	0,310
467,30	0,310
467,51	0,358
467,72	0,366
467,93	0,404
468,14	0,353
468,35	0,486
468,56	0,364
468,77	0,258
468,98	0,608
469,19	0,442
469,40	0,445
469,61	0,327
469,82	0,266
470,03	0,257
470,24	0,281
470,45	0,438
470,66	0,531
470,87	0,353
471,08	0,454
471,29	0,340
471,50	0,314
471,71	0,429
471,92	0,373
472,13	0,521
472,34	0,203
472,55	0,541
472,76	0,431
472,97	0,396
473,18	0,375
473,39	0,446
473,60	0,159
473,81	0,461
474,01	0,399
474,22	0,346
474,43	0,437
474,64	0,328
474,85	0,315
475,06	0,433
475,27	0,545
475,48	0,328
475,69	0,370
475,90	0,375
476,11	0,383
476,32	0,398
476,53	0,587
476,74	0,443
476,95	0,216
477,16	0,228
477,37	0,545
477,58	0,328
477,79	0,477
478,00	0,221
478,21	0,541
478,41	0,485
478,62	0,433
478,83	0,385
479,04	0,414
479,25	0,412
479,46	0,391
479,67	0,283
479,88	0,091
480,09	0,363
480,30	0,378
480,51	0,598
480,72	0,227
480,93	0,562
481,14	0,397
481,34	0,310
481,55	0,368
481,76	0,417
481,97	0,407
482,18	0,230
482,39	0,367
482,60	0,395
482,81	0,191
483,02	0,400
483,23	0,459
483,44	0,528
483,65	0,301
483,85	0,298
484,06	0,559
484,27	0,353
484,48	0,332
484,69	0,473
484,90	0,283
485,11	0,550
485,32	0,451
485,53	0,199
485,73	0,531
485,94	0,332
486,15	0,416
486,36	0,360
486,57	0,371
486,78	0,360
486,99	0,298
487,20	0,482
487,41	0,275
487,61	0,305
487,82	0,265
488,03	0,357
488,24	0,592
488,45	0,504
488,66	0,458
488,87	0,473
489,08	0,540
489,28	0,218
489,49	0,401
489,70	0,343
489,91	0,296
490,12	0,314
490,33	0,286
490,54	0,226
490,74	0,449
490,95	0,436
491,16	0,424
491,37	0,471
491,58	0,390
491,79	0,196
492,00	0,156
492,20	0,545
492,41	0,235
492,62	0,310
492,83	0,386
493,04	0,395
493,25	0,434
493,45	0,322
493,66	0,363
493,87	0,338
494,08	0,197
494,29	0,287
494,50	0,253
494,70	0,289
494,91	0,286
495,12	0,333
495,33	0,448
495,54	0,469
495,75	0,408
495,95	0,342
496,16	0,361
496,37	0,445
496,58	0,324
496,79	0,291
496,99	0,237
497,20	0,244
497,41	0,440
497,62	0,290
497,83	0,418
498,04	0,275
498,24	0,194
498,45	0,256
498,66	0,330
498,87	0,340
499,08	0,345
499,28	0,305
499,49	0,381
499,70	0,404
499,91	0,328
500,12	0,331
500,32	0,470
500,53	0,478
500,74	0,360
500,95	0,321
501,15	0,407
501,36	0,352
501,57	0,299
501,78	0,524
501,99	0,322
502,19	0,335
502,40	0,344
502,61	0,299
502,82	0,334
503,02	0,211
503,23	0,411
503,44	0,562
503,65	0,333
503,86	0,278
504,06	0,332
504,27	0,518
504,48	0,317
504,69	0,426
504,89	0,334
505,10	0,282
505,31	0,632
505,52	0,422
505,72	0,482
505,93	0,535
506,14	0,384
506,35	0,366
506,55	0,465
506,76	0,197
506,97	0,387
507,18	0,438
507,38	0,336
507,59	0,540
507,80	0,438
508,01	0,337
508,21	0,490
508,42	0,409
508,63	0,537
508,84	0,609
509,04	0,667
509,25	0,849
509,46	0,756
509,67	1,162
509,87	1,011
510,08	1,254
510,29	1,409
510,49	1,870
510,70	2,011
510,91	2,589
511,12	2,989
511,32	3,328
511,53	3,991
511,74	4,479
511,94	5,316
512,15	6,367
512,36	7,097
512,57	8,183
512,77	9,554
512,98	10,729
513,19	11,843
513,39	13,442
513,60	15,038
513,81	16,785
514,01	18,721
514,22	20,419
514,43	22,025
514,64	24,176
514,84	25,472
515,05	27,403
515,26	29,353
515,46	31,223
515,67	32,387
515,88	33,989
516,08	35,894
516,29	36,314
516,50	38,233
516,70	39,533
516,91	40,277
517,12	41,336
517,32	41,825
517,53	41,914
517,74	42,816
517,95	43,485
518,15	43,636
518,36	43,887
518,57	44,274
518,77	44,447
518,98	44,586
519,19	44,505
519,39	45,039
519,60	44,915
519,80	45,402
520,01	45,675
520,22	45,332
520,42	45,952
520,63	46,403
520,84	46,378
521,04	46,841
521,25	46,614
521,46	46,582
521,66	46,281
521,87	47,370
522,08	47,704
522,28	47,247
522,49	46,972
522,70	47,321
522,90	47,193
523,11	47,446
523,31	48,230
523,52	46,817
523,73	46,239
523,93	46,811
524,14	45,543
524,35	45,083
524,55	45,103
524,76	44,499
524,97	43,167
525,17	43,792
525,38	42,582
525,58	41,947
525,79	40,623
526,00	39,775
526,20	38,580
526,41	37,444
526,61	35,952
526,82	34,759
527,03	33,958
527,23	32,896
527,44	31,166
527,64	30,082
527,85	28,891
528,06	27,989
528,26	26,237
528,47	25,454
528,68	24,307
528,88	22,824
529,09	21,624
529,29	20,767
529,50	19,098
529,70	18,193
529,91	16,756
530,12	16,136
530,32	15,254
530,53	14,199
530,73	12,777
530,94	11,971
531,15	10,871
531,35	9,636
531,56	8,867
531,76	7,393
531,97	6,160
532,17	5,401
532,38	4,891
532,59	3,984
532,79	3,595
533,00	2,780
533,20	2,607
533,41	1,929
533,61	1,433
533,82	1,127
534,03	1,230
534,23	0,882
534,44	0,883
534,64	0,728
534,85	0,429
535,05	0,218
535,26	0,484
535,46	0,471
535,67	0,351
535,88	0,417
536,08	0,543
536,29	0,420
536,49	0,334
536,70	0,409
536,90	0,412
537,11	0,341
537,31	0,461
537,52	0,415
537,72	0,260
537,93	0,344
538,13	0,276
538,34	0,314
538,55	0,427
538,75	0,202
538,96	0,256
539,16	0,126
539,37	0,394
539,57	0,309
539,78	0,370
539,98	0,396
540,19	0,465
540,39	0,348
540,60	0,220
540,80	0,248
541,01	0,405
541,21	0,423
541,42	0,336
541,62	0,479
541,83	0,371
542,03	0,418
542,24	0,253
542,44	0,338
542,65	0,180
542,85	0,600
543,06	0,384
543,26	0,449
543,47	0,488
543,67	0,445
543,88	0,299
544,08	0,318
544,29	0,388
544,49	0,289
544,70	0,206
544,90	0,301
545,11	0,360
545,31	0,277
545,52	0,424
545,72	0,258
545,93	0,364
546,13	0,282
546,34	0,477
546,54	0,335
546,75	0,397
546,95	0,442
547,15	0,120
547,36	0,317
547,56	0,383
547,77	0,281
547,97	0,182
548,18	0,064
548,38	0,381
548,59	0,206
548,79	0,377
549,00	0,365
549,20	0,246
549,41	0,230
549,61	0,166
549,81	0,289
550,02	0,278
550,22	0,059
550,43	0,235
550,63	0,227
550,84	0,370
551,04	0,243
551,25	0,409
551,45	0,454
551,65	0,296
551,86	0,169
552,06	0,288
552,27	0,154
552,47	0,325
552,68	0,279
552,88	0,350
553,08	0,126
553,29	0,377
553,49	0,211
553,70	0,460
553,90	0,279
554,11	0,486
554,31	0,117
554,51	0,387
554,72	0,268
554,92	0,233
555,13	0,295
555,33	0,174
555,53	0,348
555,74	0,374
555,94	0,316
556,15	0,301
556,35	0,085
556,56	0,209
556,76	0,180
556,96	0,280
557,17	0,435
557,37	0,474
557,58	0,245
557,78	0,353
557,98	0,228
558,19	0,162
558,39	0,332
558,59	0,363
558,80	0,223
559,00	0,104
559,21	0,367
559,41	0,285
559,61	0,372
559,82	0,407
560,02	0,404
560,23	0,310
560,43	0,233
560,63	0,149
560,84	0,352
561,04	0,340
561,24	0,328
561,45	0,433
561,65	0,320
561,85	0,263
562,06	0,293
562,26	0,137
562,47	0,457
562,67	0,352
562,87	0,189
563,08	0,311
563,28	0,290
563,48	0,236
563,69	0,379
563,89	0,400
564,09	0,225
564,30	0,262
564,50	0,288
564,70	0,258
564,91	0,171
565,11	0,273
565,31	0,383
565,52	0,228
565,72	0,422
565,92	0,301
566,13	0,341
566,33	0,335
566,53	0,151
566,74	0,217
566,94	0,223
567,14	0,352
567,35	0,233
567,55	0,331
567,75	0,432
567,96	0,456
568,16	0,305
568,36	0,216
568,57	0,351
568,77	0,321
568,97	0,306
569,18	0,395
569,38	0,372
569,58	0,236
569,79	0,157
569,99	0,418
570,19	0,119
570,39	0,245
570,60	0,347
570,80	0,196
571,00	0,260
571,21	0,384
571,41	0,305
571,61	0,330
571,82	0,358
572,02	0,307
572,22	0,137
572,42	0,329
572,63	0,180
572,83	0,480
573,03	0,276
573,24	0,278
573,44	0,349
573,64	0,404
573,84	0,217
574,05	0,431
574,25	0,434
574,45	0,508
574,66	0,615
574,86	0,763
575,06	0,804
575,26	0,897
575,47	1,053
575,67	1,037
575,87	1,328
576,07	1,356
576,28	1,674
576,48	1,936
576,68	2,419
576,88	2,784
577,09	3,327
577,29	3,989
577,49	4,149
577,69	5,192
577,90	5,888
578,10	6,401
578,30	7,100
578,50	8,147
578,71	9,103
578,91	10,606
579,11	11,925
579,31	13,054
579,52	14,609
579,72	15,819
579,92	17,509
580,12	18,966
580,33	20,894
580,53	22,397
580,73	23,749
580,93	25,226
581,13	26,908
581,34	27,663
581,54	29,346
581,74	30,419
581,94	30,913
582,15	32,544
582,35	33,286
582,55	34,030
582,75	34,027
582,95	34,575
583,16	35,667
583,36	36,767
583,56	37,813
583,76	38,041
583,96	39,215
584,17	40,385
584,37	41,285
584,57	42,453
584,77	43,379
584,97	44,600
585,18	46,103
585,38	46,772
585,58	47,769
585,78	49,441
585,98	50,927
586,19	51,150
586,39	52,896
586,59	54,461
586,79	55,402
586,99	55,482
587,20	56,753
587,40	57,222
587,60	58,490
587,80	59,231
588,00	59,350
588,20	59,912
588,41	60,311
588,61	61,103
588,81	60,587
589,01	59,839
589,21	59,360
589,41	58,771
589,62	58,321
589,82	57,769
590,02	57,495
590,22	56,184
590,42	55,516
590,62	54,701
590,83	53,182
591,03	52,927
591,23	52,274
591,43	52,140
591,63	50,993
591,83	51,041
592,03	49,723
592,24	49,649
592,44	48,895
592,64	48,524
592,84	48,530
593,04	48,220
593,24	48,489
593,44	48,809
593,65	47,457
593,85	47,410
594,05	47,536
594,25	47,697
594,45	47,363
594,65	47,674
594,85	46,922
595,06	47,572
595,26	47,266
595,46	47,386
595,66	46,892
595,86	46,475
596,06	45,932
596,26	46,320
596,46	45,633
596,66	46,196
596,87	45,329
597,07	44,913
597,27	44,571
597,47	44,536
597,67	44,265
597,87	43,124
598,07	43,061
598,27	42,481
598,47	42,054
598,67	41,808
598,88	41,279
599,08	40,512
599,28	39,599
599,48	39,458
599,68	39,621
599,88	37,922
600,08	37,207
600,28	36,020
600,48	35,261
600,68	35,165
600,88	34,093
601,09	33,077
601,29	31,618
601,49	30,499
601,69	29,387
601,89	27,439
602,09	26,466
602,29	25,077
602,49	23,318
602,69	21,590
602,89	19,873
603,09	18,195
603,29	16,855
603,49	14,622
603,69	13,298
603,90	11,492
604,10	10,015
604,30	8,983
604,50	7,914
604,70	6,429
604,90	5,545
605,10	4,804
605,30	4,123
605,50	3,342
605,70	2,779
605,90	2,240
606,10	1,979
606,30	1,706
606,50	1,439
606,70	1,212
606,90	0,875
607,10	1,076
607,30	0,815
607,50	0,619
607,70	0,692
607,90	0,733
608,10	0,726
608,30	0,498
608,50	0,347
608,70	0,495
608,90	0,307
609,11	0,319
609,31	0,431
609,51	0,316
609,71	0,340
609,91	0,269
610,11	0,491
610,31	0,371
610,51	0,552
610,71	0,286
610,91	0,243
611,11	0,446
611,31	0,333
611,51	0,344
611,71	0,210
611,91	0,533
612,11	0,291
612,31	0,538
612,51	0,475
612,71	0,207
612,91	0,170
613,11	0,397
613,31	0,293
613,51	0,299
613,71	0,278
613,91	0,448
614,11	0,303
614,31	0,162
614,50	0,454
614,70	0,173
614,90	0,295
615,10	0,366
615,30	0,409
615,50	0,151
615,70	0,412
615,90	0,252
616,10	0,275
616,30	0,262
616,50	0,231
616,70	0,275
616,90	0,257
617,10	0,378
617,30	0,227
617,50	0,332
617,70	0,212
617,90	0,250
618,10	0,455
618,30	0,044
618,50	0,448
618,70	0,280
618,90	0,179
619,10	0,191
619,30	0,080
619,49	0,194
619,69	0,265
619,89	0,273
620,09	0,163
620,29	0,257
620,49	0,440
620,69	0,201
620,89	0,358
621,09	0,288
621,29	0,256
621,49	0,262
621,69	0,156
621,89	0,415
622,09	0,332
622,29	0,210
622,48	0,207
622,68	0,203
622,88	0,156
623,08	0,201
623,28	0,078
623,48	0,300
623,68	0,051
623,88	0,229
624,08	0,339
624,28	0,282
624,48	0,266
624,67	0,221
624,87	0,322
625,07	0,337
625,27	0,246
625,47	0,381
625,67	0,138
625,87	0,115
626,07	0,179
626,27	0,209
626,47	0,280
626,66	0,244
626,86	0,245
627,06	0,206
627,26	0,210
627,46	0,097
627,66	0,166
627,86	0,412
628,06	0,180
628,25	0,222
628,45	0,271
628,65	0,292
628,85	0,250
629,05	0,318
629,25	0,201
629,45	0,266
629,65	0,316
629,84	0,079
630,04	0,307
630,24	0,245
630,44	0,075
630,64	0,443
630,84	0,199
631,04	0,331
631,23	0,134
631,43	0,165
631,63	0,194
631,83	0,321
632,03	0,342
632,23	0,390
632,42	0,318
632,62	0,344
632,82	0,220
633,02	0,214
633,22	0,186
633,42	0,347
633,62	0,325
633,81	0,272
634,01	0,514
634,21	0,309
634,41	0,264
634,61	0,334
634,80	0,298
635,00	0,316
635,20	0,361
635,40	0,063
635,60	0,323
635,80	0,192
635,99	0,382
636,19	0,206
636,39	0,202
636,59	0,031
636,79	0,355
636,98	0,339
637,18	0,180
637,38	0,303
637,58	-0,108
637,78	0,383
637,97	0,336
638,17	0,415
638,37	0,360
638,57	0,224
638,77	0,324
638,96	0,109
639,16	0,421
639,36	0,023
639,56	0,576
639,76	0,135
639,95	0,307
640,15	0,262
640,35	0,036
640,55	0,284
640,75	0,536
640,94	0,303
641,14	0,555
641,34	0,117
641,54	0,340
641,73	0,244
641,93	0,519
642,13	0,071
642,33	0,267
642,53	0,266
642,72	0,364
642,92	0,560
643,12	0,146
643,32	0,416
643,51	0,614
643,71	0,348
643,91	0,244
644,11	0,507
644,30	0,274
644,50	0,663
644,70	0,251
644,90	0,528
645,09	0,694
645,29	0,496
645,49	0,378
645,69	0,165
645,88	0,569
646,08	0,340
646,28	0,489
646,48	0,140
646,67	0,218
646,87	0,229
647,07	0,522
647,26	0,403
647,46	0,242
647,66	0,326
647,86	0,703
648,05	0,614
648,25	0,702
648,45	0,340
648,65	0,275
648,84	0,215
649,04	0,875
649,24	0,725
649,43	0,370
649,63	0,389
649,83	0,063
650,03	0,683
650,22	0,510
650,42	0,556
650,62	0,380
650,81	0,435
651,01	0,543
651,21	0,452
651,40	0,549
651,60	0,268
651,80	0,596
652,00	0,626
652,19	0,434
652,39	0,756
652,59	0,864
652,78	0,402
652,98	0,041
653,18	0,243
653,37	0,435
653,57	0,575
653,77	0,778
653,96	0,526
654,16	0,588
654,36	0,492
654,55	0,185
654,75	0,638
654,95	0,511
655,14	0,336
655,34	1,034
655,54	0,775
655,73	0,278
655,93	0,427
656,13	0,191
656,32	0,132
656,52	0,415
656,72	0,608
656,91	0,538
657,11	0,560
657,31	0,174
657,50	0,388
657,70	0,312
657,90	0,617
658,09	0,816
658,29	0,355
658,49	0,541
658,68	0,556
658,88	0,663
659,07	0,427
659,27	0,079
659,47	0,583
659,66	0,397
659,86	0,279
660,06	0,294
660,25	0,124
660,45	0,373
660,64	0,553
660,84	0,558
661,04	0,306
661,23	0,438
661,43	0,588
661,63	0,516
661,82	0,511
662,02	0,347
662,21	0,567
662,41	0,717
662,61	0,487
662,80	0,439
663,00	0,000
663,19	0,760
663,39	0,138
663,59	0,465
663,78	0,550
663,98	0,624
664,17	0,716
664,37	0,655
664,57	0,411
664,76	0,679
664,96	0,307
665,15	0,323
665,35	0,601
665,55	0,111
665,74	0,590
665,94	0,650
666,13	0,391
666,33	0,633
666,53	0,685
666,72	0,379
666,92	0,577
667,11	0,424
667,31	0,050
667,50	0,348
667,70	0,551
667,90	0,490
668,09	0,344
668,29	0,368
668,48	0,390
668,68	0,463
668,87	0,588
669,07	0,152
669,26	0,561
669,46	0,633
669,66	0,301
669,85	0,813
670,05	0,529
670,24	0,376
670,44	0,543
670,63	0,390
670,83	0,437
671,02	0,423
671,22	0,442
671,42	0,378
671,61	0,613
671,81	0,577
672,00	0,916
672,20	0,372
672,39	0,390
672,59	0,210
672,78	0,241
672,98	0,196
673,17	0,437
673,37	0,524
673,56	0,269
673,76	0,044
673,95	0,467
674,15	0,664
674,34	0,129
674,54	0,428
674,73	0,007
674,93	0,078
675,13	0,662
675,32	0,617
675,52	0,546
675,71	0,624
675,91	0,361
676,10	0,384
676,30	0,172
676,49	0,081
676,69	0,575
676,88	0,237
677,08	0,301
677,27	0,130
677,47	0,345
677,66	0,356
677,86	0,595
678,05	0,294
678,24	0,292
678,44	0,685
678,63	0,473
678,83	0,211
679,02	0,141
679,22	0,284
679,41	0,464
679,61	0,370
679,80	0,213
680,00	-0,041
680,19	0,170
680,39	0,145
680,58	0,308
680,78	0,224
680,97	0,330
681,17	0,289
681,36	0,006
681,56	0,348
681,75	-0,067
681,94	0,226
682,14	0,526
682,33	0,504
682,53	0,287
682,72	0,274
682,92	0,613
683,11	0,084
683,31	0,273
683,50	0,078
683,69	0,268
683,89	0,164
684,08	0,162
684,28	0,204
684,47	0,216
684,67	0,198
684,86	0,188
685,06	0,252
685,25	0,515
685,44	0,271
685,64	0,365
685,83	0,204
686,03	0,075
686,22	0,293
686,42	0,189
686,61	0,164
686,80	0,114
687,00	0,054
687,19	0,124
687,39	0,280
687,58	0,194
687,77	0,348
687,97	0,330
688,16	0,222
688,36	0,100
688,55	0,130
688,74	0,077
688,94	0,248
689,13	0,177
689,33	0,150
689,52	0,223
689,71	0,232
689,91	0,299
690,10	0,147
690,30	0,052
690,49	0,048
690,68	0,349
690,88	0,052
691,07	0,190
691,27	0,157
691,46	0,185
691,65	0,217
691,85	0,259
692,04	0,131
692,23	0,016
692,43	0,154
692,62	0,252
692,82	0,285
693,01	0,302
693,20	0,306
693,40	0,100
693,59	0,016
693,78	0,177
693,98	0,126
694,17	0,295
694,36	0,498
694,56	0,303
694,75	0,264
694,94	0,179
695,14	0,192
695,33	0,396
695,53	0,352
695,72	0,229
695,91	-0,014
696,11	0,221
696,30	0,202
696,49	0,352
696,69	0,294
696,88	0,061
697,07	0,088
697,27	0,399
697,46	0,495
697,65	0,273
697,85	0,217
698,04	0,360
698,23	0,389
698,43	0,399
698,62	0,245
698,81	0,329
699,01	0,369
699,20	0,449
699,39	0,115
699,58	0,405
699,78	0,069
699,97	0,432
700,16	0,291
700,36	0,710
700,55	0,501
700,74	0,578
700,94	0,180
701,13	0,057
701,32	0,282
701,52	0,578
701,71	0,717
701,90	0,651
702,09	0,954
702,29	0,897
702,48	0,262
702,67	0,975
702,87	1,367
703,06	0,839
703,25	1,272
703,44	0,887
703,64	0,663
703,83	0,702
704,02	1,239
704,22	0,590
704,41	0,743
704,60	1,246
704,79	0,689
704,99	1,125
705,18	1,067
705,37	2,017
705,56	0,996
705,76	1,373
705,95	0,842
706,14	1,471
706,33	0,966
706,53	1,115
706,72	0,628
706,91	0,925
707,11	0,623
707,30	0,876
707,49	1,688
707,68	1,068
707,88	1,092
708,07	0,195
708,26	1,169
708,45	1,064
708,64	2,051
708,84	1,159
709,03	2,514
709,22	1,505
709,41	2,320
709,61	1,885
709,80	2,462
709,99	2,284
710,18	2,467
710,38	1,447
710,57	1,176
710,76	0,066
710,95	1,149
711,14	1,523
711,34	1,927
711,53	2,275
711,72	3,676
711,91	2,989
712,11	2,744
712,30	1,885
712,49	1,685
712,68	1,899
712,87	1,755
713,07	3,171
713,26	1,249
713,45	0,125
713,64	1,964
713,83	1,583
714,03	3,044
714,22	2,986
714,41	2,700
714,60	0,807
714,79	1,248
714,99	3,032
715,18	2,782
715,37	3,774
715,56	2,796
715,75	2,701
715,94	5,906
716,14	5,457
716,33	3,642
716,52	4,036
716,71	3,348
716,90	0,999
717,10	-0,223
717,29	3,770
717,48	1,224
717,67	4,174
717,86	2,884
718,05	4,274
718,24	3,627
718,44	4,984
718,63	2,129
718,82	1,936
719,01	2,366
719,20	4,952
719,39	4,706
719,59	0,586
719,78	3,073
719,97	3,882
720,16	3,831
720,35	1,101
720,54	3,704
720,73	4,642
720,93	1,374
721,12	0,216
721,31	2,041
721,50	6,909
721,69	6,320
721,88	6,068
722,07	4,351
722,27	5,777
722,46	5,097
722,65	3,018
722,84	2,419
723,03	6,322
723,22	4,029
723,41	1,412
723,60	4,497
723,79	8,911
723,99	4,610
724,18	6,255
724,37	0,817
724,56	2,300
724,75	3,043
724,94	11,233
725,13	2,060
725,32	6,031
725,51	2,233
725,71	2,484
725,90	2,741
726,09	5,388
726,28	7,531
726,47	2,663
726,66	5,957
726,85	4,834
727,04	0,000
727,23	3,916
727,42	5,870
727,61	8,539
727,81	-2,270
728,00	3,950
728,19	8,559
728,38	3,930
728,57	5,000
728,76	7,189
728,95	12,396
729,14	2,489
729,33	3,226
729,52	6,187
729,71	4,121
729,90	7,033
730,09	10,656
730,28	7,348
730,48	10,384
730,67	6,585
730,86	10,520
731,05	3,384
731,24	-0,732
731,43	3,484
731,62	1,489
731,81	3,065
732,00	9,701
732,19	6,250
732,38	6,026
732,57	9,535
732,76	3,146
732,95	5,277
733,14	0,574
733,33	3,307
733,52	8,146
733,71	7,747
733,90	2,542
734,09	8,649
734,28	7,480
734,47	4,861
734,66	1,872
734,85	5,143
735,04	8,987
735,23	10,784
735,42	11,339
735,61	7,143
735,81	10,059
736,00	3,561
736,19	7,751
736,38	5,988
736,57	6,036
736,76	11,095
736,95	6,369
737,14	7,177
737,33	8,062
737,52	9,231
737,71	12,951
737,90	12,828
738,09	15,068
738,28	11,061
738,47	-0,182
738,66	5,609
738,85	8,709
739,04	6,175
739,22	1,839
739,41	10,662
739,60	6,485
739,79	7,014
739,98	5,735
740,17	13,311
740,36	15,552
740,55	13,057
740,74	10,978
740,93	7,266
741,12	4,107
741,31	5,810
741,50	5,671
741,69	4,779
741,88	-4,545
742,07	16,486
742,26	5,714
742,45	14,549
742,64	10,603
742,83	12,920
743,02	12,421
743,21	19,675
743,40	-0,828
743,59	15,625
743,78	9,980
743,97	12,692
744,16	9,449
744,34	0,699
744,53	10,309
744,72	7,724
744,91	2,101
745,10	15,094
745,29	16,734
745,48	12,045
745,67	13,212
745,86	7,726
746,05	17,062
746,24	11,134
746,43	10,278
746,62	12,931
746,81	14,157
747,00	12,691
747,18	12,636
747,37	25,053
747,56	20,235
747,75	3,941
747,94	23,058
748,13	25,280
748,32	14,286
748,51	13,452
748,70	13,436
748,89	25,059
749,08	-5,523
749,26	17,621
749,45	17,694
749,64	6,297
749,83	6,966
750,02	17,935
750,21	8,397
750,40	23,887
750,59	15,550
750,78	13,716
750,96	16,298
751,15	22,897
751,34	15,057
751,53	19,399
751,72	20,845
751,91	13,212
752,10	13,613
752,29	11,733
752,47	13,467
752,66	20,635
752,85	28,962
753,04	8,659
753,23	12,693
753,42	20,755
753,61	18,182
753,80	16,495
753,98	16,162
754,17	15,502
754,36	22,903
754,55	16,265
754,74	12,662
754,93	29,752
755,12	6,825
755,30	7,468
755,49	22,093
755,68	29,448
755,87	28,994
756,06	16,667
756,25	23,404
756,43	0,336
756,62	21,739
756,81	28,146
757,00	14,474
757,19	11,806
757,38	10,039
757,56	13,600
757,75	24,573
757,94	17,490
758,13	16,438
758,32	12,166
758,51	19,192
758,69	3,861
758,88	10,774
759,07	24,551
759,26	28,975
759,45	13,333
759,63	23,810
759,82	28,421
760,01	26,740
760,20	29,560
760,39	34,069
760,57	19,512
760,76	22,648
760,95	49,306
761,14	25,912
761,33	17,419
761,51	23,929
761,70	31,970
761,89	22,222
762,08	34,201
762,27	26,354
762,45	3,623
762,64	12,563
762,83	34,661
763,02	15,217
763,21	18,500
763,39	32,168
763,58	23,420
763,77	26,160
763,96	28,685
764,14	16,250
764,33	15,238
764,52	22,321
764,71	24,262
764,89	18,750
765,08	21,182
765,27	24,255
765,46	39,013
765,65	30,196
765,83	23,529
766,02	11,905
766,21	16,393
766,40	33,074
766,58	35,979
766,77	27,064
766,96	27,236
767,15	36,975
767,33	37,681
767,52	28,821
767,71	25,439
767,90	33,668
768,08	51,497
768,27	19,919
768,46	44,298
768,64	11,574
768,83	30,882
769,02	14,778
769,21	7,292
769,39	18,571
769,58	32,035
769,77	42,553
769,96	41,441
770,14	25,683
770,33	37,850
770,52	30,935
770,70	16,216
770,89	34,595
771,08	0,000
771,27	20,000
771,45	27,647
771,64	41,212
771,83	27,451
772,01	45,876
772,20	24,876
772,39	13,924
772,57	36,816
772,76	34,459
772,95	33,908
773,14	39,456
773,32	32,768
773,51	28,571
773,70	29,496
773,88	34,194
774,07	40,102
774,26	-5,645
774,44	54,887
774,63	49,102
774,82	24,675
775,00	40,187
775,19	6,548
775,38	42,553
775,56	52,174
775,75	42,857
775,94	4,167
776,12	45,098
776,31	6,015
776,50	4,795
776,68	41,398
776,87	42,584
777,06	42,767
777,24	49,580
777,43	51,872
777,62	47,753
777,80	36,478
777,99	53,333
778,18	27,586
778,36	50,847
778,55	24,576
778,74	27,344
778,92	63,580
779,11	65,455
779,29	-4,255
779,48	45,390
779,67	63,964
779,85	40,351
780,04	68,841
780,23	27,976
780,41	69,492
780,60	39,597
780,79	50,000
780,97	37,908
781,16	52,660
781,34	64,189
781,53	48,214
781,72	38,739
781,90	27,545
782,09	53,488
782,28	33,333
782,46	48,571
782,65	23,239
782,83	17,610
783,02	71,053
783,21	33,835
783,39	65,546
783,58	39,130
783,76	52,381
783,95	56,338
784,14	84,211
784,32	41,176
784,51	79,054
784,69	68,750
784,88	50,467
785,06	61,589
785,25	39,007
785,44	17,742
785,62	37,857
785,81	37,963
785,99	63,158
786,18	40,541
786,37	79,121
786,55	56,250
786,74	31,818
786,92	53,147
787,11	44,444
787,29	76,786
787,48	24,731
787,67	25,472
787,85	53,165
788,04	52,252
788,22	28,713
788,41	62,205
788,59	67,105
788,78	59,341
788,96	38,843
789,15	88,333
789,34	55,769
789,52	12,903
789,71	66,187
789,89	54,545
790,08	45,000
790,26	66,879
790,45	125,000
790,63	59,770
790,82	56,154
791,00	28,319
791,19	14,400
791,38	31,429
791,56	72,727
791,75	52,778
791,93	31,000
792,12	75,652
792,30	44,526
792,49	27,273
792,67	64,706
792,86	58,400
793,04	49,074
793,23	84,211
793,41	74,638
793,60	65,972
793,78	65,714
793,97	75,000
794,15	87,218
794,34	46,667
794,52	15,054
794,71	58,140
794,89	37,879
795,08	29,600
795,26	70,667
795,45	87,500
795,63	37,903
795,82	104,396
796,00	65,000
796,19	69,919
796,37	81,679
796,56	45,631
796,74	46,316
796,93	125,758
797,11	100,000
797,30	35,556
797,48	50,781
797,67	63,415
797,85	70,000
798,04	41,525
798,22	120,513
798,41	43,269
798,59	57,143
798,77	72,289
798,96	70,988
799,14	61,290
799,33	59,633
799,51	122,222
799,70	72,308
799,88	111,009
800,07	85,496
800,25	24,096
800,44	109,259
800,62	109,722
800,80	52,113
800,99	95,890
801,17	57,759
801,36	63,571
801,54	54,000
801,73	65,263
801,91	45,455
802,10	35,294
802,28	53,600
802,46	71,053
802,65	37,410
802,83	60,000
803,02	33,065
803,20	124,096
803,39	93,103
803,57	14,173
803,75	58,537
803,94	68,254
804,12	57,931
804,31	89,855
804,49	30,400
804,67	22,059
804,86	76,991
805,04	44,578
805,23	52,212
805,41	51,667
805,59	56,164
805,78	89,600
805,96	39,759
806,15	78,218
806,33	57,895
806,51	62,667
806,70	33,835
806,88	69,767
807,07	104,505
807,25	65,934
807,43	58,929
807,62	55,752
807,80	65,714
807,99	82,308
808,17	28,346
808,35	53,000
808,54	71,739
808,72	90,991
808,90	41,781
809,09	64,130
809,27	80,000
809,46	52,747
809,64	115,854
809,82	41,722
810,01	40,625
810,19	59,596
810,37	66,406
810,56	90,000
810,74	68,831
810,92	49,333
811,11	22,807
811,29	80,189
811,48	11,538
811,66	23,596
811,84	40,659
812,03	45,082
812,21	80,702
812,39	66,957
812,58	67,368
812,76	51,079
812,94	72,289
813,13	77,660
813,31	37,000
813,49	60,185
813,68	13,636
813,86	78,652
814,04	29,752
814,23	25,301
814,41	8,989
814,59	60,194
814,78	43,382
814,96	63,522
815,14	51,402
815,33	60,465
815,51	64,567
815,69	53,333
815,87	23,762
816,06	63,478
816,24	54,037
816,42	29,412
816,61	51,572
816,79	59,483
816,97	80,682
817,16	34,911
817,34	52,381
817,52	38,017
817,70	65,347
817,89	62,963
818,07	42,466
818,25	52,041
818,44	139,744
818,62	13,953
818,80	51,880
818,98	35,032
819,17	82,353
819,35	65,426
819,53	70,149
819,72	51,266
819,90	65,891
820,08	4,274
820,26	25,862
820,45	31,544
820,63	109,821
820,81	51,200
820,99	55,319
821,18	50,340
821,36	39,873
821,54	62,759
821,73	63,889
821,91	45,614
822,09	33,871
822,27	56,129
822,46	16,176
822,64	61,600
822,82	30,939
823,00	28,729
823,19	43,956
823,37	64,242
823,55	47,727
823,73	48,966
823,91	58,696
824,10	60,215
824,28	44,724
824,46	-2,913
824,64	38,816
824,83	49,068
825,01	44,667
825,19	41,935
825,37	30,435
825,56	69,811
825,74	53,061
825,92	40,764
826,10	56,818
826,28	32,143
826,47	38,421
826,65	61,702
826,83	15,517
827,01	54,335
827,19	75,000
827,38	54,938
827,56	44,318
827,74	18,994
827,92	36,628
828,10	15,385
828,29	40,237
828,47	36,585
828,65	66,923
828,83	10,303
829,01	27,174
829,20	52,198
829,38	45,455
829,56	59,239
829,74	44,654
829,92	37,302
830,10	36,782
830,29	29,648
830,47	35,678
830,65	14,024
830,83	42,857
831,01	32,738
831,20	40,291
831,38	27,273
831,56	28,837
831,74	43,128
831,92	28,947
832,10	46,667
832,29	31,757
832,47	28,090
832,65	39,706
832,83	31,455
833,01	47,000
833,19	24,434
833,37	31,674
833,56	25,738
833,74	44,608
833,92	37,500
834,10	17,427
834,28	32,911
834,46	31,222
834,64	43,056
834,83	41,818
835,01	57,261
835,19	22,400
835,37	19,835
835,55	14,583
835,73	37,438
835,91	44,649
836,09	26,616
836,28	26,199
836,46	22,000
836,64	32,707
836,82	1,357
837,00	27,174
837,18	32,342
837,36	30,677
837,54	36,364
837,72	28,017
837,91	39,552
838,09	9,562
838,27	29,000
838,45	25,887
838,63	19,853
838,81	13,080
838,99	19,355
839,17	21,284
839,35	24,468
839,53	26,667
839,72	25,940
839,90	31,271
840,08	20,615
840,26	24,603
840,44	33,535
840,62	22,759
840,80	25,510
840,98	14,118
841,16	21,293
841,34	15,385
841,52	21,407
841,70	26,769
841,89	28,226
842,07	20,063
842,25	44,828
842,43	24,138
842,61	30,877
842,79	26,836
842,97	23,453
843,15	26,073
843,33	12,934
843,51	12,651
843,69	26,781
843,87	7,463
844,05	18,237
844,23	21,021
844,41	11,599
844,59	15,850
844,77	28,852
844,95	18,786
845,13	35,692
845,31	9,302
845,50	30,890
845,68	14,148
845,86	6,034
846,04	16,201
846,22	13,896
846,40	26,882
846,58	17,664
846,76	18,280
846,94	26,434
847,12	15,026
847,30	11,856
847,48	25,697
847,66	24,138
847,84	13,661
848,02	17,874
848,20	13,953
848,38	0,000
848,56	22,159
848,74	14,558
848,92	7,980
849,10	13,750
849,28	11,943
849,46	20,267
849,64	20,554
849,82	4,938
850,00	17,523
850,18	19,149
850,36	11,700
850,54	12,281
850,72	28,278
850,90	21,304
851,08	14,442
851,26	18,381
851,44	14,823
851,62	20,000
851,80	12,555
851,98	18,681
852,16	16,076
852,34	17,732
852,52	13,616
852,70	-0,911
852,87	9,817
853,05	10,136
853,23	10,928
853,41	15,193
853,59	18,257
853,77	18,254
853,95	20,042
854,13	17,920
854,31	17,864
854,49	14,371
854,67	10,367
854,85	13,251
855,03	20,641
855,21	19,789
855,39	7,646
855,57	11,111
855,75	18,431
855,93	6,275
856,11	25,919
856,28	10,332
856,46	26,512
856,64	17,333
856,82	10,825
857,00	10,142
857,18	11,733
857,36	13,491
857,54	13,668
857,72	17,018
857,90	12,546
858,08	13,725
858,26	2,692
858,44	5,458
858,61	6,098
858,79	19,896
858,97	6,018
859,15	15,325
859,33	10,156
859,51	6,365
859,69	4,293
859,87	12,026
860,05	1,421
860,23	13,636
860,40	7,829
860,58	13,279
860,76	12,381
860,94	13,008
861,12	10,769
861,30	13,030
861,48	15,000
861,66	9,841
861,84	4,634
862,01	12,371
862,19	2,373
862,37	6,808
862,55	9,942
862,73	4,644
862,91	8,076
863,09	12,649
863,27	12,500
863,44	4,654
863,62	9,918
863,80	7,314
863,98	9,496
864,16	3,179
864,34	10,891
864,52	9,786
864,69	12,719
864,87	7,525
865,05	10,612
865,23	10,327
865,41	10,618
865,59	9,825
865,76	16,947
865,94	12,274
866,12	14,065
866,30	10,799
866,48	16,524
866,66	5,511
866,83	11,578
867,01	6,266
867,19	9,883
867,37	10,867
867,55	5,854
867,73	8,413
867,90	4,072
868,08	10,399
868,26	5,882
868,44	8,558
868,62	10,811
868,79	7,789
868,97	8,438
869,15	3,132
869,33	8,181
869,51	7,549
869,69	4,878
869,86	8,538
870,04	10,115
870,22	12,223
870,40	9,240
870,57	4,152
870,75	11,160
870,93	8,316
871,11	3,463
871,29	5,708
871,46	6,512
871,64	7,008
871,82	6,674
872,00	8,539
872,18	3,797
872,35	10,198
872,53	7,127
872,71	5,918
872,89	11,040
873,06	11,111
873,24	10,184
873,42	6,448
873,60	5,269
873,77	4,908
873,95	1,034
874,13	3,805
874,31	7,018
874,49	4,163
874,66	3,195
874,84	9,529
875,02	7,241
875,20	8,966
875,37	10,526
875,55	7,061
875,73	5,332
875,91	7,900
876,08	1,280
876,26	7,067
876,44	4,865
876,61	7,413
876,79	9,799
876,97	4,836
877,15	2,203
877,32	4,945
877,50	4,719
877,68	2,742
877,86	2,379
878,03	5,873
878,21	4,671
878,39	3,929
878,56	2,314
878,74	8,410
878,92	2,583
879,10	2,921
879,27	7,170
879,45	6,337
879,63	5,357
879,80	5,015
879,98	4,816
880,16	6,259
880,34	6,043
880,51	0,789
880,69	1,414
880,87	5,099
881,04	3,835
881,22	5,404
881,40	5,948
881,57	6,742
881,75	3,947
881,93	6,393
882,10	5,130
882,28	5,724
882,46	6,712
882,63	4,440
882,81	6,606
882,99	3,846
883,16	5,650
883,34	3,543
883,52	6,304
883,69	6,411
883,87	1,823
884,05	7,186
884,22	6,327
884,40	4,997
884,58	0,645
884,75	3,966
884,93	4,136
885,11	4,488
885,28	2,682
885,46	0,984
885,64	5,039
885,81	2,886
885,99	2,478
886,17	2,794
886,34	3,066
886,52	1,923
886,70	6,214
886,87	2,501
887,05	4,489
887,22	1,328
887,40	3,791
887,58	1,657
887,75	4,097
887,93	4,675
888,11	4,173
888,28	3,344
888,46	5,485
888,63	3,226
888,81	1,303
888,99	3,283
889,16	3,396
889,34	3,082
889,51	3,652
889,69	2,571
889,87	3,877
890,04	1,675
890,22	4,583
890,39	1,836
890,57	5,482
890,75	2,197
890,92	2,722
891,10	2,533
891,27	4,681
891,45	4,625
891,63	2,815
891,80	4,502
891,98	3,172
892,15	2,382
892,33	4,476
892,51	4,462
892,68	4,076
892,86	1,140
893,03	3,021
893,21	3,670
893,38	2,087
893,56	3,633
893,74	3,870
893,91	4,674
894,09	4,929
894,26	4,143
894,44	3,503
894,61	2,382
894,79	3,397
894,96	2,346
895,14	3,898
895,32	2,371
895,49	2,897
895,67	1,605
895,84	1,481
896,02	1,589
896,19	2,196
896,37	2,661
896,54	2,845
896,72	2,557
896,89	3,558
897,07	5,403
897,25	3,382
897,42	2,425
897,60	3,724
897,77	3,057
897,95	2,330
898,12	4,372
898,30	2,366
898,47	2,679
898,65	1,684
898,82	2,409
899,00	1,258
899,17	4,177
899,35	1,655
899,52	4,664
899,70	3,052
899,87	0,955
900,05	1,636
900,22	1,829
900,40	1,059
900,57	2,412
900,75	1,606
900,92	2,781
901,10	2,977
901,27	0,888
901,45	3,570
901,62	1,948
901,80	2,537
901,97	1,511
902,15	2,321
902,32	3,378
902,50	1,399
902,67	3,586
902,85	2,602
903,02	4,123
903,20	3,068
903,37	0,569
903,54	2,371
903,72	3,176
903,89	3,441
904,07	1,711
904,24	2,174
904,42	2,852
904,59	0,250
904,77	2,724
904,94	0,274
905,12	2,232
905,29	0,843
905,47	1,325
905,64	1,256
905,81	3,166
905,99	2,310
906,16	2,220
906,34	3,115
906,51	2,349
906,69	3,520
906,86	2,144
907,03	2,018
907,21	1,428
907,38	3,165
907,56	1,972
907,73	3,176
907,91	1,224
908,08	2,039
908,25	3,260
908,43	0,738
908,60	1,715
908,78	1,508
908,95	1,679
909,13	3,414
909,30	3,778
909,47	0,522
909,65	2,936
909,82	2,190
910,00	1,889
910,17	1,406
910,34	2,341
910,52	2,990
910,69	1,546
910,87	2,162
911,04	1,090
911,21	3,301
911,39	1,246
911,56	3,144
911,73	1,863
911,91	0,724
912,08	3,425
912,26	1,299
912,43	3,078
912,60	1,016
912,78	2,728
912,95	2,220
913,13	1,097
913,30	3,618
913,47	2,925
913,65	2,978
913,82	2,218
913,99	1,077
914,17	2,153
914,34	1,637
914,51	2,829
914,69	3,329
914,86	3,795
915,03	2,794
915,21	1,234
915,38	2,342
915,56	1,973
915,73	0,853
915,90	2,173
916,08	2,659
916,25	2,231
916,42	2,085
916,60	2,390
916,77	2,234
916,94	1,418
917,12	1,239
917,29	1,765
917,46	1,922
917,64	1,586
917,81	0,685
917,98	0,573
918,16	1,418
918,33	2,409
918,50	0,753
918,67	1,457
918,85	0,951
919,02	1,373
919,19	0,912
919,37	0,707
919,54	2,474
919,71	2,300
919,89	0,391
920,06	1,383
920,23	1,458
920,41	1,746
920,58	1,196
920,75	2,146
920,92	0,025
921,10	0,462
921,27	1,675
921,44	1,871
921,62	2,009
921,79	0,769
921,96	1,521
922,13	1,251
922,31	0,438
922,48	0,344
922,65	1,289
922,82	1,504
923,00	2,245
923,17	1,393
923,34	1,309
923,52	1,311
923,69	1,289
923,86	2,285
924,03	1,887
924,21	1,654
924,38	2,585
924,55	2,127
924,72	1,464
924,90	0,932
925,07	1,584
925,24	1,085
925,41	0,918
925,59	1,210
925,76	0,877
925,93	1,862
926,10	1,315
926,28	1,248
926,45	1,180
926,62	1,285
926,79	0,752
926,96	2,098
927,14	1,783
927,31	1,479
927,48	1,733
927,65	1,795
927,83	1,677
928,00	0,862
928,17	1,781
928,34	1,410
928,51	1,227
928,69	2,073
928,86	1,071
929,03	1,427
929,20	0,194
929,37	1,574
929,55	2,230
929,72	1,629
929,89	1,110
930,06	1,127
930,23	1,676
930,41	0,729
930,58	1,809
930,75	0,975
930,92	2,114
931,09	1,413
931,27	0,702
931,44	1,248
931,61	2,199
931,78	1,481
931,95	1,000
932,12	1,723
932,30	1,749
932,47	0,475
932,64	1,117
932,81	0,730
932,98	1,696
933,16	1,249
933,33	1,641
933,50	1,669
933,67	1,798
933,84	2,745
934,01	1,772
934,18	0,843
934,36	1,519
934,53	2,193
934,70	0,724
934,87	1,052
935,04	0,977
935,21	0,572
935,38	0,461
935,56	1,821
935,73	1,257
935,90	0,932
936,07	1,119
936,24	1,626
936,41	0,966
936,58	0,553
936,76	2,004
936,93	0,925
937,10	1,722
937,27	1,679
937,44	0,896
937,61	1,045
937,78	0,959
937,95	1,842
938,13	0,816
938,30	1,763
938,47	1,745
938,64	0,920
938,81	0,497
938,98	0,658
939,15	1,166
939,32	1,654
939,49	0,916
939,66	0,616
939,84	0,767
940,01	1,439
940,18	0,526
940,35	0,226
940,52	0,904
940,69	0,040
940,86	2,335
941,03	0,742
941,20	1,438
941,37	1,172
941,54	1,763
941,71	1,381
941,89	1,189
942,06	0,755
942,23	1,635
942,40	1,242
942,57	1,115
942,74	1,446
942,91	2,317
943,08	2,222
943,25	2,486
943,42	0,799
943,59	1,227
943,76	1,959
943,93	0,852
944,10	0,788
944,27	0,985
944,44	1,014
944,61	1,748
944,79	2,294
944,96	2,384
945,13	0,117
945,30	0,257
945,47	1,906
945,64	1,723
945,81	2,120
945,98	2,482
946,15	2,117
946,32	1,754
946,49	0,973
946,66	1,657
946,83	1,638
947,00	1,444
947,17	0,734
947,34	2,377
947,51	2,025
947,68	2,469
947,85	1,460
948,02	1,781
948,19	0,638
948,36	2,823
948,53	0,670
948,70	1,923
948,87	2,007
949,04	2,286
949,21	1,618
949,38	2,928
949,55	3,097
949,72	1,952
949,89	1,230
950,06	2,094
950,23	2,355
950,40	2,543
950,57	2,351
950,74	2,427
950,91	1,871
951,08	2,908
951,25	3,166
951,42	1,733
951,59	1,482
951,76	2,467
951,93	2,892
952,10	1,814
952,27	1,394
952,44	3,898
952,61	3,161
952,77	3,885
952,94	2,714
953,11	3,312
953,28	3,189
953,45	4,939
953,62	2,715
953,79	2,667
953,96	2,913
954,13	5,637
954,30	4,036
954,47	2,955
954,64	2,287
954,81	5,543
954,98	3,202
955,15	3,083
955,32	3,482
955,49	5,135
955,65	4,409
955,82	6,751
955,99	5,221
956,16	6,144
956,33	3,467
956,50	5,531
956,67	1,888
956,84	8,410
957,01	3,881
957,18	6,540
957,35	7,673
957,52	6,136
957,68	6,931
957,85	6,474
958,02	5,268
958,19	5,811
958,36	9,445
958,53	8,876
958,70	7,628
958,87	2,595
959,04	8,896
959,21	8,591
959,37	8,850
959,54	7,853
959,71	5,915
959,88	5,116
960,05	9,546
960,22	6,289
960,39	6,030
960,56	4,987
960,72	7,895
960,89	12,886
961,06	9,834
961,23	1,529
961,40	9,545
961,57	8,946
961,74	10,906
961,90	7,692
962,07	7,623
962,24	10,112
962,41	8,621
962,58	6,856
962,75	10,940
962,92	12,456
963,08	5,625
963,25	9,163
963,42	17,470
963,59	6,571
963,76	12,525
963,93	17,108
964,10	11,086
964,26	23,810
964,43	5,581
964,60	11,833
964,77	20,358
964,94	14,074
965,10	8,914
965,27	14,525
965,44	15,873
965,61	20,548
965,78	7,453
965,95	22,886
966,11	12,727
966,28	17,039
966,45	16,013
966,62	10,453
966,79	17,065
966,95	18,505
967,12	23,175
967,29	30,864
967,46	32,740
967,63	26,275
967,79	35,235
967,96	32,569
968,13	35,714
968,30	45,267
968,47	23,077
968,63	44,118
968,80	31,801
968,97	27,168
969,14	44,633
969,31	19,898
969,47	36,957
969,64	9,890
969,81	25,161
969,98	24,211
970,14	33,871
970,31	27,044
970,48	28,188
970,65	51,240
970,81	23,776
970,98	50,000
971,15	43,636
971,32	43,182
971,48	77,381
971,65	33,775
971,82	60,909
971,99	64,557
972,15	61,628
972,32	66,667
972,49	55,738
972,66	53,719
972,82	83,562
972,99	58,750
973,16	67,550
973,33	70,370
973,49	57,317
973,66	37,143
973,83	66,667
974,00	56,962
974,16	169,091
974,33	113,333
974,50	74,747
974,67	79,762
974,83	73,469
975,00	149,091
975,17	69,355
975,33	79,310
975,50	144,262
975,67	90,385
975,84	119,512
976,00	80,263
976,17	89,130
976,34	76,471
976,50	73,626
976,67	113,095
976,84	206,250
977,00	85,897
977,17	184,444
977,34	217,308
977,50	92,857
977,67	56,471
977,84	149,153
978,01	117,568
978,17	118,966
978,34	11,111
978,51	192,000
978,67	144,898
978,84	136,364
979,01	89,474
979,17	78,571
979,34	134,783
979,51	175,000
979,67	158,333
979,84	130,508
980,01	121,154
980,17	114,706
980,34	79,452
980,51	311,111
980,67	55,556
980,84	71,429
981,01	129,412
981,17	104,412
981,34	90,000
981,50	111,579
981,67	223,810
981,84	153,571
982,00	2800,000
982,17	120,313
982,34	136,585
982,50	0,000
982,67	-371,429
982,84	470,000
983,00	112,963
983,17	-471,429
983,33	600,000
983,50	134,146
983,67	108,696
983,83	357,143
984,00	308,696
984,17	711,111
984,33	-271,429
984,50	189,189
984,66	318,750
984,83	475,000
985,00	84,615
985,16	190,323
985,33	4150,000
985,49	143,023
985,66	180,000
985,83	-3100,000
985,99	466,667
986,16	300,000
986,32	100,000
986,49	-1320,000
986,66	1300,000
986,82	200,000
986,99	-380,000
987,15	178,788
987,32	523,529
987,49	182,143
987,65	-91,304
987,82	-195,000
987,98	168,182
988,15	800,000
988,31	180,000
988,48	233,333
988,65	460,000
988,81	110,909
988,98	424,324
989,14	580,000
989,31	154,237
989,47	-114,286
989,64	227,778
989,80	130,851
989,97	205,455
990,14	500,000
990,30	-850,000
990,47	-41,667
990,63	223,684
990,80	850,000
990,96	691,667
991,13	193,333
991,29	160,784
991,46	160,417
991,62	0,000
991,79	-450,000
991,95	452,941
992,12	1333,333
992,29	-195,238
992,45	285,714
992,62	-157,143
992,78	-766,667
992,95	338,710
993,11	1075,000
993,28	-7700,000
993,44	-172,414
993,61	200,000
993,77	0,000
993,94	382,051
994,10	285,714
994,27	-78,947
994,43	387,500
994,60	864,286
994,76	175,758
994,93	-1000,000
995,09	-550,000
995,26	341,667
995,42	787,500
995,59	183,333
995,75	-750,000
995,92	-714,286
996,08	-1160,000
996,25	233,333
996,41	920,000
996,58	348,000
996,74	-350,000
996,91	133,871
997,07	288,000
997,23	166,667
997,40	1466,667
997,56	-1900,000
997,73	673,913
997,89	1480,000
998,06	189,474
998,22	231,915
998,39	165,306
998,55	447,368
998,72	-7900,000
998,88	144,000
999,05	586,667
999,21	229,412
999,37	248,837
999,54	212,903
999,70	190,476
999,87	1133,333
1000,03	373,333
1000,20	314,286
1000,36	-1000,000
1000,52	2050,000
1000,69	508,000
1000,85	-341,667
1001,02	442,857
1001,18	980,000
1001,35	0,000
1001,51	500,000
1001,67	400,000
1001,84	212,195
1002,00	-800,000
1002,17	2025,000
1002,33	-237,500
1002,50	675,000
1002,66	950,000
1002,82	270,732
1002,99	-118,182
1003,15	-3700,000
1003,32	-7,143
1003,48	-2533,333
1003,64	321,739
1003,81	-89,474
1003,97	150,725
1004,14	-103,636
1004,30	463,636
1004,46	-10000,000
1004,63	-638,462
1004,79	159,459
1004,95	-1820,000
1005,12	-261,538
1005,28	280,556
1005,45	-1566,667
1005,61	507,692
1005,77	-857,143
1005,94	258,696
1006,10	-380,000
1006,26	-125,926
1006,43	263,636
1006,59	358,065
1006,76	-276,000
1006,92	286,957
1007,08	128,788
1007,25	219,444
1007,41	277,273
1007,57	-411,765
1007,74	334,783
1007,90	-607,143
1008,06	-373,333
1008,23	-373,684
1008,39	163,889
1008,55	107,059
1008,72	-862,500
1008,88	-180,000
1009,04	-900,000
1009,21	159,375
1009,37	283,871
1009,53	-250,000
1009,70	-6,061
1009,86	421,053
1010,02	211,364
1010,19	920,000
1010,35	7100,000
1010,51	354,286
1010,68	345,455
1010,84	245,000
1011,00	478,571
1011,17	3533,333
1011,33	273,077
1011,49	425,000
1011,66	359,375
1011,82	-991,667
1011,98	746,667
1012,14	430,769
1012,31	311,364
1012,47	-814,286
1012,63	7500,000
1012,80	588,889
1012,96	138,889
1013,12	-22,222
1013,29	470,833
1013,45	-194,118
1013,61	-1640,000
1013,77	-1000,000
1013,94	429,167
1014,10	5200,000
1014,26	-100,000
1014,43	247,368
1014,59	0,000
1014,75	230,000
1014,91	234,286
1015,08	215,385
1015,24	373,333
1015,40	533,333
1015,56	535,294
1015,73	179,592
1015,89	622,222
1016,05	278,378
1016,21	311,111
1016,38	300,000
1016,54	-372,000
1016,70	421,053
1016,86	-676,923
1017,03	0,000
1017,19	762,500
1017,35	453,333
1017,51	1366,667
1017,68	1128,571
1017,84	442,105
1018,00	380,952
1018,16	-543,750
1018,33	272,727
1018,49	507,143
1018,65	-372,727
1018,81	-90,244
1018,97	400,000
1019,14	-1785,714
1019,30	304,762
1019,46	253,846
1019,62	2900,000
1019,79	-814,286
1019,95	-875,000
1020,11	340,000
1020,27	202,500
1020,43	-1287,500
1020,60	0,000
1020,76	157,353
1020,92	5500,000
1021,08	-115,556
1021,24	-2600,000
1021,41	224,242
1021,57	-358,333
1021,73	0,000
1021,89	-359,091
1022,05	254,286
1022,21	-415,385
1022,38	294,737
1022,54	1600,000
1022,70	359,259
1022,86	-1450,000
1023,02	922,222
1023,19	-420,000
1023,35	171,698
1023,51	229,032
1023,67	171,053
1023,83	654,545
1023,99	222,857
1024,16	-67,692
1024,32	625,000
1024,48	314,286
1024,64	-960,000
1024,80	500,000
1024,96	1023,077
1025,12	3300,000
1025,29	-1275,000
1025,45	333,333
1025,61	3433,333
1025,77	438,095
1025,93	-230,769
1026,09	4450,000
1026,26	-1171,429
1026,42	-1800,000
1026,58	159,615
1026,74	928,571
1026,90	515,789
1027,06	-730,000
1027,22	-400,000
1027,38	1044,444
1027,55	-212,000
1027,71	925,000
1027,87	130,000
1028,03	95,455
1028,19	-193,939
1028,35	105,405
1028,51	-20,968
1028,67	-280,000
1028,83	252,381
1029,00	335,714
1029,16	-426,667
1029,32	264,706
1029,48	5500,000
1029,64	971,429
1029,80	1166,667
1029,96	341,176
1030,12	-87,500
1030,28	1725,000
1030,44	-3150,000
1030,61	209,375
1030,77	-447,826
1030,93	158,140
1031,09	-371,429
1031,25	-988,889
1031,41	-2500,000
1031,57	-163,158
1031,73	790,909
1031,89	-145,455
1032,05	1400,000
1032,21	960,000
1032,37	-79,412
1032,53	-150,000
1032,69	-5100,000
1032,86	1300,000
1033,02	393,750
1033,18	-715,385
1033,34	-415,385
1033,50	270,968
1033,66	-177,778
1033,82	296,429
1033,98	-535,294
1034,14	1211,111
1034,30	-181,818
1034,46	350,000
1034,62	466,667
1034,78	180,952
1034,94	-125,806
1035,10	-340,909
1035,26	-1011,111
1035,42	191,429
1035,58	700,000
1035,74	-133,333
1035,90	-500,000
1036,06	256,604
1036,22	-244,000
1036,38	806,667
1036,54	740,000
1036,70	-4000,000
1036,86	-600,000
1037,02	-1750,000
1037,18	-246,429
1037,34	547,826
1037,50	-413,333
1037,66	-4066,667
1037,82	-229,412
1037,98	328,571
1038,14	-175,862
1038,30	76,923
1038,46	187,500
1038,62	67,742
1038,78	204,762
1038,94	-139,474
1039,10	-166,667
1039,26	-294,737
1039,42	-542,857
1039,58	175,472
1039,74	268,750
1039,90	-138,462
1040,06	523,529
>>>>>End Processed Spectral Data<<<<<
