SpectraSuite Data File
++++++++++++++++++++++++++++++++++++
Date: Thu Feb 02 17:48:19 EET 2017
User: optolab
Dark Spectrum Present: Yes
Reference Spectrum Present: Yes
Number of Sampled Component Spectra: 1
Spectrometers: USB4C02475
Integration Time (usec): 100000 (USB4C02475)
Spectra Averaged: 1 (USB4C02475)
Boxcar Smoothing: 0 (USB4C02475)
Correct for Electrical Dark: No (USB4C02475)
Strobe/Lamp Enabled: No (USB4C02475)
Correct for Detector Non-linearity: No (USB4C02475)
Correct for Stray Light: No (USB4C02475)
Number of Pixels in Processed Spectrum: 3648
>>>>>Begin Processed Spectral Data<<<<<
344,91	-400,000
345,13	-400,000
345,35	-400,000
345,57	-64,706
345,79	-67,391
346,00	-123,529
346,22	-1071,429
346,44	-42,424
346,66	293,617
346,87	365,217
347,09	730,769
347,31	7100,000
347,53	-1800,000
347,74	-139,535
347,96	-1000,000
348,18	247,059
348,40	835,294
348,61	-125,641
348,83	7800,000
349,05	276,923
349,27	323,529
349,48	-4450,000
349,70	528,571
349,92	304,762
350,14	113,514
350,35	-623,077
350,57	-305,556
350,79	-82,051
351,01	-700,000
351,22	510,000
351,44	608,333
351,66	333,333
351,87	1450,000
352,09	63,158
352,31	237,500
352,53	405,714
352,74	-671,429
352,96	389,474
353,18	103,125
353,40	-875,000
353,61	746,667
353,83	197,917
354,05	328,125
354,26	200,000
354,48	-1360,000
354,70	357,143
354,92	258,333
355,13	-88,372
355,35	168,519
355,57	178,125
355,78	421,429
356,00	255,319
356,22	77,273
356,44	204,651
356,65	335,714
356,87	280,556
357,09	260,000
357,30	118,182
357,52	-1800,000
357,74	300,000
357,95	285,714
358,17	102,899
358,39	268,000
358,60	155,556
358,82	395,455
359,04	294,872
359,26	190,909
359,47	-561,538
359,69	267,857
359,91	400,000
360,12	175,000
360,34	77,778
360,56	-1500,000
360,77	777,778
360,99	425,000
361,21	321,739
361,42	-875,000
361,64	-155,556
361,86	147,761
362,07	553,333
362,29	272,500
362,51	283,784
362,72	-1420,000
362,94	366,667
363,16	100,000
363,37	490,909
363,59	-9400,000
363,81	825,000
364,02	156,000
364,24	261,364
364,46	571,429
364,67	197,619
364,89	523,529
365,11	286,486
365,32	437,037
365,54	156,250
365,76	213,636
365,97	248,780
366,19	178,947
366,41	1110,000
366,62	177,000
366,84	650,000
367,05	131,373
367,27	1480,000
367,49	284,615
367,70	611,111
367,92	185,417
368,14	-269,231
368,35	227,941
368,57	178,788
368,79	330,769
369,00	106,410
369,22	516,667
369,43	578,947
369,65	-224,138
369,87	-494,118
370,08	370,000
370,30	407,143
370,51	381,818
370,73	180,556
370,95	440,000
371,16	108,772
371,38	205,660
371,60	283,333
371,81	102,174
372,03	-1125,000
372,24	-212,500
372,46	1566,667
372,68	179,412
372,89	100,917
373,11	202,326
373,32	124,370
373,54	645,455
373,76	372,222
373,97	254,545
374,19	-342,105
374,40	125,714
374,62	664,706
374,84	225,000
375,05	188,462
375,27	197,297
375,48	113,580
375,70	370,588
375,92	183,929
376,13	615,789
376,35	516,667
376,56	475,000
376,78	187,755
376,99	184,848
377,21	181,250
377,43	190,909
377,64	144,000
377,86	512,500
378,07	113,636
378,29	144,444
378,51	111,905
378,72	-240,909
378,94	139,130
379,15	122,727
379,37	431,250
379,58	210,000
379,80	195,455
380,01	158,000
380,23	295,652
380,45	212,500
380,66	141,667
380,88	291,892
381,09	356,522
381,31	256,410
381,52	234,783
381,74	248,214
381,95	257,143
382,17	356,000
382,39	120,968
382,60	470,588
382,82	324,138
383,03	2066,667
383,25	61,728
383,46	683,333
383,68	206,383
383,89	440,909
384,11	147,945
384,32	178,947
384,54	-971,429
384,76	211,765
384,97	350,000
385,19	384,211
385,40	365,625
385,62	274,194
385,83	208,511
386,05	1185,714
386,26	434,615
386,48	623,077
386,69	280,556
386,91	680,000
387,12	225,641
387,34	186,441
387,55	268,571
387,77	296,000
387,98	187,755
388,20	130,986
388,41	7,937
388,63	210,000
388,84	257,500
389,06	160,465
389,27	259,375
389,49	96,386
389,70	227,119
389,92	177,273
390,13	235,897
390,35	96,875
390,56	154,687
390,78	240,909
390,99	162,222
391,21	136,364
391,42	139,130
391,64	10,000
391,85	181,034
392,07	-300,000
392,28	180,769
392,50	940,000
392,71	5200,000
392,93	124,194
393,14	289,130
393,36	148,718
393,57	275,000
393,79	93,651
394,00	76,712
394,22	164,000
394,43	367,857
394,65	157,143
394,86	318,750
395,08	-725,000
395,29	87,234
395,50	-3900,000
395,72	871,429
395,93	468,000
396,15	-7,143
396,36	76,667
396,58	-195,238
396,79	179,070
397,01	338,095
397,22	114,493
397,44	223,404
397,65	166,216
397,87	114,286
398,08	253,846
398,29	408,333
398,51	204,878
398,72	215,217
398,94	132,558
399,15	128,333
399,37	176,087
399,58	212,698
399,80	173,333
400,01	320,588
400,22	492,857
400,44	428,571
400,65	117,808
400,87	4200,000
401,08	69,663
401,30	173,333
401,51	74,545
401,72	141,935
401,94	204,878
402,15	171,429
402,37	177,273
402,58	200,000
402,80	587,500
403,01	83,333
403,22	130,120
403,44	241,667
403,65	148,980
403,87	176,000
404,08	144,231
404,30	87,500
404,51	152,857
404,72	1072,727
404,94	127,711
405,15	147,761
405,37	158,242
405,58	264,516
405,79	585,714
406,01	85,926
406,22	134,524
406,44	166,667
406,65	145,238
406,86	129,000
407,08	98,765
407,29	153,333
407,51	93,269
407,72	96,040
407,93	165,823
408,15	105,682
408,36	285,714
408,58	141,667
408,79	97,674
409,00	119,149
409,22	124,510
409,43	103,604
409,64	109,615
409,86	136,364
410,07	137,391
410,29	86,000
410,50	100,794
410,71	133,065
410,93	118,812
411,14	100,000
411,35	96,528
411,57	72,917
411,78	88,971
412,00	78,000
412,21	73,894
412,42	42,439
412,64	59,444
412,85	48,705
413,06	59,821
413,28	35,294
413,49	40,000
413,70	48,498
413,92	27,619
414,13	21,344
414,34	28,996
414,56	37,872
414,77	24,723
414,98	28,975
415,20	23,656
415,41	26,948
415,63	20,798
415,84	27,147
416,05	16,566
416,27	22,563
416,48	22,986
416,69	19,477
416,91	15,200
417,12	11,765
417,33	14,447
417,55	20,600
417,76	22,199
417,97	19,288
418,19	13,808
418,40	2,345
418,61	13,551
418,83	13,556
419,04	11,628
419,25	11,005
419,46	10,754
419,68	11,209
419,89	13,043
420,10	8,737
420,32	12,318
420,53	7,637
420,74	12,186
420,96	6,161
421,17	7,298
421,38	6,881
421,60	10,825
421,81	4,304
422,02	0,098
422,23	8,183
422,45	6,507
422,66	8,194
422,87	6,277
423,09	4,206
423,30	6,285
423,51	4,684
423,73	8,574
423,94	6,859
424,15	4,476
424,36	6,662
424,58	3,903
424,79	1,366
425,00	1,737
425,22	5,000
425,43	3,835
425,64	2,299
425,85	4,397
426,07	3,524
426,28	4,218
426,49	2,645
426,71	2,876
426,92	3,758
427,13	4,635
427,34	2,603
427,56	4,826
427,77	0,538
427,98	2,578
428,19	1,473
428,41	1,471
428,62	2,772
428,83	1,198
429,04	2,945
429,26	0,710
429,47	4,394
429,68	2,146
429,89	1,376
430,11	1,649
430,32	2,096
430,53	1,055
430,74	1,993
430,96	1,773
431,17	1,605
431,38	0,952
431,59	2,318
431,81	0,957
432,02	2,326
432,23	3,174
432,44	1,765
432,66	2,044
432,87	0,761
433,08	2,582
433,29	1,341
433,51	1,883
433,72	2,561
433,93	1,008
434,14	1,139
434,35	0,839
434,57	0,675
434,78	1,828
434,99	1,478
435,20	1,044
435,42	1,057
435,63	0,849
435,84	1,425
436,05	0,974
436,26	0,332
436,48	1,199
436,69	1,167
436,90	0,367
437,11	0,599
437,32	0,540
437,54	1,111
437,75	1,056
437,96	1,179
438,17	1,358
438,38	0,911
438,60	1,196
438,81	0,749
439,02	0,950
439,23	1,138
439,44	0,483
439,66	0,709
439,87	0,839
440,08	0,615
440,29	0,846
440,50	0,954
440,72	0,470
440,93	0,786
441,14	0,748
441,35	0,386
441,56	0,650
441,77	0,525
441,99	0,712
442,20	0,368
442,41	0,615
442,62	0,402
442,83	0,829
443,04	0,529
443,26	0,652
443,47	0,811
443,68	0,490
443,89	0,614
444,10	0,413
444,31	0,894
444,53	0,949
444,74	0,464
444,95	0,275
445,16	0,514
445,37	0,622
445,58	0,204
445,80	0,425
446,01	0,704
446,22	0,721
446,43	0,735
446,64	0,361
446,85	0,182
447,06	0,499
447,28	0,388
447,49	0,536
447,70	0,622
447,91	0,731
448,12	0,168
448,33	0,461
448,54	0,457
448,76	0,578
448,97	0,319
449,18	0,627
449,39	0,480
449,60	0,347
449,81	0,582
450,02	0,530
450,23	0,504
450,45	0,430
450,66	0,410
450,87	0,652
451,08	0,624
451,29	0,827
451,50	0,758
451,71	0,325
451,92	0,565
452,13	0,691
452,35	0,664
452,56	0,449
452,77	0,817
452,98	0,723
453,19	0,507
453,40	0,814
453,61	0,685
453,82	0,775
454,03	0,593
454,25	0,642
454,46	0,717
454,67	0,744
454,88	0,554
455,09	0,721
455,30	0,774
455,51	0,739
455,72	0,784
455,93	0,643
456,14	0,989
456,35	0,555
456,56	0,719
456,78	0,778
456,99	0,984
457,20	0,562
457,41	0,401
457,62	0,528
457,83	0,883
458,04	0,748
458,25	0,613
458,46	0,613
458,67	0,981
458,88	0,558
459,09	0,508
459,30	0,554
459,51	0,878
459,73	0,425
459,94	0,938
460,15	0,654
460,36	0,511
460,57	0,626
460,78	0,687
460,99	0,696
461,20	0,451
461,41	0,741
461,62	0,482
461,83	0,461
462,04	0,549
462,25	0,679
462,46	0,610
462,67	0,567
462,88	0,670
463,09	0,547
463,30	0,760
463,51	0,459
463,72	0,476
463,93	0,602
464,15	0,678
464,36	0,553
464,57	0,639
464,78	0,699
464,99	0,773
465,20	0,585
465,41	0,662
465,62	0,946
465,83	0,876
466,04	0,975
466,25	1,093
466,46	1,084
466,67	1,066
466,88	1,065
467,09	0,867
467,30	0,803
467,51	1,008
467,72	1,080
467,93	0,907
468,14	0,786
468,35	1,089
468,56	1,057
468,77	1,086
468,98	1,181
469,19	1,205
469,40	1,574
469,61	2,231
469,82	4,571
470,03	9,640
470,24	19,157
470,45	32,989
470,66	51,078
470,87	68,698
471,08	83,538
471,29	91,787
471,50	96,810
471,71	98,091
471,92	101,372
472,13	102,210
472,34	102,515
472,55	102,509
472,76	102,198
472,97	101,916
473,18	102,020
473,39	101,964
473,60	101,249
473,81	100,598
474,01	101,304
474,22	102,245
474,43	102,193
474,64	101,714
474,85	102,452
475,06	101,795
475,27	102,181
475,48	102,097
475,69	103,046
475,90	103,695
476,11	103,379
476,32	103,971
476,53	104,208
476,74	103,920
476,95	101,718
477,16	102,991
477,37	101,930
477,58	100,799
477,79	103,546
478,00	102,627
478,21	102,726
478,41	102,670
478,62	103,839
478,83	103,827
479,04	101,796
479,25	100,459
479,46	103,432
479,67	103,607
479,88	103,190
480,09	103,154
480,30	102,469
480,51	102,674
480,72	102,322
480,93	103,742
481,14	101,153
481,34	103,394
481,55	102,894
481,76	102,983
481,97	102,344
482,18	102,497
482,39	102,953
482,60	102,302
482,81	103,379
483,02	102,256
483,23	102,413
483,44	101,720
483,65	101,982
483,85	101,760
484,06	101,404
484,27	100,737
484,48	101,572
484,69	100,246
484,90	100,813
485,11	99,260
485,32	100,496
485,53	100,713
485,73	100,340
485,94	101,251
486,15	102,196
486,36	102,864
486,57	100,686
486,78	101,376
486,99	101,925
487,20	101,602
487,41	100,503
487,61	100,212
487,82	101,588
488,03	99,575
488,24	99,987
488,45	100,834
488,66	100,967
488,87	101,733
489,08	102,376
489,28	100,956
489,49	102,217
489,70	100,678
489,91	100,947
490,12	100,327
490,33	100,012
490,54	102,179
490,74	100,478
490,95	99,212
491,16	99,980
491,37	98,243
491,58	97,657
491,79	96,188
492,00	94,922
492,20	94,216
492,41	92,867
492,62	89,066
492,83	82,702
493,04	74,392
493,25	61,903
493,45	48,103
493,66	33,267
493,87	20,939
494,08	11,738
494,29	6,701
494,50	4,053
494,70	2,465
494,91	1,749
495,12	1,068
495,33	1,073
495,54	0,903
495,75	0,710
495,95	0,555
496,16	0,734
496,37	0,642
496,58	0,559
496,79	0,520
496,99	0,532
497,20	0,705
497,41	0,581
497,62	0,565
497,83	0,595
498,04	0,628
498,24	0,678
498,45	0,562
498,66	0,588
498,87	0,630
499,08	0,636
499,28	0,440
499,49	0,570
499,70	0,423
499,91	0,384
500,12	0,406
500,32	0,451
500,53	0,471
500,74	0,523
500,95	0,393
501,15	0,547
501,36	0,489
501,57	0,629
501,78	0,307
501,99	0,375
502,19	0,343
502,40	0,393
502,61	0,491
502,82	0,466
503,02	0,414
503,23	0,422
503,44	0,455
503,65	0,425
503,86	0,409
504,06	0,416
504,27	0,703
504,48	0,340
504,69	0,457
504,89	0,399
505,10	0,371
505,31	0,693
505,52	0,419
505,72	0,669
505,93	0,418
506,14	0,163
506,35	0,303
506,55	0,254
506,76	0,212
506,97	0,446
507,18	0,321
507,38	0,360
507,59	0,397
507,80	0,343
508,01	0,388
508,21	0,387
508,42	0,270
508,63	0,485
508,84	0,449
509,04	0,367
509,25	0,528
509,46	0,412
509,67	0,470
509,87	0,393
510,08	0,277
510,29	0,398
510,49	0,425
510,70	0,393
510,91	0,550
511,12	0,417
511,32	0,451
511,53	0,488
511,74	0,310
511,94	0,297
512,15	0,225
512,36	0,284
512,57	0,360
512,77	0,576
512,98	0,300
513,19	0,499
513,39	0,444
513,60	0,466
513,81	0,555
514,01	0,492
514,22	0,466
514,43	0,359
514,64	0,428
514,84	0,504
515,05	0,455
515,26	0,405
515,46	0,353
515,67	0,219
515,88	0,257
516,08	0,335
516,29	0,236
516,50	0,374
516,70	0,275
516,91	0,490
517,12	0,458
517,32	0,304
517,53	0,216
517,74	0,471
517,95	0,545
518,15	0,400
518,36	0,645
518,57	0,313
518,77	0,357
518,98	0,418
519,19	0,355
519,39	0,454
519,60	0,188
519,80	0,368
520,01	0,418
520,22	0,329
520,42	0,291
520,63	0,346
520,84	0,213
521,04	0,236
521,25	0,547
521,46	0,243
521,66	0,344
521,87	0,203
522,08	0,364
522,28	0,434
522,49	0,414
522,70	0,327
522,90	0,255
523,11	0,200
523,31	0,357
523,52	0,321
523,73	0,235
523,93	0,421
524,14	0,217
524,35	0,458
524,55	0,473
524,76	0,399
524,97	0,285
525,17	0,251
525,38	0,357
525,58	0,275
525,79	0,425
526,00	0,197
526,20	0,176
526,41	0,366
526,61	0,356
526,82	0,363
527,03	0,217
527,23	0,244
527,44	0,198
527,64	0,344
527,85	0,247
528,06	0,556
528,26	0,131
528,47	0,387
528,68	0,460
528,88	0,136
529,09	0,215
529,29	0,581
529,50	0,367
529,70	0,447
529,91	0,388
530,12	0,290
530,32	0,381
530,53	0,505
530,73	0,260
530,94	0,479
531,15	0,334
531,35	0,447
531,56	0,639
531,76	0,380
531,97	0,374
532,17	0,606
532,38	0,412
532,59	0,308
532,79	0,632
533,00	0,344
533,20	0,453
533,41	0,460
533,61	0,338
533,82	0,328
534,03	0,285
534,23	0,320
534,44	0,507
534,64	0,489
534,85	0,544
535,05	0,264
535,26	0,406
535,46	0,289
535,67	0,281
535,88	0,240
536,08	0,395
536,29	0,445
536,49	0,347
536,70	0,566
536,90	0,437
537,11	0,464
537,31	0,306
537,52	0,575
537,72	0,465
537,93	0,507
538,13	0,199
538,34	0,432
538,55	0,497
538,75	0,170
538,96	0,293
539,16	0,135
539,37	0,410
539,57	0,423
539,78	0,475
539,98	0,485
540,19	0,639
540,39	0,364
540,60	0,436
540,80	0,407
541,01	0,563
541,21	0,626
541,42	0,437
541,62	0,414
541,83	0,485
542,03	0,337
542,24	0,371
542,44	0,428
542,65	0,278
542,85	0,503
543,06	0,550
543,26	0,482
543,47	0,516
543,67	0,555
543,88	0,553
544,08	0,436
544,29	0,608
544,49	0,437
544,70	0,383
544,90	0,472
545,11	0,498
545,31	0,561
545,52	0,440
545,72	0,467
545,93	0,441
546,13	0,338
546,34	0,433
546,54	0,467
546,75	0,440
546,95	0,559
547,15	0,413
547,36	0,562
547,56	0,399
547,77	0,499
547,97	0,388
548,18	0,472
548,38	0,389
548,59	0,516
548,79	0,667
549,00	0,464
549,20	0,535
549,41	0,524
549,61	0,415
549,81	0,415
550,02	0,357
550,22	0,313
550,43	0,366
550,63	0,445
550,84	0,517
551,04	0,482
551,25	0,499
551,45	0,810
551,65	0,658
551,86	0,701
552,06	0,762
552,27	0,772
552,47	0,588
552,68	0,956
552,88	0,716
553,08	0,635
553,29	0,867
553,49	0,888
553,70	0,896
553,90	0,751
554,11	1,062
554,31	0,653
554,51	1,160
554,72	1,172
554,92	1,373
555,13	2,048
555,33	3,052
555,53	5,631
555,74	10,333
555,94	17,394
556,15	27,872
556,35	41,409
556,56	57,017
556,76	71,092
556,96	82,310
557,17	90,713
557,37	94,987
557,58	97,003
557,78	97,352
557,98	99,043
558,19	99,626
558,39	99,032
558,59	99,467
558,80	100,854
559,00	99,462
559,21	100,104
559,41	99,161
559,61	99,951
559,82	100,561
560,02	100,683
560,23	101,544
560,43	101,154
560,63	100,861
560,84	102,623
561,04	101,114
561,24	100,783
561,45	100,090
561,65	100,496
561,85	100,538
562,06	100,217
562,26	100,323
562,47	101,694
562,67	99,490
562,87	100,348
563,08	101,271
563,28	100,730
563,48	101,730
563,69	100,841
563,89	102,094
564,09	101,406
564,30	101,261
564,50	99,894
564,70	101,837
564,91	101,023
565,11	99,847
565,31	100,724
565,52	101,801
565,72	100,554
565,92	100,488
566,13	99,689
566,33	99,492
566,53	99,724
566,74	98,466
566,94	99,659
567,14	99,543
567,35	98,411
567,55	99,586
567,75	97,899
567,96	97,390
568,16	98,112
568,36	97,356
568,57	97,022
568,77	96,827
568,97	94,503
569,18	91,991
569,38	89,270
569,58	87,170
569,79	81,306
569,99	73,828
570,19	62,976
570,39	50,085
570,60	35,217
570,80	23,358
571,00	14,507
571,21	9,335
571,41	5,828
571,61	3,700
571,82	2,585
572,02	1,783
572,22	1,044
572,42	1,007
572,63	0,876
572,83	0,775
573,03	0,497
573,24	0,338
573,44	0,585
573,64	0,556
573,84	0,232
574,05	0,406
574,25	0,567
574,45	0,416
574,66	0,511
574,86	0,430
575,06	0,489
575,26	0,434
575,47	0,558
575,67	0,500
575,87	0,477
576,07	0,457
576,28	0,472
576,48	0,441
576,68	0,491
576,88	0,452
577,09	0,431
577,29	0,651
577,49	0,331
577,69	0,217
577,90	0,418
578,10	0,383
578,30	0,533
578,50	0,369
578,71	0,442
578,91	0,281
579,11	0,416
579,31	0,542
579,52	0,256
579,72	0,343
579,92	0,354
580,12	0,335
580,33	0,458
580,53	0,456
580,73	0,271
580,93	0,417
581,13	0,442
581,34	0,158
581,54	0,495
581,74	0,455
581,94	0,305
582,15	0,406
582,35	0,169
582,55	0,431
582,75	0,395
582,95	0,309
583,16	0,463
583,36	0,189
583,56	0,358
583,76	0,188
583,96	0,162
584,17	0,281
584,37	0,308
584,57	0,401
584,77	0,251
584,97	0,117
585,18	0,335
585,38	0,328
585,58	0,301
585,78	0,400
585,98	0,196
586,19	0,230
586,39	0,426
586,59	0,151
586,79	0,304
586,99	0,263
587,20	0,204
587,40	0,300
587,60	0,250
587,80	0,317
588,00	0,337
588,20	0,255
588,41	0,296
588,61	0,289
588,81	0,288
589,01	0,339
589,21	0,403
589,41	0,192
589,62	0,406
589,82	0,420
590,02	0,245
590,22	0,318
590,42	0,350
590,62	0,311
590,83	0,183
591,03	0,149
591,23	0,298
591,43	0,390
591,63	0,256
591,83	0,380
592,03	0,372
592,24	0,394
592,44	0,080
592,64	0,166
592,84	0,222
593,04	0,253
593,24	0,323
593,44	0,272
593,65	0,357
593,85	0,386
594,05	0,400
594,25	0,145
594,45	0,357
594,65	0,169
594,85	0,072
595,06	0,236
595,26	0,570
595,46	0,308
595,66	0,230
595,86	0,190
596,06	0,252
596,26	0,305
596,46	0,363
596,66	0,181
596,87	0,409
597,07	0,275
597,27	0,189
597,47	0,277
597,67	0,329
597,87	0,185
598,07	0,245
598,27	0,337
598,47	0,356
598,67	0,095
598,88	0,414
599,08	0,310
599,28	0,306
599,48	0,319
599,68	0,417
599,88	0,193
600,08	0,378
600,28	0,343
600,48	0,182
600,68	0,224
600,88	0,340
601,09	0,375
601,29	0,426
601,49	0,218
601,69	0,399
601,89	0,154
602,09	0,196
602,29	0,230
602,49	0,186
602,69	0,183
602,89	0,270
603,09	0,359
603,29	0,486
603,49	0,288
603,69	0,229
603,90	0,134
604,10	0,440
604,30	0,344
604,50	0,304
604,70	0,281
604,90	0,171
605,10	0,403
605,30	0,176
605,50	0,414
605,70	0,344
605,90	0,188
606,10	0,314
606,30	0,378
606,50	0,526
606,70	0,421
606,90	0,263
607,10	0,374
607,30	0,357
607,50	0,360
607,70	0,303
607,90	0,307
608,10	0,457
608,30	0,409
608,50	0,262
608,70	0,410
608,90	0,435
609,11	0,183
609,31	0,256
609,51	0,281
609,71	0,454
609,91	0,261
610,11	0,425
610,31	0,363
610,51	0,470
610,71	0,290
610,91	0,325
611,11	0,254
611,31	0,376
611,51	0,391
611,71	0,242
611,91	0,473
612,11	0,385
612,31	0,368
612,51	0,412
612,71	0,283
612,91	0,289
613,11	0,211
613,31	0,225
613,51	0,326
613,71	0,203
613,91	0,472
614,11	0,391
614,31	0,240
614,50	0,351
614,70	0,205
614,90	0,267
615,10	0,217
615,30	0,242
615,50	0,286
615,70	0,519
615,90	0,368
616,10	0,395
616,30	0,623
616,50	0,208
616,70	0,315
616,90	0,375
617,10	0,457
617,30	0,279
617,50	0,491
617,70	0,287
617,90	0,345
618,10	0,324
618,30	0,404
618,50	0,523
618,70	0,449
618,90	0,298
619,10	0,418
619,30	0,268
619,49	0,281
619,69	0,455
619,89	0,395
620,09	0,445
620,29	0,431
620,49	0,519
620,69	0,296
620,89	0,270
621,09	0,324
621,29	0,520
621,49	0,395
621,69	0,304
621,89	0,550
622,09	0,320
622,29	0,207
622,48	0,477
622,68	0,328
622,88	0,483
623,08	0,414
623,28	0,357
623,48	0,370
623,68	0,418
623,88	0,318
624,08	0,343
624,28	0,425
624,48	0,528
624,67	0,411
624,87	0,513
625,07	0,629
625,27	0,546
625,47	0,801
625,67	0,707
625,87	0,569
626,07	0,782
626,27	0,605
626,47	0,820
626,66	0,688
626,86	0,846
627,06	0,909
627,26	0,742
627,46	0,596
627,66	0,845
627,86	1,107
628,06	1,536
628,25	2,245
628,45	3,720
628,65	6,682
628,85	11,654
629,05	19,361
629,25	29,827
629,45	42,884
629,65	56,177
629,84	69,776
630,04	77,854
630,24	84,974
630,44	88,838
630,64	91,977
630,84	93,678
631,04	94,012
631,23	95,622
631,43	96,746
631,63	98,820
631,83	98,339
632,03	100,759
632,23	101,198
632,42	102,879
632,62	102,295
632,82	102,557
633,02	102,973
633,22	103,732
633,42	103,300
633,62	103,293
633,81	103,019
634,01	103,921
634,21	102,540
634,41	103,509
634,61	101,922
634,80	101,772
635,00	100,130
635,20	100,245
635,40	98,927
635,60	98,226
635,80	98,972
635,99	99,276
636,19	98,683
636,39	98,322
636,59	97,831
636,79	99,995
636,98	100,287
637,18	101,183
637,38	101,375
637,58	101,770
637,78	100,902
637,97	102,285
638,17	102,137
638,37	101,452
638,57	101,683
638,77	102,646
638,96	101,224
639,16	101,466
639,36	100,768
639,56	101,251
639,76	101,543
639,95	101,259
640,15	101,545
640,35	102,712
640,55	101,306
640,75	102,395
640,94	101,030
641,14	99,328
641,34	99,666
641,54	102,219
641,73	101,926
641,93	101,203
642,13	101,316
642,33	102,657
642,53	99,838
642,72	99,799
642,92	99,043
643,12	99,308
643,32	97,784
643,51	97,223
643,71	97,612
643,91	98,571
644,11	99,500
644,30	100,034
644,50	100,795
644,70	101,150
644,90	102,244
645,09	102,834
645,29	102,829
645,49	101,176
645,69	102,443
645,88	102,528
646,08	101,462
646,28	103,264
646,48	102,226
646,67	100,393
646,87	100,664
647,07	100,201
647,26	98,658
647,46	99,690
647,66	99,454
647,86	98,239
648,05	97,724
648,25	98,283
648,45	98,824
648,65	95,538
648,84	91,486
649,04	87,228
649,24	77,393
649,43	67,087
649,63	54,472
649,83	43,340
650,03	32,058
650,22	22,468
650,42	15,422
650,62	11,211
650,81	7,580
651,01	5,383
651,21	3,739
651,40	3,366
651,60	1,995
651,80	1,829
652,00	2,000
652,19	1,557
652,39	1,310
652,59	1,539
652,78	0,837
652,98	0,555
653,18	0,937
653,37	0,886
653,57	0,926
653,77	0,928
653,96	0,585
654,16	1,059
654,36	0,907
654,55	0,716
654,75	1,009
654,95	0,911
655,14	0,750
655,34	1,119
655,54	0,869
655,73	0,443
655,93	0,558
656,13	0,452
656,32	-0,026
656,52	0,998
656,72	0,686
656,91	1,138
657,11	0,673
657,31	0,209
657,50	0,733
657,70	0,798
657,90	0,652
658,09	0,833
658,29	0,779
658,49	0,558
658,68	0,843
658,88	0,715
659,07	0,915
659,27	0,541
659,47	0,810
659,66	0,759
659,86	0,227
660,06	0,701
660,25	0,336
660,45	0,859
660,64	0,272
660,84	0,427
661,04	0,998
661,23	0,928
661,43	0,729
661,63	0,619
661,82	0,399
662,02	0,712
662,21	0,628
662,41	0,927
662,61	0,957
662,80	0,650
663,00	0,277
663,19	0,838
663,39	0,250
663,59	0,775
663,78	0,730
663,98	0,761
664,17	0,878
664,37	0,939
664,57	0,531
664,76	0,577
664,96	0,605
665,15	0,758
665,35	0,618
665,55	0,487
665,74	0,801
665,94	0,549
666,13	0,582
666,33	0,852
666,53	0,794
666,72	0,362
666,92	0,775
667,11	0,724
667,31	0,132
667,50	0,414
667,70	0,682
667,90	0,253
668,09	0,746
668,29	0,245
668,48	0,284
668,68	0,455
668,87	0,596
669,07	0,440
669,26	0,601
669,46	0,593
669,66	0,538
669,85	0,363
670,05	0,276
670,24	0,616
670,44	0,559
670,63	0,577
670,83	0,569
671,02	0,376
671,22	0,581
671,42	0,394
671,61	0,558
671,81	0,546
672,00	0,666
672,20	0,296
672,39	0,563
672,59	0,450
672,78	0,558
672,98	0,444
673,17	0,497
673,37	0,277
673,56	0,399
673,76	0,262
673,95	0,547
674,15	0,527
674,34	0,414
674,54	0,749
674,73	0,441
674,93	0,596
675,13	0,739
675,32	0,659
675,52	0,413
675,71	0,679
675,91	0,551
676,10	0,364
676,30	0,467
676,49	0,393
676,69	0,488
676,88	0,408
677,08	0,321
677,27	0,378
677,47	0,611
677,66	0,550
677,86	0,602
678,05	0,294
678,24	0,439
678,44	0,623
678,63	0,342
678,83	0,272
679,02	0,565
679,22	0,463
679,41	0,649
679,61	0,333
679,80	0,183
680,00	0,089
680,19	0,614
680,39	0,255
680,58	0,488
680,78	0,218
680,97	0,171
681,17	0,289
681,36	0,339
681,56	0,449
681,75	0,274
681,94	0,220
682,14	0,416
682,33	0,314
682,53	0,249
682,72	0,269
682,92	0,555
683,11	0,369
683,31	0,315
683,50	0,339
683,69	0,160
683,89	0,139
684,08	0,218
684,28	-0,010
684,47	0,396
684,67	0,164
684,86	0,272
685,06	0,316
685,25	0,308
685,44	0,450
685,64	0,564
685,83	0,432
686,03	0,150
686,22	0,246
686,42	0,296
686,61	0,382
686,80	0,182
687,00	0,203
687,19	0,413
687,39	0,347
687,58	0,384
687,77	0,343
687,97	0,374
688,16	0,352
688,36	0,200
688,55	0,100
688,74	0,013
688,94	0,124
689,13	0,403
689,33	0,254
689,52	0,235
689,71	0,141
689,91	0,061
690,10	0,265
690,30	0,040
690,49	0,259
690,68	0,397
690,88	0,087
691,07	0,261
691,27	0,149
691,46	0,264
691,65	0,229
691,85	0,157
692,04	0,194
692,23	0,083
692,43	0,467
692,62	0,267
692,82	0,309
693,01	0,342
693,20	0,238
693,40	0,240
693,59	0,284
693,78	0,324
693,98	0,151
694,17	0,170
694,36	0,344
694,56	0,265
694,75	0,350
694,94	0,260
695,14	0,306
695,33	0,233
695,53	0,194
695,72	0,393
695,91	0,019
696,11	0,367
696,30	0,298
696,49	0,342
696,69	0,239
696,88	0,223
697,07	0,223
697,27	0,239
697,46	0,324
697,65	0,358
697,85	0,076
698,04	0,460
698,23	0,322
698,43	0,574
698,62	-0,006
698,81	0,578
699,01	0,321
699,20	0,533
699,39	0,252
699,58	0,496
699,78	0,314
699,97	0,267
700,16	0,364
700,36	0,668
700,55	0,492
700,74	0,552
700,94	0,503
701,13	0,322
701,32	0,291
701,52	0,867
701,71	0,850
701,90	0,641
702,09	0,922
702,29	1,278
702,48	0,455
702,67	0,821
702,87	0,788
703,06	0,626
703,25	1,078
703,44	0,846
703,64	0,663
703,83	0,946
704,02	1,124
704,22	0,576
704,41	0,015
704,60	1,168
704,79	1,010
704,99	1,291
705,18	1,287
705,37	1,172
705,56	0,978
705,76	2,041
705,95	1,272
706,14	1,780
706,33	0,572
706,53	1,906
706,72	1,025
706,91	2,102
707,11	0,623
707,30	1,168
707,49	1,414
707,68	1,228
707,88	1,140
708,07	0,658
708,26	1,517
708,45	1,012
708,64	1,636
708,84	1,348
709,03	1,676
709,22	0,864
709,41	2,460
709,61	0,899
709,80	2,937
709,99	3,666
710,18	1,881
710,38	0,661
710,57	1,303
710,76	0,819
710,95	2,705
711,14	1,357
711,34	1,858
711,53	2,135
711,72	4,247
711,91	1,328
712,11	3,718
712,30	1,539
712,49	2,221
712,68	2,731
712,87	0,531
713,07	3,412
713,26	1,624
713,45	1,540
713,64	3,623
713,83	1,759
714,03	2,149
714,22	2,127
714,41	3,352
714,60	3,037
714,79	1,248
714,99	2,179
715,18	4,685
715,37	3,918
715,56	1,997
715,75	0,850
715,94	4,921
716,14	3,941
716,33	2,653
716,52	2,778
716,71	3,613
716,90	3,607
717,10	4,900
717,29	1,745
717,48	3,170
717,67	4,343
717,86	3,691
718,05	4,274
718,24	2,319
718,44	5,670
718,63	0,608
718,82	4,685
719,01	0,249
719,20	3,683
719,39	4,444
719,59	1,953
719,78	3,540
719,97	4,819
720,16	6,250
720,35	0,757
720,54	3,843
720,73	5,734
720,93	1,880
721,12	2,155
721,31	2,041
721,50	5,745
721,69	5,799
721,88	6,144
722,07	3,376
722,27	5,464
722,46	4,723
722,65	5,401
722,84	5,323
723,03	5,320
723,22	6,124
723,41	2,575
723,60	3,516
723,79	6,766
723,99	8,885
724,18	6,002
724,37	0,999
724,56	5,451
724,75	3,739
724,94	9,882
725,13	6,180
725,32	7,921
725,51	1,767
725,71	6,832
725,90	7,183
726,09	3,470
726,28	5,148
726,47	2,959
726,66	7,762
726,85	6,445
727,04	2,854
727,23	6,017
727,42	9,990
727,61	4,630
727,81	2,054
728,00	5,198
728,19	5,959
728,38	4,585
728,57	5,313
728,76	7,403
728,95	8,438
729,14	4,437
729,33	6,129
729,52	7,312
729,71	6,508
729,90	8,352
730,09	5,386
730,28	8,733
730,48	11,061
730,67	11,719
730,86	9,220
731,05	2,917
731,24	2,805
731,43	4,181
731,62	5,956
731,81	4,200
732,00	17,126
732,19	5,048
732,38	5,769
732,57	7,213
732,76	9,439
732,95	4,762
733,14	4,878
733,33	4,630
733,52	6,461
733,71	7,317
733,90	5,650
734,09	3,108
734,28	9,186
734,47	4,583
734,66	8,824
734,85	9,143
735,04	10,699
735,23	7,843
735,42	11,749
735,61	5,977
735,81	10,503
736,00	6,838
736,19	3,191
736,38	10,778
736,57	10,151
736,76	11,533
736,95	11,465
737,14	9,888
737,33	13,154
737,52	9,231
737,71	7,869
737,90	7,573
738,09	9,132
738,28	12,855
738,47	6,752
738,66	4,647
738,85	9,009
739,04	2,230
739,22	6,522
739,41	6,618
739,60	5,290
739,79	3,058
739,98	5,376
740,17	11,775
740,36	11,031
740,55	18,631
740,74	17,153
740,93	10,707
741,12	11,964
741,31	0,880
741,50	8,507
741,69	11,681
741,88	-0,791
742,07	19,928
742,26	12,762
742,45	13,115
742,64	9,506
742,83	11,681
743,02	6,105
743,21	17,509
743,40	2,484
743,59	13,603
743,78	12,720
743,97	14,231
744,16	17,520
744,34	-4,196
744,53	7,423
744,72	7,933
744,91	5,672
745,10	11,111
745,29	15,726
745,48	12,500
745,67	10,023
745,86	21,634
746,05	10,664
746,24	21,031
746,43	9,850
746,62	23,276
746,81	22,247
747,00	13,786
747,18	9,368
747,37	20,632
747,56	18,353
747,75	5,419
747,94	15,049
748,13	17,450
748,32	1,429
748,51	16,751
748,70	16,960
748,89	18,033
749,08	4,942
749,26	14,537
749,45	5,362
749,64	20,907
749,83	20,899
750,02	18,750
750,21	16,285
750,40	18,826
750,59	6,971
750,78	21,696
750,96	9,392
751,15	10,981
751,34	9,091
751,53	12,842
751,72	16,338
751,91	15,026
752,10	18,848
752,29	16,000
752,47	11,748
752,66	14,921
752,85	18,852
753,04	9,497
753,23	9,907
753,42	22,642
753,61	11,285
753,80	24,055
753,98	14,141
754,17	19,757
754,36	12,903
754,55	17,169
754,74	9,740
754,93	23,140
755,12	20,772
755,30	27,597
755,49	19,767
755,68	28,221
755,87	12,722
756,06	7,639
756,25	28,571
756,43	11,409
756,62	9,627
756,81	16,887
757,00	11,842
757,19	2,778
757,38	15,058
757,56	6,000
757,75	16,724
757,94	32,700
758,13	13,356
758,32	21,958
758,51	8,081
758,69	29,344
758,88	7,071
759,07	27,844
759,26	22,968
759,45	11,930
759,63	13,853
759,82	20,351
760,01	13,919
760,20	31,447
760,39	31,861
760,57	5,226
760,76	21,951
760,95	25,347
761,14	29,562
761,33	27,419
761,51	14,643
761,70	32,714
761,89	24,000
762,08	39,405
762,27	25,993
762,45	20,290
762,64	12,060
762,83	40,637
763,02	13,913
763,21	21,500
763,39	24,476
763,58	24,164
763,77	17,722
763,96	35,458
764,14	7,917
764,33	10,000
764,52	23,214
764,71	34,426
764,89	19,196
765,08	30,049
765,27	14,043
765,46	26,009
765,65	38,039
765,83	35,747
766,02	3,810
766,21	22,951
766,40	43,191
766,58	21,164
766,77	23,853
766,96	24,797
767,15	37,395
767,33	19,324
767,52	31,441
767,71	21,930
767,90	14,573
768,08	22,754
768,27	29,675
768,46	30,702
768,64	30,556
768,83	25,490
769,02	6,897
769,21	14,063
769,39	41,429
769,58	26,407
769,77	30,851
769,96	16,667
770,14	59,016
770,33	39,252
770,52	43,885
770,70	24,865
770,89	56,757
771,08	21,687
771,27	21,053
771,45	33,529
771,64	31,515
771,83	19,608
772,01	51,546
772,20	50,249
772,39	38,608
772,57	27,861
772,76	39,865
772,95	30,460
773,14	61,905
773,32	43,503
773,51	12,500
773,70	48,921
773,88	47,097
774,07	33,503
774,26	18,548
774,44	53,383
774,63	50,299
774,82	34,416
775,00	30,374
775,19	34,524
775,38	45,213
775,56	68,323
775,75	52,198
775,94	25,833
776,12	49,020
776,31	31,579
776,50	15,068
776,68	45,699
776,87	54,067
777,06	45,912
777,24	25,210
777,43	43,850
777,62	64,045
777,80	44,654
777,99	45,000
778,18	44,828
778,36	58,475
778,55	39,831
778,74	35,156
778,92	45,679
779,11	76,364
779,29	15,603
779,48	57,447
779,67	66,667
779,85	41,228
780,04	31,159
780,23	55,952
780,41	35,593
780,60	46,980
780,79	48,387
780,97	35,294
781,16	32,447
781,34	60,811
781,53	76,786
781,72	40,541
781,90	37,126
782,09	36,047
782,28	42,177
782,46	37,143
782,65	32,394
782,83	9,434
783,02	71,053
783,21	56,391
783,39	68,908
783,58	53,913
783,76	67,347
783,95	63,380
784,14	76,316
784,32	61,176
784,51	59,459
784,69	31,250
784,88	34,579
785,06	50,993
785,25	26,241
785,44	46,774
785,62	27,857
785,81	70,370
785,99	54,887
786,18	50,450
786,37	80,220
786,55	33,333
786,74	80,909
786,92	49,650
787,11	42,361
787,29	70,536
787,48	31,183
787,67	51,887
787,85	94,937
788,04	61,261
788,22	69,307
788,41	101,575
788,59	60,526
788,78	29,670
788,96	58,678
789,15	86,667
789,34	38,462
789,52	37,097
789,71	53,957
789,89	77,922
790,08	75,000
790,26	36,943
790,45	127,778
790,63	13,793
790,82	63,846
791,00	40,708
791,19	53,600
791,38	82,857
791,56	60,909
791,75	8,333
791,93	88,000
792,12	42,609
792,30	56,204
792,49	32,323
792,67	27,941
792,86	52,800
793,04	73,148
793,23	40,000
793,41	44,203
793,60	71,528
793,78	65,714
793,97	47,917
794,15	90,226
794,34	41,333
794,52	12,903
794,71	54,264
794,89	52,273
795,08	57,600
795,26	52,000
795,45	83,333
795,63	64,516
795,82	83,516
796,00	77,000
796,19	54,472
796,37	35,115
796,56	51,456
796,74	17,895
796,93	71,212
797,11	77,108
797,30	70,000
797,48	48,438
797,67	63,415
797,85	70,769
798,04	61,017
798,22	124,359
798,41	25,000
798,59	36,190
798,77	50,602
798,96	58,025
799,14	65,323
799,33	55,046
799,51	80,556
799,70	90,000
799,88	77,064
800,07	61,832
800,25	78,313
800,44	77,778
800,62	126,389
800,80	60,563
800,99	150,685
801,17	66,379
801,36	80,000
801,54	63,000
801,73	51,579
801,91	47,934
802,10	78,824
802,28	68,800
802,46	42,105
802,65	55,396
802,83	97,333
803,02	59,677
803,20	85,542
803,39	86,207
803,57	58,268
803,75	72,358
803,94	64,286
804,12	92,414
804,31	85,507
804,49	46,400
804,67	30,882
804,86	64,602
805,04	22,892
805,23	68,142
805,41	40,000
805,59	53,425
805,78	102,400
805,96	54,217
806,15	75,248
806,33	56,579
806,51	82,667
806,70	51,880
806,88	82,558
807,07	69,369
807,25	35,165
807,43	49,107
807,62	66,372
807,80	84,762
807,99	74,615
808,17	15,748
808,35	79,000
808,54	60,870
808,72	61,261
808,90	44,521
809,09	57,609
809,27	81,333
809,46	108,791
809,64	106,098
809,82	58,278
810,01	59,375
810,19	76,768
810,37	26,563
810,56	106,667
810,74	49,351
810,92	57,333
811,11	60,526
811,29	57,547
811,48	53,846
811,66	76,404
811,84	67,033
812,03	62,295
812,21	58,772
812,39	55,652
812,58	54,737
812,76	86,331
812,94	81,928
813,13	37,234
813,31	73,000
813,49	59,259
813,68	55,455
813,86	47,191
814,04	38,843
814,23	39,157
814,41	46,067
814,59	83,495
814,78	55,147
814,96	45,912
815,14	54,206
815,33	75,969
815,51	41,732
815,69	40,000
815,87	62,376
816,06	57,391
816,24	66,460
816,42	69,118
816,61	64,780
816,79	50,862
816,97	96,591
817,16	24,852
817,34	66,667
817,52	56,198
817,70	80,198
817,89	57,778
818,07	52,740
818,25	51,020
818,44	100,000
818,62	48,062
818,80	48,872
818,98	73,248
819,17	63,866
819,35	48,936
819,53	37,313
819,72	57,595
819,90	67,442
820,08	33,333
820,26	26,724
820,45	18,121
820,63	95,536
820,81	31,200
820,99	43,262
821,18	46,939
821,36	44,937
821,54	65,517
821,73	60,556
821,91	59,649
822,09	19,355
822,27	32,258
822,46	30,882
822,64	56,800
822,82	48,066
823,00	29,282
823,19	58,242
823,37	50,909
823,55	53,409
823,73	38,621
823,91	46,377
824,10	52,688
824,28	59,296
824,46	19,417
824,64	46,711
824,83	51,553
825,01	46,667
825,19	32,258
825,37	34,783
825,56	62,264
825,74	54,592
825,92	34,395
826,10	53,977
826,28	44,048
826,47	28,947
826,65	56,738
826,83	12,069
827,01	56,069
827,19	29,167
827,38	44,444
827,56	58,523
827,74	28,492
827,92	47,093
828,10	18,590
828,29	52,071
828,47	43,902
828,65	33,077
828,83	15,152
829,01	38,043
829,20	28,022
829,38	32,386
829,56	46,196
829,74	36,478
829,92	32,540
830,10	37,931
830,29	21,608
830,47	39,196
830,65	30,488
830,83	57,143
831,01	35,714
831,20	56,796
831,38	39,234
831,56	31,163
831,74	47,393
831,92	65,132
832,10	30,000
832,29	30,405
832,47	9,551
832,65	43,627
832,83	43,192
833,01	39,000
833,19	39,367
833,37	25,339
833,56	27,426
833,74	39,216
833,92	28,704
834,10	31,535
834,28	37,553
834,46	33,937
834,64	26,852
834,83	40,909
835,01	37,344
835,19	36,400
835,37	35,124
835,55	6,250
835,73	19,704
835,91	30,627
836,09	24,715
836,28	22,509
836,46	6,400
836,64	45,865
836,82	12,670
837,00	19,565
837,18	24,164
837,36	42,629
837,54	19,545
837,72	16,810
837,91	29,851
838,09	25,896
838,27	18,333
838,45	18,440
838,63	35,662
838,81	17,300
838,99	27,016
839,17	33,108
839,35	26,241
839,53	24,211
839,72	20,301
839,90	28,522
840,08	35,692
840,26	19,048
840,44	35,045
840,62	19,310
840,80	35,034
840,98	5,882
841,16	22,814
841,34	16,722
841,52	36,391
841,70	29,846
841,89	25,000
842,07	17,868
842,25	33,333
842,43	9,483
842,61	22,807
842,79	25,141
842,97	17,915
843,15	33,003
843,33	23,344
843,51	17,771
843,69	34,473
843,87	25,746
844,05	19,453
844,23	21,922
844,41	19,749
844,59	15,850
844,77	15,406
844,95	25,434
845,13	25,846
845,31	8,430
845,50	33,246
845,68	18,650
845,86	15,805
846,04	31,844
846,22	19,891
846,40	21,774
846,58	24,217
846,76	28,495
846,94	19,451
847,12	18,394
847,30	11,598
847,48	19,814
847,66	27,586
847,84	17,760
848,02	18,357
848,20	8,527
848,38	12,536
848,56	23,011
848,74	26,730
848,92	12,219
849,10	16,250
849,28	18,016
849,46	19,467
849,64	17,090
849,82	16,049
850,00	20,093
850,18	25,319
850,36	18,322
850,54	11,028
850,72	16,195
850,90	16,522
851,08	7,440
851,26	16,630
851,44	16,150
851,62	13,953
851,80	14,978
851,98	21,758
852,16	26,714
852,34	14,845
852,52	13,170
852,70	5,923
852,87	17,808
853,05	9,747
853,23	11,340
853,41	15,873
853,59	15,975
853,77	11,905
853,95	14,346
854,13	13,496
854,31	14,784
854,49	10,778
854,67	10,367
854,85	6,625
855,03	15,431
855,21	17,895
855,39	4,628
855,57	6,810
855,75	23,723
855,93	12,353
856,11	19,923
856,28	11,439
856,46	13,167
856,64	15,429
856,82	8,763
857,00	8,316
857,18	15,162
857,36	8,600
857,54	21,107
857,72	12,456
857,90	10,517
858,08	14,706
858,26	9,317
858,44	8,577
858,61	12,195
858,79	20,588
858,97	10,796
859,15	14,087
859,33	7,344
859,51	17,923
859,69	7,513
859,87	9,555
860,05	5,506
860,23	9,091
860,40	12,989
860,58	10,328
860,76	5,873
860,94	7,805
861,12	16,615
861,30	9,419
861,48	13,571
861,66	9,365
861,84	8,072
862,01	10,604
862,19	8,475
862,37	6,657
862,55	13,545
862,73	6,192
862,91	11,013
863,09	7,440
863,27	8,333
863,44	3,244
863,62	6,522
863,80	6,751
863,98	6,380
864,16	-3,324
864,34	12,588
864,52	12,064
864,69	12,135
864,87	5,933
865,05	6,259
865,23	7,582
865,41	9,543
865,59	7,672
865,76	15,783
865,94	7,364
866,12	9,161
866,30	4,769
866,48	13,831
866,66	5,780
866,83	11,959
867,01	7,417
867,19	4,681
867,37	1,940
867,55	6,930
867,73	10,457
867,90	10,419
868,08	7,497
868,26	6,863
868,44	3,986
868,62	10,442
868,79	6,987
868,97	7,053
869,15	1,508
869,33	10,012
869,51	10,221
869,69	5,976
869,86	10,526
870,04	12,644
870,22	14,542
870,40	11,462
870,57	9,919
870,75	12,707
870,93	8,000
871,11	7,468
871,29	8,105
871,46	8,278
871,64	7,636
871,82	8,073
872,00	11,111
872,18	4,852
872,35	11,446
872,53	4,934
872,71	6,837
872,89	12,527
873,06	9,553
873,24	10,184
873,42	9,127
873,60	7,482
873,77	2,658
873,95	7,342
874,13	1,903
874,31	10,836
874,49	5,227
874,66	6,391
874,84	8,626
875,02	5,133
875,20	8,670
875,37	10,883
875,55	4,485
875,73	3,497
875,91	5,390
876,08	3,382
876,26	6,095
876,44	7,298
876,61	9,025
876,79	8,924
876,97	3,467
877,15	6,256
877,32	2,899
877,50	4,387
877,68	4,713
877,86	2,889
878,03	7,113
878,21	7,284
878,39	3,849
878,56	2,149
878,74	8,028
878,92	1,130
879,10	4,228
879,27	7,093
879,45	6,801
879,63	2,873
879,80	5,389
879,98	1,731
880,16	6,259
880,34	6,927
880,51	4,416
880,69	2,083
880,87	5,312
881,04	7,091
881,22	7,114
881,40	5,668
881,57	5,758
881,75	1,801
881,93	4,778
882,10	2,741
882,28	4,897
882,46	2,603
882,63	5,567
882,81	6,802
882,99	4,172
883,16	4,599
883,34	3,543
883,52	3,823
883,69	4,164
883,87	0,326
884,05	6,151
884,22	4,697
884,40	7,313
884,58	1,096
884,75	4,868
884,93	5,779
885,11	4,306
885,28	3,805
885,46	-0,062
885,64	2,727
885,81	3,357
885,99	0,682
886,17	2,794
886,34	5,240
886,52	2,214
886,70	5,517
886,87	4,948
887,05	3,648
887,22	3,652
887,40	2,857
887,58	3,367
887,75	5,051
887,93	2,475
888,11	4,543
888,28	1,486
888,46	3,323
888,63	2,407
888,81	2,658
888,99	4,444
889,16	4,308
889,34	1,789
889,51	3,452
889,69	2,823
889,87	4,821
890,04	3,054
890,22	2,730
890,39	1,836
890,57	4,405
890,75	1,169
890,92	3,009
891,10	4,081
891,27	4,350
891,45	3,539
891,63	4,707
891,80	4,639
891,98	2,069
892,15	2,336
892,33	3,553
892,51	4,227
892,68	3,986
892,86	1,003
893,03	1,693
893,21	3,217
893,38	1,134
893,56	3,244
893,74	3,915
893,91	2,830
894,09	4,410
894,26	6,258
894,44	1,471
894,61	2,722
894,79	3,015
894,96	1,237
895,14	4,364
895,32	3,411
895,49	1,917
895,67	3,294
895,84	2,285
896,02	2,062
896,19	0,169
896,37	3,493
896,54	3,052
896,72	2,516
896,89	3,033
897,07	4,953
897,25	2,689
897,42	1,909
897,60	4,005
897,77	3,097
897,95	2,126
898,12	3,005
898,30	2,642
898,47	1,048
898,65	3,524
898,82	2,836
899,00	1,140
899,17	3,980
899,35	0,867
899,52	3,929
899,70	2,594
899,87	2,253
900,05	3,577
900,22	1,448
900,40	2,005
900,57	2,894
900,75	2,279
900,92	2,076
901,10	2,345
901,27	2,184
901,45	3,677
901,62	3,859
901,80	0,821
901,97	3,201
902,15	3,728
902,32	2,228
902,50	0,610
902,67	5,091
902,85	2,210
903,02	3,347
903,20	1,998
903,37	1,993
903,54	2,622
903,72	3,417
903,89	2,598
904,07	1,783
904,24	3,416
904,42	2,535
904,59	2,143
904,77	2,936
904,94	2,055
905,12	0,850
905,29	0,983
905,47	2,370
905,64	2,442
905,81	2,192
905,99	2,170
906,16	0,590
906,34	2,705
906,51	2,487
906,69	2,864
906,86	2,546
907,03	1,816
907,21	1,992
907,38	1,838
907,56	2,596
907,73	1,638
907,91	2,223
908,08	3,878
908,25	3,906
908,43	1,376
908,60	0,324
908,78	1,672
908,95	3,584
909,13	3,188
909,30	3,074
909,47	1,370
909,65	2,361
909,82	3,110
910,00	2,725
910,17	1,278
910,34	3,172
910,52	1,869
910,69	2,271
910,87	3,321
911,04	2,090
911,21	2,211
911,39	0,608
911,56	2,148
911,73	1,142
911,91	2,142
912,08	2,531
912,26	1,148
912,43	2,900
912,60	2,210
912,78	2,815
912,95	2,340
913,13	1,530
913,30	3,796
913,47	1,796
913,65	2,573
913,82	1,556
913,99	2,037
914,17	2,432
914,34	1,378
914,51	1,972
914,69	2,324
914,86	2,996
915,03	2,563
915,21	1,550
915,38	2,457
915,56	2,640
915,73	2,274
915,90	2,480
916,08	2,772
916,25	2,566
916,42	2,451
916,60	2,001
916,77	2,841
916,94	1,808
917,12	2,196
917,29	1,820
917,46	1,949
917,64	1,613
917,81	1,889
917,98	1,447
918,16	2,301
918,33	1,853
918,50	1,049
918,67	1,781
918,85	1,250
919,02	1,554
919,19	1,173
919,37	1,860
919,54	2,369
919,71	1,592
919,89	0,287
920,06	2,100
920,23	1,407
920,41	2,294
920,58	1,378
920,75	2,374
920,92	0,913
921,10	0,770
921,27	1,550
921,44	1,526
921,62	1,936
921,79	1,539
921,96	1,423
922,13	1,777
922,31	1,094
922,48	0,245
922,65	0,924
922,82	1,085
923,00	1,931
923,17	1,540
923,34	1,404
923,52	1,123
923,69	1,500
923,86	2,357
924,03	1,203
924,21	1,370
924,38	2,348
924,55	2,384
924,72	1,677
924,90	0,932
925,07	1,536
925,24	1,839
925,41	1,412
925,59	1,370
925,76	0,785
925,93	0,795
926,10	1,452
926,28	0,749
926,45	0,136
926,62	1,240
926,79	1,207
926,96	1,524
927,14	2,730
927,31	1,324
927,48	0,758
927,65	1,773
927,83	2,096
928,00	1,701
928,17	1,651
928,34	0,803
928,51	0,329
928,69	0,705
928,86	1,333
929,03	1,098
929,20	0,603
929,37	0,787
929,55	1,417
929,72	0,867
929,89	1,173
930,06	1,043
930,23	1,118
930,41	0,708
930,58	0,968
930,75	0,623
930,92	1,484
931,09	1,290
931,27	0,846
931,44	1,125
931,61	1,957
931,78	1,623
931,95	0,735
932,12	1,583
932,30	0,976
932,47	1,011
932,64	1,989
932,81	1,379
932,98	0,951
933,16	1,592
933,33	0,831
933,50	1,344
933,67	1,637
933,84	2,224
934,01	1,570
934,18	1,787
934,36	1,033
934,53	2,093
934,70	1,106
934,87	0,749
935,04	1,097
935,21	1,026
935,38	1,002
935,56	1,453
935,73	0,339
935,90	1,131
936,07	1,551
936,24	2,038
936,41	1,459
936,58	0,297
936,76	1,827
936,93	0,689
937,10	1,565
937,27	1,972
937,44	0,717
937,61	1,869
937,78	1,683
937,95	2,021
938,13	1,088
938,30	1,287
938,47	1,685
938,64	1,180
938,81	0,875
938,98	0,618
939,15	1,428
939,32	1,319
939,49	0,219
939,66	1,610
939,84	1,111
940,01	1,297
940,18	1,194
940,35	-0,308
940,52	0,226
940,69	0,364
940,86	1,259
941,03	1,031
941,20	0,911
941,37	0,795
941,54	1,929
941,71	1,778
941,89	1,550
942,06	0,859
942,23	0,860
942,40	1,558
942,57	0,631
942,74	1,190
942,91	2,424
943,08	2,029
943,25	1,221
943,42	0,422
943,59	2,052
943,76	1,598
943,93	1,099
944,10	0,698
944,27	1,169
944,44	1,935
944,61	1,541
944,79	2,063
944,96	2,407
945,13	1,382
945,30	1,404
945,47	2,051
945,64	1,383
945,81	1,682
945,98	1,886
946,15	1,320
946,32	2,001
946,49	1,076
946,66	2,014
946,83	1,300
947,00	2,604
947,17	0,380
947,34	1,513
947,51	2,565
947,68	2,551
947,85	2,673
948,02	2,768
948,19	0,841
948,36	3,139
948,53	0,204
948,70	1,686
948,87	2,161
949,04	2,406
949,21	0,611
949,38	3,243
949,55	3,033
949,72	1,367
949,89	2,265
950,06	1,828
950,23	1,211
950,40	1,289
950,57	3,135
950,74	1,992
950,91	2,018
951,08	2,098
951,25	2,495
951,42	1,846
951,59	1,824
951,76	1,990
951,93	2,618
952,10	1,572
952,27	0,929
952,44	3,311
952,61	1,888
952,77	4,409
952,94	1,794
953,11	3,545
953,28	2,597
953,45	5,685
953,62	4,635
953,79	4,198
953,96	4,068
954,13	3,573
954,30	3,354
954,47	4,191
954,64	2,344
954,81	3,919
954,98	2,022
955,15	0,060
955,32	3,656
955,49	4,814
955,65	4,409
955,82	4,227
955,99	3,900
956,16	7,698
956,33	3,329
956,50	0,221
956,67	2,614
956,84	7,350
957,01	3,209
957,18	3,954
957,35	7,673
957,52	5,224
957,68	9,241
957,85	5,537
958,02	3,161
958,19	5,061
958,36	6,932
958,53	4,721
958,70	5,767
958,87	-0,299
959,04	5,828
959,21	11,389
959,37	8,342
959,54	9,110
959,71	7,448
959,88	3,605
960,05	7,800
960,22	4,528
960,39	7,286
960,56	6,777
960,72	6,233
960,89	7,919
961,06	3,463
961,23	4,893
961,40	5,874
961,57	5,431
961,74	13,364
961,90	13,643
962,07	12,257
962,24	8,828
962,41	13,448
962,58	10,870
962,75	16,239
962,92	7,719
963,08	8,750
963,25	11,554
963,42	12,048
963,59	-0,411
963,76	21,272
963,93	10,387
964,10	6,109
964,26	7,857
964,43	0,930
964,60	7,193
964,77	20,134
964,94	7,160
965,10	15,320
965,27	9,777
965,44	17,460
965,61	14,041
965,78	17,702
965,95	15,672
966,11	25,455
966,28	10,894
966,45	11,438
966,62	10,801
966,79	12,628
966,95	21,708
967,12	21,270
967,29	19,136
967,46	20,996
967,63	35,294
967,79	42,617
967,96	41,743
968,13	20,476
968,30	41,564
968,47	24,615
968,63	25,980
968,80	26,054
968,97	24,855
969,14	15,819
969,31	31,633
969,47	37,500
969,64	26,374
969,81	28,387
969,98	20,000
970,14	19,892
970,31	26,415
970,48	12,752
970,65	28,926
970,81	11,888
970,98	36,458
971,15	59,394
971,32	65,152
971,48	81,548
971,65	22,517
971,82	44,545
971,99	36,076
972,15	15,116
972,32	45,833
972,49	76,230
972,66	52,066
972,82	71,918
972,99	37,500
973,16	78,146
973,33	35,556
973,49	14,634
973,66	37,143
973,83	96,296
974,00	12,658
974,16	150,909
974,33	70,667
974,50	77,778
974,67	47,619
974,83	78,571
975,00	120,000
975,17	64,516
975,33	78,161
975,50	101,639
975,67	213,462
975,84	30,488
976,00	100,000
976,17	26,087
976,34	100,000
976,50	82,418
976,67	127,381
976,84	218,750
977,00	60,256
977,17	184,444
977,34	169,231
977,50	70,238
977,67	121,176
977,84	150,847
978,01	93,243
978,17	153,448
978,34	174,074
978,51	160,000
978,67	148,980
978,84	63,636
979,01	134,211
979,17	61,429
979,34	126,087
979,51	127,273
979,67	250,000
979,84	169,492
980,01	103,846
980,17	135,294
980,34	94,521
980,51	700,000
980,67	57,778
980,84	101,429
981,01	155,882
981,17	98,529
981,34	92,857
981,50	112,632
981,67	111,905
981,84	210,714
982,00	2900,000
982,17	92,188
982,34	146,341
982,50	0,000
982,67	-885,714
982,84	340,000
983,00	183,333
983,17	-414,286
983,33	544,444
983,50	107,317
983,67	153,623
983,83	442,857
984,00	256,522
984,17	888,889
984,33	-157,143
984,50	232,432
984,66	587,500
984,83	387,500
985,00	84,615
985,16	193,548
985,33	5050,000
985,49	134,884
985,66	177,500
985,83	-1366,667
985,99	388,889
986,16	468,421
986,32	131,507
986,49	-600,000
986,66	700,000
986,82	103,030
986,99	-460,000
987,15	196,970
987,32	482,353
987,49	150,000
987,65	-278,261
987,82	-115,000
987,98	104,545
988,15	928,571
988,31	182,857
988,48	190,196
988,65	300,000
988,81	232,727
988,98	324,324
989,14	800,000
989,31	108,475
989,47	-85,714
989,64	427,778
989,80	108,511
989,97	183,636
990,14	542,857
990,30	-675,000
990,47	-116,667
990,63	228,947
990,80	350,000
990,96	825,000
991,13	220,000
991,29	231,373
991,46	97,917
991,62	0,000
991,79	-370,000
991,95	382,353
992,12	1250,000
992,29	-61,905
992,45	157,143
992,62	-28,571
992,78	-883,333
992,95	306,452
993,11	675,000
993,28	-6600,000
993,44	-158,621
993,61	171,930
993,77	0,000
993,94	251,282
994,10	814,286
994,27	-155,263
994,43	281,250
994,60	600,000
994,76	142,424
994,93	-690,000
995,09	-306,250
995,26	291,667
995,42	700,000
995,59	113,333
995,75	-608,333
995,92	-957,143
996,08	-1440,000
996,25	166,667
996,41	1280,000
996,58	468,000
996,74	-790,000
996,91	182,258
997,07	300,000
997,23	143,137
997,40	1816,667
997,56	-2100,000
997,73	465,217
997,89	1660,000
998,06	157,895
998,22	148,936
998,39	228,571
998,55	663,158
998,72	-10800,000
998,88	136,000
999,05	520,000
999,21	594,118
999,37	295,349
999,54	216,129
999,70	157,143
999,87	916,667
1000,03	310,000
1000,20	442,857
1000,36	-662,500
1000,52	750,000
1000,69	412,000
1000,85	-316,667
1001,02	166,667
1001,18	920,000
1001,35	0,000
1001,51	392,857
1001,67	340,000
1001,84	185,366
1002,00	-718,182
1002,17	1050,000
1002,33	-725,000
1002,50	633,333
1002,66	987,500
1002,82	192,683
1002,99	-295,455
1003,15	-10100,000
1003,32	-278,571
1003,48	-1000,000
1003,64	334,783
1003,81	-52,632
1003,97	192,754
1004,14	-96,364
1004,30	81,818
1004,46	-7400,000
1004,63	-361,538
1004,79	189,189
1004,95	-960,000
1005,12	-369,231
1005,28	272,222
1005,45	-933,333
1005,61	430,769
1005,77	-1028,571
1005,94	230,435
1006,10	-760,000
1006,26	-59,259
1006,43	303,030
1006,59	232,258
1006,76	-284,000
1006,92	347,826
1007,08	146,970
1007,25	263,889
1007,41	172,727
1007,57	-288,235
1007,74	304,348
1007,90	-735,714
1008,06	-193,333
1008,23	-447,368
1008,39	169,444
1008,55	122,353
1008,72	-1087,500
1008,88	-217,143
1009,04	-866,667
1009,21	215,625
1009,37	416,129
1009,53	-325,000
1009,70	-83,333
1009,86	257,895
1010,02	197,727
1010,19	753,333
1010,35	6600,000
1010,51	265,714
1010,68	327,273
1010,84	250,000
1011,00	407,143
1011,17	2066,667
1011,33	142,308
1011,49	393,750
1011,66	353,125
1011,82	-925,000
1011,98	680,000
1012,14	584,615
1012,31	200,000
1012,47	-757,143
1012,63	9200,000
1012,80	355,556
1012,96	186,111
1013,12	-155,556
1013,29	383,333
1013,45	-132,353
1013,61	-1440,000
1013,77	-222,222
1013,94	308,333
1014,10	6900,000
1014,26	-108,824
1014,43	265,789
1014,59	0,000
1014,75	490,000
1014,91	271,429
1015,08	411,538
1015,24	473,333
1015,40	526,667
1015,56	564,706
1015,73	220,408
1015,89	688,889
1016,05	213,514
1016,21	351,852
1016,38	247,368
1016,54	-344,000
1016,70	510,526
1016,86	-707,692
1017,03	0,000
1017,19	1062,500
1017,35	196,667
1017,51	1233,333
1017,68	1571,429
1017,84	315,789
1018,00	171,429
1018,16	-468,750
1018,33	209,091
1018,49	471,429
1018,65	-409,091
1018,81	-58,537
1018,97	623,077
1019,14	-1157,143
1019,30	433,333
1019,46	223,077
1019,62	2350,000
1019,79	-528,571
1019,95	-1575,000
1020,11	940,000
1020,27	260,000
1020,43	-1012,500
1020,60	0,000
1020,76	148,529
1020,92	7800,000
1021,08	-137,778
1021,24	-1200,000
1021,41	233,333
1021,57	-350,000
1021,73	0,000
1021,89	-222,727
1022,05	240,000
1022,21	-476,923
1022,38	352,632
1022,54	900,000
1022,70	388,889
1022,86	-2200,000
1023,02	1111,111
1023,19	-225,000
1023,35	186,792
1023,51	274,194
1023,67	152,632
1023,83	763,636
1023,99	262,857
1024,16	26,154
1024,32	581,250
1024,48	240,816
1024,64	-1080,000
1024,80	591,667
1024,96	676,923
1025,12	3300,000
1025,29	-1525,000
1025,45	245,833
1025,61	2633,333
1025,77	285,714
1025,93	-207,692
1026,09	5000,000
1026,26	-471,429
1026,42	-950,000
1026,58	171,154
1026,74	1042,857
1026,90	500,000
1027,06	-280,000
1027,22	-658,333
1027,38	888,889
1027,55	-272,000
1027,71	1000,000
1027,87	277,500
1028,03	107,576
1028,19	-218,182
1028,35	83,784
1028,51	-83,871
1028,67	-560,000
1028,83	226,190
1029,00	892,857
1029,16	-740,000
1029,32	452,941
1029,48	2750,000
1029,64	1228,571
1029,80	2133,333
1029,96	137,255
1030,12	12,500
1030,28	1275,000
1030,44	-3400,000
1030,61	240,625
1030,77	-200,000
1030,93	230,233
1031,09	-357,143
1031,25	-1122,222
1031,41	-1550,000
1031,57	-63,158
1031,73	536,364
1031,89	-172,727
1032,05	1228,571
1032,21	710,000
1032,37	-155,882
1032,53	-185,000
1032,69	-4600,000
1032,86	1300,000
1033,02	175,000
1033,18	-669,231
1033,34	-546,154
1033,50	132,258
1033,66	-600,000
1033,82	339,286
1033,98	-464,706
1034,14	1155,556
1034,30	-200,000
1034,46	341,667
1034,62	461,111
1034,78	130,159
1034,94	-154,839
1035,10	-268,182
1035,26	-533,333
1035,42	174,286
1035,58	1760,000
1035,74	-113,333
1035,90	-541,667
1036,06	160,377
1036,22	-224,000
1036,38	506,667
1036,54	660,000
1036,70	-2400,000
1036,86	-242,857
1037,02	-3200,000
1037,18	-171,429
1037,34	291,304
1037,50	-620,000
1037,66	-2200,000
1037,82	29,412
1037,98	242,857
1038,14	-165,517
1038,30	-3,846
1038,46	133,333
1038,62	216,129
1038,78	195,238
1038,94	-192,105
1039,10	-337,500
1039,26	-210,526
1039,42	-1085,714
1039,58	173,585
1039,74	275,000
1039,90	-146,154
1040,06	370,588
>>>>>End Processed Spectral Data<<<<<
