SpectraSuite Data File
++++++++++++++++++++++++++++++++++++
Date: Thu Feb 02 17:46:02 EET 2017
User: optolab
Dark Spectrum Present: Yes
Reference Spectrum Present: Yes
Number of Sampled Component Spectra: 1
Spectrometers: USB4C02475
Integration Time (usec): 100000 (USB4C02475)
Spectra Averaged: 1 (USB4C02475)
Boxcar Smoothing: 0 (USB4C02475)
Correct for Electrical Dark: No (USB4C02475)
Strobe/Lamp Enabled: No (USB4C02475)
Correct for Detector Non-linearity: No (USB4C02475)
Correct for Stray Light: No (USB4C02475)
Number of Pixels in Processed Spectrum: 3648
>>>>>Begin Processed Spectral Data<<<<<
344,91	-1000,000
345,13	-1000,000
345,35	-1000,000
345,57	-241,176
345,79	-119,565
346,00	-197,059
346,22	-900,000
346,44	-151,515
346,66	319,149
346,87	369,565
347,09	615,385
347,31	7000,000
347,53	-1775,000
347,74	-144,186
347,96	-742,857
348,18	300,000
348,40	517,647
348,61	-141,026
348,83	5000,000
349,05	194,872
349,27	405,882
349,48	-4450,000
349,70	721,429
349,92	266,667
350,14	148,649
350,35	-569,231
350,57	-361,111
350,79	-82,051
351,01	-513,333
351,22	800,000
351,44	791,667
351,66	183,333
351,87	683,333
352,09	88,158
352,31	207,143
352,53	294,286
352,74	-800,000
352,96	368,421
353,18	78,125
353,40	-1000,000
353,61	573,333
353,83	212,500
354,05	362,500
354,26	335,714
354,48	-1480,000
354,70	371,429
354,92	288,889
355,13	-176,744
355,35	198,148
355,57	204,688
355,78	300,000
356,00	212,766
356,22	168,182
356,44	339,535
356,65	542,857
356,87	216,667
357,09	242,857
357,30	134,091
357,52	-1050,000
357,74	332,258
357,95	231,429
358,17	86,957
358,39	244,000
358,60	175,000
358,82	331,818
359,04	317,949
359,26	181,818
359,47	-592,308
359,69	364,286
359,91	460,000
360,12	385,000
360,34	216,667
360,56	-2400,000
360,77	1111,111
360,99	362,500
361,21	126,087
361,42	-2800,000
361,64	-348,148
361,86	41,791
362,07	900,000
362,29	205,000
362,51	213,514
362,72	-1500,000
362,94	429,630
363,16	151,429
363,37	518,182
363,59	-7100,000
363,81	1137,500
364,02	165,333
364,24	243,182
364,46	461,905
364,67	171,429
364,89	247,059
365,11	272,973
365,32	344,444
365,54	293,750
365,76	172,727
365,97	187,805
366,19	164,912
366,41	740,000
366,62	125,000
366,84	483,333
367,05	121,569
367,27	1500,000
367,49	302,564
367,70	688,889
367,92	231,250
368,14	23,077
368,35	133,824
368,57	221,212
368,79	215,385
369,00	150,000
369,22	283,333
369,43	589,474
369,65	-72,414
369,87	-429,412
370,08	360,000
370,30	707,143
370,51	472,727
370,73	311,111
370,95	410,000
371,16	166,667
371,38	215,094
371,60	210,000
371,81	159,783
372,03	-2150,000
372,24	-225,000
372,46	2966,667
372,68	152,941
372,89	123,853
373,11	146,512
373,32	120,168
373,54	-9,091
373,76	233,333
373,97	233,333
374,19	-405,263
374,40	150,000
374,62	300,000
374,84	454,167
375,05	184,615
375,27	189,189
375,48	127,160
375,70	229,412
375,92	232,143
376,13	568,421
376,35	454,167
376,56	420,000
376,78	206,122
376,99	254,545
377,21	337,500
377,43	221,212
377,64	168,000
377,86	425,000
378,07	229,545
378,29	125,000
378,51	165,476
378,72	-413,636
378,94	158,696
379,15	134,091
379,37	350,000
379,58	103,333
379,80	168,182
380,01	166,000
380,23	221,739
380,45	133,333
380,66	86,111
380,88	205,405
381,09	413,043
381,31	266,667
381,52	273,913
381,74	135,714
381,95	400,000
382,17	320,000
382,39	133,871
382,60	370,588
382,82	293,103
383,03	2700,000
383,25	86,420
383,46	583,333
383,68	238,298
383,89	418,182
384,11	191,781
384,32	171,053
384,54	-1057,143
384,76	247,059
384,97	335,000
385,19	321,053
385,40	303,125
385,62	203,226
385,83	263,830
386,05	1200,000
386,26	334,615
386,48	569,231
386,69	244,444
386,91	700,000
387,12	205,128
387,34	118,644
387,55	205,714
387,77	236,000
387,98	208,163
388,20	194,366
388,41	80,952
388,63	177,143
388,84	232,500
389,06	276,744
389,27	218,750
389,49	118,072
389,70	238,983
389,92	188,636
390,13	274,359
390,35	120,833
390,56	135,937
390,78	372,727
390,99	206,667
391,21	154,545
391,42	56,522
391,64	-420,000
391,85	127,586
392,07	-85,714
392,28	192,308
392,50	2040,000
392,71	5000,000
392,93	59,677
393,14	291,304
393,36	151,282
393,57	379,167
393,79	131,746
394,00	89,041
394,22	144,000
394,43	207,143
394,65	300,000
394,86	340,625
395,08	-850,000
395,29	63,830
395,50	-5000,000
395,72	771,429
395,93	496,000
396,15	-300,000
396,36	73,333
396,58	-371,429
396,79	125,581
397,01	264,286
397,22	134,783
397,44	138,298
397,65	128,378
397,87	158,571
398,08	223,077
398,29	50,000
398,51	248,780
398,72	206,522
398,94	155,814
399,15	85,000
399,37	141,304
399,58	147,619
399,80	313,333
400,01	347,059
400,22	421,429
400,44	261,905
400,65	157,534
400,87	5300,000
401,08	119,101
401,30	132,000
401,51	60,000
401,72	153,226
401,94	256,098
402,15	85,714
402,37	147,727
402,58	223,256
402,80	518,750
403,01	94,444
403,22	103,614
403,44	186,111
403,65	75,510
403,87	156,000
404,08	196,154
404,30	125,000
404,51	72,857
404,72	936,364
404,94	101,205
405,15	147,761
405,37	134,066
405,58	280,645
405,79	635,714
406,01	122,963
406,22	103,571
406,44	115,789
406,65	152,381
406,86	135,000
407,08	103,704
407,29	145,333
407,51	90,385
407,72	122,772
407,93	121,519
408,15	164,773
408,36	297,143
408,58	137,500
408,79	102,326
409,00	124,113
409,22	155,882
409,43	122,523
409,64	80,128
409,86	126,136
410,07	132,174
410,29	112,000
410,50	115,079
410,71	126,613
410,93	142,574
411,14	152,336
411,35	100,694
411,57	102,083
411,78	102,941
412,00	79,333
412,21	69,469
412,42	56,098
412,64	81,667
412,85	49,223
413,06	49,554
413,28	39,608
413,49	49,767
413,70	46,352
413,92	20,476
414,13	14,625
414,34	14,498
414,56	28,085
414,77	37,269
414,98	16,608
415,20	31,541
415,41	28,247
415,63	21,937
415,84	22,715
416,05	18,976
416,27	9,192
416,48	27,488
416,69	4,360
416,91	7,200
417,12	9,955
417,33	5,869
417,55	18,800
417,76	22,199
417,97	21,536
418,19	7,322
418,40	5,970
418,61	8,919
418,83	12,148
419,04	11,163
419,25	8,134
419,46	13,483
419,68	8,555
419,89	13,043
420,10	12,366
420,32	8,079
420,53	11,695
420,74	4,779
420,96	7,820
421,17	9,350
421,38	6,326
421,60	8,146
421,81	7,608
422,02	4,809
422,23	3,996
422,45	5,742
422,66	5,853
422,87	4,665
423,09	4,635
423,30	4,351
423,51	6,245
423,73	3,035
423,94	6,137
424,15	4,266
424,36	4,759
424,58	1,817
424,79	3,448
425,00	4,467
425,22	4,059
425,43	4,009
425,64	1,936
425,85	1,240
426,07	0,789
426,28	5,553
426,49	4,171
426,71	3,664
426,92	4,295
427,13	3,342
427,34	1,963
427,56	4,572
427,77	0,538
427,98	2,301
428,19	-0,039
428,41	1,393
428,62	2,991
428,83	2,705
429,04	2,534
429,26	2,421
429,47	3,166
429,68	0,653
429,89	1,681
430,11	2,865
430,32	3,218
430,53	1,222
430,74	2,796
430,96	2,540
431,17	1,605
431,38	2,701
431,59	1,976
431,81	2,487
432,02	1,819
432,23	2,392
432,44	1,721
432,66	1,454
432,87	1,099
433,08	2,214
433,29	0,986
433,51	1,236
433,72	1,984
433,93	0,894
434,14	1,638
434,35	1,329
434,57	1,029
434,78	1,485
434,99	1,028
435,20	1,614
435,42	0,951
435,63	0,969
435,84	1,131
436,05	1,161
436,26	0,346
436,48	1,562
436,69	1,025
436,90	0,583
437,11	1,015
437,32	0,973
437,54	0,916
437,75	0,942
437,96	1,055
438,17	0,989
438,38	0,890
438,60	1,328
438,81	0,628
439,02	0,950
439,23	1,051
439,44	0,743
439,66	0,700
439,87	0,857
440,08	0,518
440,29	0,873
440,50	0,859
440,72	0,462
440,93	1,057
441,14	0,463
441,35	0,252
441,56	0,689
441,77	0,547
441,99	0,455
442,20	0,642
442,41	0,333
442,62	0,395
442,83	0,460
443,04	0,295
443,26	0,598
443,47	0,696
443,68	0,377
443,89	0,732
444,10	0,452
444,31	0,933
444,53	0,799
444,74	0,708
444,95	0,175
445,16	0,514
445,37	0,377
445,58	0,192
445,80	0,206
446,01	0,643
446,22	0,739
446,43	0,449
446,64	0,202
446,85	0,437
447,06	0,433
447,28	0,697
447,49	0,396
447,70	0,622
447,91	0,461
448,12	0,299
448,33	0,305
448,54	0,250
448,76	0,634
448,97	0,534
449,18	0,532
449,39	0,545
449,60	0,486
449,81	0,538
450,02	0,702
450,23	0,593
450,45	0,687
450,66	0,351
450,87	0,422
451,08	0,617
451,29	0,906
451,50	0,644
451,71	0,717
451,92	0,377
452,13	0,635
452,35	0,342
452,56	0,354
452,77	0,708
452,98	0,813
453,19	0,571
453,40	0,759
453,61	0,944
453,82	0,632
454,03	0,719
454,25	0,600
454,46	0,462
454,67	0,829
454,88	0,842
455,09	0,687
455,30	0,521
455,51	0,516
455,72	0,736
455,93	0,839
456,14	0,695
456,35	0,595
456,56	0,518
456,78	0,844
456,99	0,826
457,20	0,743
457,41	0,522
457,62	0,333
457,83	1,015
458,04	0,932
458,25	0,564
458,46	0,674
458,67	0,862
458,88	0,552
459,09	0,525
459,30	0,600
459,51	0,777
459,73	0,380
459,94	0,829
460,15	0,740
460,36	0,629
460,57	0,601
460,78	0,581
460,99	0,427
461,20	0,560
461,41	0,845
461,62	0,413
461,83	0,456
462,04	0,432
462,25	0,665
462,46	0,638
462,67	0,492
462,88	0,459
463,09	0,465
463,30	0,529
463,51	0,566
463,72	0,719
463,93	0,550
464,15	0,695
464,36	0,603
464,57	0,424
464,78	0,488
464,99	0,798
465,20	0,646
465,41	0,524
465,62	0,821
465,83	0,666
466,04	0,854
466,25	0,938
466,46	0,993
466,67	0,826
466,88	0,850
467,09	0,926
467,30	0,815
467,51	0,949
467,72	0,775
467,93	0,866
468,14	1,031
468,35	1,101
468,56	0,986
468,77	0,754
468,98	1,043
469,19	1,034
469,40	1,069
469,61	1,315
469,82	1,567
470,03	2,205
470,24	5,112
470,45	11,427
470,66	23,214
470,87	39,339
471,08	58,505
471,29	75,414
471,50	86,932
471,71	94,207
471,92	96,986
472,13	99,294
472,34	100,571
472,55	101,580
472,76	101,552
472,97	102,540
473,18	101,666
473,39	101,588
473,60	100,698
473,81	99,624
474,01	101,623
474,22	101,618
474,43	102,295
474,64	102,126
474,85	102,211
475,06	100,634
475,27	101,901
475,48	101,929
475,69	101,850
475,90	101,539
476,11	103,706
476,32	102,358
476,53	103,100
476,74	103,788
476,95	101,920
477,16	103,452
477,37	102,020
477,58	100,485
477,79	102,272
478,00	102,241
478,21	102,740
478,41	103,183
478,62	103,641
478,83	103,594
479,04	101,684
479,25	101,349
479,46	103,542
479,67	103,564
479,88	103,014
480,09	103,412
480,30	102,691
480,51	102,593
480,72	102,143
480,93	102,804
481,14	101,900
481,34	102,197
481,55	103,087
481,76	102,631
481,97	103,289
482,18	101,859
482,39	102,762
482,60	101,372
482,81	102,830
483,02	102,943
483,23	102,014
483,44	101,947
483,65	102,357
483,85	102,338
484,06	100,709
484,27	101,505
484,48	100,627
484,69	100,536
484,90	101,851
485,11	98,741
485,32	100,647
485,53	99,929
485,73	100,071
485,94	99,943
486,15	101,572
486,36	101,349
486,57	101,381
486,78	100,959
486,99	101,753
487,20	101,370
487,41	101,454
487,61	100,420
487,82	101,592
488,03	100,064
488,24	100,715
488,45	100,436
488,66	101,475
488,87	101,606
489,08	101,789
489,28	101,346
489,49	101,664
489,70	101,241
489,91	102,121
490,12	100,824
490,33	99,747
490,54	102,351
490,74	100,712
490,95	100,885
491,16	100,399
491,37	99,102
491,58	98,622
491,79	97,946
492,00	96,550
492,20	97,088
492,41	95,550
492,62	93,525
492,83	90,623
493,04	86,371
493,25	77,609
493,45	65,908
493,66	51,284
493,87	35,531
494,08	21,990
494,29	12,678
494,50	6,993
494,70	4,109
494,91	2,498
495,12	1,753
495,33	1,445
495,54	0,930
495,75	0,981
495,95	0,798
496,16	0,650
496,37	0,634
496,58	0,494
496,79	0,455
496,99	0,375
497,20	0,492
497,41	0,778
497,62	0,523
497,83	0,644
498,04	0,606
498,24	0,662
498,45	0,430
498,66	0,569
498,87	0,566
499,08	0,640
499,28	0,365
499,49	0,510
499,70	0,600
499,91	0,433
500,12	0,481
500,32	0,519
500,53	0,347
500,74	0,557
500,95	0,303
501,15	0,471
501,36	0,379
501,57	0,655
501,78	0,495
501,99	0,490
502,19	0,411
502,40	0,672
502,61	0,280
502,82	0,478
503,02	0,376
503,23	0,422
503,44	0,582
503,65	0,433
503,86	0,321
504,06	0,515
504,27	0,498
504,48	0,367
504,69	0,453
504,89	0,315
505,10	0,475
505,31	0,559
505,52	0,570
505,72	0,595
505,93	0,380
506,14	0,404
506,35	0,350
506,55	0,344
506,76	0,401
506,97	0,474
507,18	0,528
507,38	0,340
507,59	0,544
507,80	0,458
508,01	0,479
508,21	0,376
508,42	0,437
508,63	0,314
508,84	0,581
509,04	0,335
509,25	0,393
509,46	0,428
509,67	0,525
509,87	0,506
510,08	0,366
510,29	0,254
510,49	0,450
510,70	0,292
510,91	0,346
511,12	0,501
511,32	0,378
511,53	0,366
511,74	0,167
511,94	0,216
512,15	0,281
512,36	0,263
512,57	0,340
512,77	0,446
512,98	0,312
513,19	0,393
513,39	0,295
513,60	0,376
513,81	0,543
514,01	0,561
514,22	0,458
514,43	0,388
514,64	0,474
514,84	0,434
515,05	0,348
515,26	0,268
515,46	0,378
515,67	0,231
515,88	0,298
516,08	0,384
516,29	0,305
516,50	0,304
516,70	0,345
516,91	0,361
517,12	0,303
517,32	0,279
517,53	0,208
517,74	0,175
517,95	0,484
518,15	0,408
518,36	0,556
518,57	0,345
518,77	0,349
518,98	0,301
519,19	0,388
519,39	0,470
519,60	0,298
519,80	0,267
520,01	0,356
520,22	0,561
520,42	0,291
520,63	0,187
520,84	0,270
521,04	0,280
521,25	0,490
521,46	0,198
521,66	0,218
521,87	0,220
522,08	0,368
522,28	0,479
522,49	0,426
522,70	0,327
522,90	0,186
523,11	0,171
523,31	0,328
523,52	0,149
523,73	0,293
523,93	0,347
524,14	0,258
524,35	0,454
524,55	0,411
524,76	0,387
524,97	0,321
525,17	0,321
525,38	0,304
525,58	0,320
525,79	0,430
526,00	0,357
526,20	0,357
526,41	0,387
526,61	0,376
526,82	0,243
527,03	0,348
527,23	0,325
527,44	0,359
527,64	0,353
527,85	0,363
528,06	0,536
528,26	0,299
528,47	0,383
528,68	0,451
528,88	0,259
529,09	0,330
529,29	0,460
529,50	0,428
529,70	0,377
529,91	0,252
530,12	0,572
530,32	0,304
530,53	0,406
530,73	0,355
530,94	0,405
531,15	0,450
531,35	0,414
531,56	0,536
531,76	0,463
531,97	0,407
532,17	0,274
532,38	0,428
532,59	0,312
532,79	0,481
533,00	0,216
533,20	0,335
533,41	0,353
533,61	0,218
533,82	0,193
534,03	0,495
534,23	0,341
534,44	0,482
534,64	0,333
534,85	0,396
535,05	0,306
535,26	0,349
535,46	0,384
535,67	0,334
535,88	0,260
536,08	0,457
536,29	0,367
536,49	0,413
536,70	0,459
536,90	0,552
537,11	0,460
537,31	0,396
537,52	0,394
537,72	0,639
537,93	0,368
538,13	0,373
538,34	0,440
538,55	0,320
538,75	0,166
538,96	0,406
539,16	0,273
539,37	0,414
539,57	0,382
539,78	0,398
539,98	0,513
540,19	0,562
540,39	0,275
540,60	0,346
540,80	0,187
541,01	0,453
541,21	0,459
541,42	0,441
541,62	0,329
541,83	0,322
542,03	0,446
542,24	0,281
542,44	0,399
542,65	0,254
542,85	0,576
543,06	0,485
543,26	0,388
543,47	0,508
543,67	0,408
543,88	0,485
544,08	0,204
544,29	0,555
544,49	0,429
544,70	0,270
544,90	0,459
545,11	0,417
545,31	0,342
545,52	0,355
545,72	0,459
545,93	0,376
546,13	0,374
546,34	0,457
546,54	0,451
546,75	0,373
546,95	0,534
547,15	0,421
547,36	0,397
547,56	0,513
547,77	0,329
547,97	0,554
548,18	0,260
548,38	0,385
548,59	0,369
548,79	0,580
549,00	0,448
549,20	0,373
549,41	0,624
549,61	0,388
549,81	0,451
550,02	0,437
550,22	0,462
550,43	0,458
550,63	0,286
550,84	0,485
551,04	0,259
551,25	0,578
551,45	0,699
551,65	0,560
551,86	0,401
552,06	0,710
552,27	0,689
552,47	0,670
552,68	1,003
552,88	0,866
553,08	0,718
553,29	0,871
553,49	0,774
553,70	1,013
553,90	0,782
554,11	0,897
554,31	0,598
554,51	1,051
554,72	0,970
554,92	1,042
555,13	0,960
555,33	1,254
555,53	1,731
555,74	2,897
555,94	5,025
556,15	9,413
556,35	17,087
556,56	28,694
556,76	43,446
556,96	59,565
557,17	74,373
557,37	85,500
557,58	91,703
557,78	94,363
557,98	97,809
558,19	98,902
558,39	98,924
558,59	99,996
558,80	100,235
559,00	99,988
559,21	99,694
559,41	98,440
559,61	99,450
559,82	100,108
560,02	100,347
560,23	101,242
560,43	101,318
560,63	100,689
560,84	101,579
561,04	101,286
561,24	101,103
561,45	100,384
561,65	100,767
561,85	101,478
562,06	101,077
562,26	100,912
562,47	100,949
562,67	100,132
562,87	100,485
563,08	100,922
563,28	100,653
563,48	100,996
563,69	100,682
563,89	101,201
564,09	101,589
564,30	101,371
564,50	100,958
564,70	102,129
564,91	101,233
565,11	100,565
565,31	101,918
565,52	102,473
565,72	100,904
565,92	101,425
566,13	100,019
566,33	99,985
566,53	100,310
566,74	99,214
566,94	100,023
567,14	100,064
567,35	99,151
567,55	98,976
567,75	98,692
567,96	97,549
568,16	98,985
568,36	97,613
568,57	98,036
568,77	98,820
568,97	97,270
569,18	96,781
569,38	94,323
569,58	93,074
569,79	91,355
569,99	87,550
570,19	82,068
570,39	75,304
570,60	64,041
570,80	49,850
571,00	35,523
571,21	23,313
571,41	14,103
571,61	8,482
571,82	5,254
572,02	3,358
572,22	2,192
572,42	1,603
572,63	1,096
572,83	1,192
573,03	0,676
573,24	0,694
573,44	0,675
573,64	0,649
573,84	0,389
574,05	0,468
574,25	0,400
574,45	0,519
574,66	0,586
574,86	0,478
575,06	0,578
575,26	0,411
575,47	0,484
575,67	0,322
575,87	0,525
576,07	0,431
576,28	0,454
576,48	0,452
576,68	0,480
576,88	0,482
577,09	0,342
577,29	0,426
577,49	0,339
577,69	0,295
577,90	0,415
578,10	0,181
578,30	0,467
578,50	0,278
578,71	0,406
578,91	0,270
579,11	0,397
579,31	0,546
579,52	0,338
579,72	0,232
579,92	0,255
580,12	0,206
580,33	0,366
580,53	0,303
580,73	0,282
580,93	0,266
581,13	0,290
581,34	0,172
581,54	0,258
581,74	0,314
581,94	0,423
582,15	0,506
582,35	0,278
582,55	0,301
582,75	0,380
582,95	0,500
583,16	0,298
583,36	0,240
583,56	0,344
583,76	0,262
583,96	0,235
584,17	0,218
584,37	0,187
584,57	0,230
584,77	0,317
584,97	0,209
585,18	0,350
585,38	0,100
585,58	0,415
585,78	0,252
585,98	0,315
586,19	0,391
586,39	0,229
586,59	0,258
586,79	0,344
586,99	0,252
587,20	0,332
587,40	0,242
587,60	0,210
587,80	0,237
588,00	0,333
588,20	0,281
588,41	0,271
588,61	0,424
588,81	0,310
589,01	0,262
589,21	0,322
589,41	0,163
589,62	0,314
589,82	0,249
590,02	0,270
590,22	0,227
590,42	0,398
590,62	0,253
590,83	0,300
591,03	0,192
591,23	0,265
591,43	0,361
591,63	0,332
591,83	0,286
592,03	0,449
592,24	0,322
592,44	0,204
592,64	0,281
592,84	0,276
593,04	0,235
593,24	0,152
593,44	0,221
593,65	0,213
593,85	0,321
594,05	0,191
594,25	0,193
594,45	0,227
594,65	0,205
594,85	0,043
595,06	0,251
595,26	0,429
595,46	0,145
595,66	0,112
595,86	0,348
596,06	0,375
596,26	0,272
596,46	0,295
596,66	0,232
596,87	0,445
597,07	0,318
597,27	0,196
597,47	0,281
597,67	0,268
597,87	0,043
598,07	0,241
598,27	0,198
598,47	0,422
598,67	0,205
598,88	0,399
599,08	0,310
599,28	0,243
599,48	0,085
599,68	0,149
599,88	0,174
600,08	0,292
600,28	0,409
600,48	0,326
600,68	0,276
600,88	0,217
601,09	0,285
601,29	0,374
601,49	0,241
601,69	0,286
601,89	0,211
602,09	0,162
602,29	0,234
602,49	0,129
602,69	0,346
602,89	0,175
603,09	0,261
603,29	0,490
603,49	0,383
603,69	0,358
603,90	0,096
604,10	0,421
604,30	0,429
604,50	0,437
604,70	0,296
604,90	0,297
605,10	0,167
605,30	0,238
605,50	0,261
605,70	0,510
605,90	0,065
606,10	0,337
606,30	0,199
606,50	0,464
606,70	0,328
606,90	0,256
607,10	0,343
607,30	0,357
607,50	0,302
607,70	0,315
607,90	0,414
608,10	0,449
608,30	0,293
608,50	0,289
608,70	0,526
608,90	0,280
609,11	0,347
609,31	0,412
609,51	0,350
609,71	0,176
609,91	0,148
610,11	0,549
610,31	0,320
610,51	0,365
610,71	0,376
610,91	0,231
611,11	0,372
611,31	0,160
611,51	0,066
611,71	0,119
611,91	0,355
612,11	0,428
612,31	0,506
612,51	0,271
612,71	0,315
612,91	0,103
613,11	0,266
613,31	0,194
613,51	0,307
613,71	0,203
613,91	0,500
614,11	0,431
614,31	0,363
614,50	0,502
614,70	0,240
614,90	0,339
615,10	0,311
615,30	0,326
615,50	0,286
615,70	0,456
615,90	0,272
616,10	0,323
616,30	0,318
616,50	0,384
616,70	0,196
616,90	0,257
617,10	0,446
617,30	0,446
617,50	0,340
617,70	0,204
617,90	0,357
618,10	0,466
618,30	0,313
618,50	0,480
618,70	0,225
618,90	0,223
619,10	0,273
619,30	0,100
619,49	0,415
619,69	0,423
619,89	0,332
620,09	0,326
620,29	0,368
620,49	0,385
620,69	0,225
620,89	0,171
621,09	0,355
621,29	0,390
621,49	0,344
621,69	0,297
621,89	0,510
622,09	0,465
622,29	0,304
622,48	0,317
622,68	0,344
622,88	0,576
623,08	0,469
623,28	0,271
623,48	0,421
623,68	0,356
623,88	0,267
624,08	0,429
624,28	0,514
624,48	0,563
624,67	0,329
624,87	0,459
625,07	0,514
625,27	0,284
625,47	0,424
625,67	0,492
625,87	0,355
626,07	0,752
626,27	0,468
626,47	0,907
626,66	0,737
626,86	0,774
627,06	0,785
627,26	0,742
627,46	0,607
627,66	0,713
627,86	0,913
628,06	0,764
628,25	0,873
628,45	1,169
628,65	1,570
628,85	2,717
629,05	4,834
629,25	9,154
629,45	16,565
629,65	27,166
629,84	41,129
630,04	54,678
630,24	68,491
630,44	77,543
630,64	85,160
630,84	89,052
631,04	91,417
631,23	94,221
631,43	94,511
631,63	97,172
631,83	96,603
632,03	98,843
632,23	99,437
632,42	100,713
632,62	101,452
632,82	102,880
633,02	102,960
633,22	103,216
633,42	103,531
633,62	103,319
633,81	104,145
634,01	103,658
634,21	103,922
634,41	103,277
634,61	102,604
634,80	103,817
635,00	102,206
635,20	102,338
635,40	101,366
635,60	100,436
635,80	99,287
635,99	99,175
636,19	97,709
636,39	96,423
636,59	97,502
636,79	98,486
636,98	98,689
637,18	99,562
637,38	100,897
637,58	100,672
637,78	101,410
637,97	102,918
638,17	101,412
638,37	102,172
638,57	101,481
638,77	101,839
638,96	102,352
639,16	102,037
639,36	101,061
639,56	102,153
639,76	101,632
639,95	102,612
640,15	101,426
640,35	102,184
640,55	101,536
640,75	101,054
640,94	100,787
641,14	101,196
641,34	99,629
641,54	102,175
641,73	99,981
641,93	101,842
642,13	102,528
642,33	102,748
642,53	100,979
642,72	100,675
642,92	100,286
643,12	101,331
643,32	98,430
643,51	98,705
643,71	98,575
643,91	98,774
644,11	99,089
644,30	99,115
644,50	100,098
644,70	98,738
644,90	101,667
645,09	101,920
645,29	101,581
645,49	101,846
645,69	103,162
645,88	102,183
646,08	102,164
646,28	103,943
646,48	102,211
646,67	101,617
646,87	102,104
647,07	102,305
647,26	100,432
647,46	99,441
647,66	99,279
647,86	99,803
648,05	97,201
648,25	98,543
648,45	100,634
648,65	98,296
648,84	97,952
649,04	99,265
649,24	94,027
649,43	90,573
649,63	80,946
649,83	70,879
650,03	59,892
650,22	46,584
650,42	36,424
650,62	25,690
650,81	17,593
651,01	11,596
651,21	8,280
651,40	5,724
651,60	4,047
651,80	2,988
652,00	2,560
652,19	1,729
652,39	1,285
652,59	1,654
652,78	1,461
652,98	0,480
653,18	0,895
653,37	0,928
653,57	1,159
653,77	0,878
653,96	0,704
654,16	0,840
654,36	0,695
654,55	0,665
654,75	0,716
654,95	0,715
655,14	0,690
655,34	0,889
655,54	0,809
655,73	0,869
655,93	0,794
656,13	0,600
656,32	0,132
656,52	0,706
656,72	0,652
656,91	0,768
657,11	0,638
657,31	0,540
657,50	0,759
657,70	0,816
657,90	0,765
658,09	0,911
658,29	0,683
658,49	0,794
658,68	0,756
658,88	0,767
659,07	0,619
659,27	0,471
659,47	0,609
659,66	0,433
659,86	0,585
660,06	0,337
660,25	0,274
660,45	0,729
660,64	0,694
660,84	0,784
661,04	0,595
661,23	0,490
661,43	0,659
661,63	0,447
661,82	0,000
662,02	1,094
662,21	0,340
662,41	0,874
662,61	1,153
662,80	0,360
663,00	0,321
663,19	0,952
663,39	0,328
663,59	1,050
663,78	0,567
663,98	0,607
664,17	0,937
664,37	0,741
664,57	0,506
664,76	0,832
664,96	0,485
665,15	0,553
665,35	0,263
665,55	0,598
665,74	0,599
665,94	0,388
666,13	0,457
666,33	0,481
666,53	0,685
666,72	0,641
666,92	0,627
667,11	0,890
667,31	0,314
667,50	0,091
667,70	0,830
667,90	0,188
668,09	0,566
668,29	0,254
668,48	0,512
668,68	0,512
668,87	0,435
669,07	0,176
669,26	0,385
669,46	0,601
669,66	0,245
669,85	0,402
670,05	0,552
670,24	0,896
670,44	0,386
670,63	0,522
670,83	0,538
671,02	0,172
671,22	0,504
671,42	0,510
671,61	0,251
671,81	0,639
672,00	0,863
672,20	0,486
672,39	0,503
672,59	0,090
672,78	0,422
672,98	0,188
673,17	0,578
673,37	0,315
673,56	0,479
673,76	0,095
673,95	0,270
674,15	0,556
674,34	0,343
674,54	0,514
674,73	0,405
674,93	0,348
675,13	0,655
675,32	0,561
675,52	0,252
675,71	0,480
675,91	0,388
676,10	0,584
676,30	0,185
676,49	0,047
676,69	0,589
676,88	0,277
677,08	0,308
677,27	0,482
677,47	0,241
677,66	0,440
677,86	0,653
678,05	0,390
678,24	0,515
678,44	0,593
678,63	0,373
678,83	0,050
679,02	0,455
679,22	0,401
679,41	0,559
679,61	0,388
679,80	0,533
680,00	-0,018
680,19	0,433
680,39	0,267
680,58	0,447
680,78	0,235
680,97	0,290
681,17	0,340
681,36	0,124
681,56	0,264
681,75	0,095
681,94	0,105
682,14	0,586
682,33	0,445
682,53	0,282
682,72	0,253
682,92	0,629
683,11	0,290
683,31	0,247
683,50	0,251
683,69	0,196
683,89	0,375
684,08	0,273
684,28	0,163
684,47	0,526
684,67	0,258
684,86	0,296
685,06	0,089
685,25	0,289
685,44	0,160
685,64	0,313
685,83	0,427
686,03	0,028
686,22	0,293
686,42	0,425
686,61	0,327
686,80	0,141
687,00	0,158
687,19	0,226
687,39	0,191
687,58	0,371
687,77	0,369
687,97	0,287
688,16	0,296
688,36	0,204
688,55	0,082
688,74	0,106
688,94	0,060
689,13	0,177
689,33	0,058
689,52	0,338
689,71	0,244
689,91	0,125
690,10	0,240
690,30	0,092
690,49	0,040
690,68	0,409
690,88	0,095
691,07	0,111
691,27	0,133
691,46	0,241
691,65	0,352
691,85	0,090
692,04	0,170
692,23	0,059
692,43	0,218
692,62	0,252
692,82	0,381
693,01	0,271
693,20	0,238
693,40	0,024
693,59	0,122
693,78	0,222
693,98	0,020
694,17	0,191
694,36	0,357
694,56	0,110
694,75	0,230
694,94	0,188
695,14	0,288
695,33	0,202
695,53	0,469
695,72	0,306
695,91	-0,074
696,11	0,132
696,30	0,240
696,49	0,284
696,69	0,096
696,88	0,264
697,07	0,208
697,27	0,346
697,46	0,253
697,65	0,267
697,85	0,064
698,04	0,384
698,23	0,176
698,43	0,393
698,62	0,058
698,81	0,572
699,01	0,540
699,20	0,421
699,39	0,454
699,58	0,158
699,78	0,191
699,97	0,306
700,16	0,057
700,36	0,668
700,55	0,647
700,74	0,560
700,94	0,332
701,13	0,540
701,32	-0,010
701,52	0,548
701,71	0,881
701,90	0,811
702,09	1,355
702,29	0,796
702,48	0,581
702,67	0,797
702,87	1,564
703,06	1,014
703,25	1,182
703,44	0,672
703,64	0,663
703,83	1,290
704,02	1,254
704,22	0,915
704,41	0,635
704,60	1,090
704,79	1,026
704,99	1,489
705,18	1,558
705,37	1,138
705,56	0,163
705,76	1,319
705,95	1,758
706,14	1,064
706,33	0,947
706,53	1,156
706,72	0,795
706,91	1,345
707,11	0,860
707,30	0,337
707,49	0,867
707,68	1,273
707,88	1,504
708,07	0,634
708,26	1,343
708,45	0,753
708,64	2,259
708,84	1,186
709,03	2,001
709,22	1,839
709,41	2,376
709,61	1,943
709,80	2,373
709,99	1,953
710,18	2,405
710,38	0,000
710,57	1,875
710,76	0,524
710,95	2,941
711,14	2,450
711,34	1,789
711,53	3,115
711,72	2,106
711,91	2,731
712,11	3,032
712,30	1,539
712,49	1,493
712,68	2,374
712,87	1,796
713,07	3,412
713,26	3,249
713,45	0,916
713,64	1,571
713,83	1,627
714,03	1,791
714,22	4,208
714,41	3,864
714,60	2,421
714,79	0,432
714,99	1,800
715,18	3,465
715,37	3,966
715,56	3,095
715,75	2,151
715,94	5,807
716,14	3,638
716,33	3,798
716,52	4,140
716,71	4,091
716,90	1,054
717,10	1,893
717,29	2,026
717,48	1,502
717,67	2,707
717,86	3,806
718,05	4,274
718,24	4,281
718,44	5,421
718,63	1,946
718,82	4,185
719,01	3,487
719,20	2,857
719,39	7,386
719,59	1,693
719,78	5,344
719,97	4,083
720,16	5,175
720,35	1,376
720,54	1,817
720,73	5,666
720,93	2,531
721,12	0,575
721,31	1,749
721,50	5,455
721,69	3,197
721,88	6,836
722,07	4,651
722,27	4,840
722,46	4,423
722,65	5,560
722,84	5,242
723,03	4,009
723,22	6,527
723,41	3,571
723,60	-0,572
723,79	9,406
723,99	4,610
724,18	2,705
724,37	1,544
724,56	5,196
724,75	4,348
724,94	7,601
725,13	4,292
725,32	8,461
725,51	3,256
725,71	9,051
725,90	8,412
726,09	2,831
726,28	4,480
726,47	2,959
726,66	7,762
726,85	3,981
727,04	3,466
727,23	5,826
727,42	9,269
727,61	8,436
727,81	1,622
728,00	5,925
728,19	7,151
728,38	-1,528
728,57	8,750
728,76	4,292
728,95	8,229
729,14	3,139
729,33	4,946
729,52	7,537
729,71	3,905
729,90	4,725
730,09	8,665
730,28	8,200
730,48	11,964
730,67	10,268
730,86	8,629
731,05	2,684
731,24	3,537
731,43	7,666
731,62	7,331
731,81	2,384
732,00	9,222
732,19	7,572
732,38	5,256
732,57	5,257
732,76	2,189
732,95	1,673
733,14	1,148
733,33	1,852
733,52	9,270
733,71	10,760
733,90	4,237
734,09	6,892
734,28	7,480
734,47	5,972
734,66	11,898
734,85	2,143
735,04	8,417
735,23	9,244
735,42	12,842
735,61	8,163
735,81	6,805
736,00	5,983
736,19	1,064
736,38	3,743
736,57	11,934
736,76	9,051
736,95	8,599
737,14	13,238
737,33	15,134
737,52	7,231
737,71	7,869
737,90	12,674
738,09	10,807
738,28	17,638
738,47	2,737
738,66	11,058
738,85	8,408
739,04	12,521
739,22	11,204
739,41	1,654
739,60	0,683
739,79	2,338
739,98	1,792
740,17	10,410
740,36	15,009
740,55	11,465
740,74	14,580
740,93	8,795
741,12	13,750
741,31	7,042
741,50	0,189
741,69	14,867
741,88	-0,593
742,07	15,036
742,26	9,714
742,45	14,549
742,64	14,625
742,83	10,088
743,02	7,789
743,21	14,982
743,40	1,863
743,59	9,191
743,78	13,503
743,97	14,038
744,16	6,102
744,34	1,166
744,53	11,753
744,72	12,109
744,91	0,840
745,10	9,224
745,29	17,339
745,48	11,818
745,67	6,606
745,86	14,790
746,05	13,033
746,24	8,660
746,43	7,066
746,62	22,845
746,81	12,360
747,00	7,877
747,18	10,675
747,37	12,211
747,56	14,588
747,75	1,724
747,94	10,922
748,13	16,107
748,32	8,333
748,51	17,005
748,70	22,026
748,89	19,672
749,08	0,291
749,26	7,709
749,45	9,920
749,64	8,564
749,83	15,955
750,02	15,217
750,21	14,504
750,40	28,138
750,59	0,000
750,78	19,451
750,96	13,536
751,15	9,346
751,34	13,068
751,53	0,273
751,72	9,859
751,91	17,098
752,10	17,277
752,29	19,733
752,47	16,332
752,66	20,952
752,85	22,678
753,04	5,028
753,23	25,077
753,42	21,563
753,61	13,166
753,80	25,773
753,98	18,939
754,17	19,453
754,36	13,226
754,55	4,518
754,74	13,312
754,93	26,171
755,12	20,178
755,30	9,416
755,49	15,407
755,68	29,755
755,87	14,793
756,06	7,986
756,25	16,413
756,43	6,376
756,62	15,528
756,81	17,219
757,00	15,789
757,19	7,292
757,38	16,602
757,56	-0,400
757,75	22,526
757,94	-0,380
758,13	24,315
758,32	24,926
758,51	17,172
758,69	4,633
758,88	21,212
759,07	24,551
759,26	21,555
759,45	17,544
759,63	29,437
759,82	37,895
760,01	9,890
760,20	37,736
760,39	31,230
760,57	21,951
760,76	27,875
760,95	34,028
761,14	25,547
761,33	20,645
761,51	18,929
761,70	20,446
761,89	24,000
762,08	32,714
762,27	22,744
762,45	13,768
762,64	25,628
762,83	21,912
763,02	30,870
763,21	13,000
763,39	24,476
763,58	13,011
763,77	32,911
763,96	31,474
764,14	-0,417
764,33	18,571
764,52	27,232
764,71	26,557
764,89	16,071
765,08	12,808
765,27	14,468
765,46	20,179
765,65	25,882
765,83	40,724
766,02	3,810
766,21	9,290
766,40	36,965
766,58	16,931
766,77	28,440
766,96	36,179
767,15	31,513
767,33	31,401
767,52	36,245
767,71	23,246
767,90	12,060
768,08	51,497
768,27	34,959
768,46	34,211
768,64	18,519
768,83	25,980
769,02	23,153
769,21	30,729
769,39	37,143
769,58	40,693
769,77	48,936
769,96	43,694
770,14	27,322
770,33	25,701
770,52	54,676
770,70	31,351
770,89	18,919
771,08	12,651
771,27	22,632
771,45	30,588
771,64	52,121
771,83	32,843
772,01	42,784
772,20	29,851
772,39	20,886
772,57	26,368
772,76	35,811
772,95	45,977
773,14	38,776
773,32	36,158
773,51	18,452
773,70	56,835
773,88	59,355
774,07	46,193
774,26	16,935
774,44	27,820
774,63	39,521
774,82	18,182
775,00	34,112
775,19	12,500
775,38	37,766
775,56	31,056
775,75	30,769
775,94	20,000
776,12	54,902
776,31	60,902
776,50	37,671
776,68	38,710
776,87	56,938
777,06	64,151
777,24	30,252
777,43	48,663
777,62	55,618
777,80	60,377
777,99	59,167
778,18	48,276
778,36	51,695
778,55	44,068
778,74	28,125
778,92	37,037
779,11	40,909
779,29	5,674
779,48	45,390
779,67	32,432
779,85	6,140
780,04	36,957
780,23	52,381
780,41	61,864
780,60	63,758
780,79	49,194
780,97	40,523
781,16	41,489
781,34	49,324
781,53	99,107
781,72	36,937
781,90	30,539
782,09	23,256
782,28	51,701
782,46	45,714
782,65	43,662
782,83	30,818
783,02	89,474
783,21	42,105
783,39	37,815
783,58	75,652
783,76	38,095
783,95	67,606
784,14	55,263
784,32	52,941
784,51	85,135
784,69	24,219
784,88	16,822
785,06	59,603
785,25	65,957
785,44	45,161
785,62	32,143
785,81	59,259
785,99	36,090
786,18	24,324
786,37	71,429
786,55	40,972
786,74	44,545
786,92	34,266
787,11	43,056
787,29	38,393
787,48	59,140
787,67	63,208
787,85	110,127
788,04	39,640
788,22	17,822
788,41	70,079
788,59	76,316
788,78	67,033
788,96	47,107
789,15	75,833
789,34	63,462
789,52	88,710
789,71	83,453
789,89	98,701
790,08	68,750
790,26	57,325
790,45	88,889
790,63	45,977
790,82	20,769
791,00	51,327
791,19	27,200
791,38	49,524
791,56	71,818
791,75	5,556
791,93	100,000
792,12	73,913
792,30	45,985
792,49	39,394
792,67	41,176
792,86	44,800
793,04	41,667
793,23	85,263
793,41	71,739
793,60	62,500
793,78	66,667
793,97	33,333
794,15	63,910
794,34	49,333
794,52	31,183
794,71	51,938
794,89	66,667
795,08	61,600
795,26	52,000
795,45	45,833
795,63	69,355
795,82	58,242
796,00	74,000
796,19	47,967
796,37	49,618
796,56	57,282
796,74	40,000
796,93	62,121
797,11	45,783
797,30	34,444
797,48	52,344
797,67	48,780
797,85	67,692
798,04	53,390
798,22	91,026
798,41	42,308
798,59	73,333
798,77	62,651
798,96	46,296
799,14	53,226
799,33	50,459
799,51	69,444
799,70	73,077
799,88	100,917
800,07	58,015
800,25	60,241
800,44	48,148
800,62	88,889
800,80	44,366
800,99	128,767
801,17	58,621
801,36	68,571
801,54	30,000
801,73	48,421
801,91	60,331
802,10	68,235
802,28	72,800
802,46	53,947
802,65	68,345
802,83	86,667
803,02	49,194
803,20	118,072
803,39	83,908
803,57	37,795
803,75	71,545
803,94	54,762
804,12	80,000
804,31	15,942
804,49	20,800
804,67	3,676
804,86	48,673
805,04	61,446
805,23	100,000
805,41	72,500
805,59	63,014
805,78	70,400
805,96	80,723
806,15	79,208
806,33	106,579
806,51	69,333
806,70	65,414
806,88	37,209
807,07	110,811
807,25	71,429
807,43	58,036
807,62	61,062
807,80	42,857
807,99	47,692
808,17	37,795
808,35	27,000
808,54	39,855
808,72	38,739
808,90	54,795
809,09	70,652
809,27	60,000
809,46	106,593
809,64	53,659
809,82	66,225
810,01	71,094
810,19	86,869
810,37	61,719
810,56	95,556
810,74	37,662
810,92	25,333
811,11	19,298
811,29	91,509
811,48	43,077
811,66	38,202
811,84	50,549
812,03	64,754
812,21	45,614
812,39	43,478
812,58	73,684
812,76	64,029
812,94	46,988
813,13	46,809
813,31	44,000
813,49	48,148
813,68	31,818
813,86	83,146
814,04	24,793
814,23	66,265
814,41	21,348
814,59	41,748
814,78	44,118
814,96	38,994
815,14	38,318
815,33	48,837
815,51	38,583
815,69	34,286
815,87	70,297
816,06	52,174
816,24	42,236
816,42	47,059
816,61	62,264
816,79	54,310
816,97	80,682
817,16	30,178
817,34	78,571
817,52	42,149
817,70	96,040
817,89	60,741
818,07	63,014
818,25	38,776
818,44	55,128
818,62	46,512
818,80	22,556
818,98	56,688
819,17	12,605
819,35	46,809
819,53	70,896
819,72	52,532
819,90	38,760
820,08	24,786
820,26	63,793
820,45	20,805
820,63	87,500
820,81	68,000
820,99	39,716
821,18	65,986
821,36	52,532
821,54	56,552
821,73	45,000
821,91	64,035
822,09	18,548
822,27	53,548
822,46	31,618
822,64	48,000
822,82	39,227
823,00	11,050
823,19	36,813
823,37	58,182
823,55	36,932
823,73	55,172
823,91	57,971
824,10	28,495
824,28	65,327
824,46	11,650
824,64	49,342
824,83	55,901
825,01	22,667
825,19	77,419
825,37	50,435
825,56	66,981
825,74	43,878
825,92	43,312
826,10	47,159
826,28	26,190
826,47	38,421
826,65	75,887
826,83	16,379
827,01	30,636
827,19	44,643
827,38	37,654
827,56	31,818
827,74	28,492
827,92	18,605
828,10	28,205
828,29	63,905
828,47	47,154
828,65	52,308
828,83	14,545
829,01	34,239
829,20	54,945
829,38	48,295
829,56	57,609
829,74	34,591
829,92	32,540
830,10	48,276
830,29	23,116
830,47	27,638
830,65	12,195
830,83	36,607
831,01	44,643
831,20	49,029
831,38	28,708
831,56	43,256
831,74	54,028
831,92	55,263
832,10	42,857
832,29	46,622
832,47	14,045
832,65	44,608
832,83	22,535
833,01	38,500
833,19	22,624
833,37	49,321
833,56	32,489
833,74	44,118
833,92	14,352
834,10	23,651
834,28	33,755
834,46	27,149
834,64	31,944
834,83	34,091
835,01	40,664
835,19	21,200
835,37	24,793
835,55	8,854
835,73	38,916
835,91	26,937
836,09	14,829
836,28	39,114
836,46	21,600
836,64	23,308
836,82	15,385
837,00	42,029
837,18	15,613
837,36	37,052
837,54	24,545
837,72	30,172
837,91	23,881
838,09	40,239
838,27	30,000
838,45	18,085
838,63	26,103
838,81	16,456
838,99	22,581
839,17	25,338
839,35	27,305
839,53	20,000
839,72	16,165
839,90	23,024
840,08	33,538
840,26	29,365
840,44	33,233
840,62	8,966
840,80	35,034
840,98	12,941
841,16	22,053
841,34	25,084
841,52	20,795
841,70	31,077
841,89	21,774
842,07	15,987
842,25	35,345
842,43	-0,431
842,61	30,526
842,79	25,424
842,97	12,704
843,15	24,422
843,33	14,196
843,51	21,687
843,69	25,356
843,87	15,672
844,05	9,119
844,23	24,625
844,41	20,690
844,59	9,222
844,77	27,731
844,95	22,254
845,13	18,769
845,31	12,791
845,50	31,937
845,68	16,399
845,86	9,483
846,04	38,827
846,22	19,619
846,40	25,806
846,58	21,652
846,76	22,312
846,94	21,945
847,12	18,912
847,30	12,629
847,48	16,099
847,66	14,778
847,84	8,197
848,02	17,150
848,20	21,189
848,38	20,228
848,56	26,136
848,74	23,866
848,92	4,239
849,10	15,500
849,28	15,385
849,46	13,867
849,64	13,857
849,82	9,877
850,00	21,963
850,18	13,404
850,36	8,609
850,54	15,789
850,72	22,622
850,90	24,783
851,08	15,755
851,26	20,350
851,44	15,044
851,62	10,698
851,80	13,656
851,98	25,055
852,16	16,548
852,34	15,052
852,52	19,643
852,70	6,378
852,87	13,927
853,05	7,018
853,23	14,433
853,41	17,007
853,59	12,656
853,77	17,063
853,95	24,473
854,13	15,265
854,31	19,302
854,49	15,968
854,67	3,240
854,85	7,039
855,03	25,050
855,21	18,316
855,39	10,463
855,57	9,319
855,75	13,686
855,93	10,000
856,11	22,244
856,28	11,993
856,46	18,683
856,64	18,476
856,82	13,746
857,00	6,085
857,18	14,079
857,36	12,648
857,54	9,689
857,72	9,474
857,90	5,904
858,08	12,941
858,26	12,836
858,44	17,544
858,61	12,369
858,79	19,723
858,97	15,929
859,15	17,028
859,33	18,906
859,51	14,405
859,69	4,472
859,87	10,049
860,05	3,908
860,23	17,857
860,40	13,701
860,58	14,590
860,76	9,524
860,94	14,309
861,12	9,385
861,30	5,338
861,48	9,000
861,66	9,365
861,84	6,577
862,01	6,775
862,19	1,186
862,37	2,421
862,55	9,366
862,73	5,418
862,91	5,874
863,09	12,351
863,27	5,460
863,44	4,654
863,62	11,005
863,80	7,595
863,98	7,270
864,16	5,491
864,34	11,457
864,52	7,507
864,69	12,427
864,87	0,434
865,05	14,014
865,23	10,327
865,41	8,065
865,59	13,728
865,76	9,444
865,94	12,274
866,12	7,742
866,30	8,836
866,48	11,383
866,66	7,527
866,83	10,560
867,01	8,696
867,19	10,273
867,37	9,056
867,55	10,036
867,73	9,255
867,90	4,072
868,08	8,464
868,26	9,436
868,44	6,800
868,62	5,405
868,79	8,133
868,97	4,786
869,15	2,784
869,33	7,570
869,51	9,292
869,69	7,927
869,86	5,263
870,04	10,575
870,22	8,641
870,40	8,538
870,57	7,728
870,75	5,414
870,93	9,895
871,11	5,844
871,29	3,539
871,46	2,428
871,64	5,439
871,82	6,889
872,00	14,095
872,18	3,797
872,35	12,799
872,53	6,579
872,71	6,429
872,89	12,102
873,06	9,969
873,24	8,632
873,42	6,944
873,60	6,217
873,77	6,442
873,95	4,654
874,13	7,717
874,31	9,494
874,49	6,970
874,66	5,639
874,84	8,225
875,02	6,691
875,20	6,995
875,37	9,723
875,55	3,912
875,73	4,545
875,91	3,717
876,08	3,931
876,26	4,240
876,44	4,952
876,61	10,153
876,79	5,337
876,97	4,106
877,15	3,612
877,32	4,604
877,50	4,967
877,68	4,799
877,86	0,510
878,03	5,790
878,21	6,017
878,39	6,095
878,56	3,140
878,74	3,670
878,92	3,228
879,10	6,226
879,27	4,472
879,45	4,250
879,63	2,873
879,80	7,410
879,98	1,881
880,16	4,148
880,34	7,885
880,51	2,839
880,69	3,943
880,87	3,683
881,04	2,388
881,22	6,019
881,40	5,458
881,57	4,424
881,75	1,801
881,93	1,817
882,10	5,271
882,28	4,828
882,46	4,521
882,63	3,777
882,81	7,848
882,99	3,259
883,16	6,767
883,34	3,743
883,52	1,543
883,69	5,288
883,87	1,953
884,05	2,923
884,22	4,827
884,40	5,545
884,58	0,645
884,75	2,344
884,93	3,467
885,11	4,548
885,28	1,622
885,46	2,768
885,64	3,260
885,81	4,594
885,99	1,797
886,17	3,085
886,34	6,522
886,52	4,779
886,70	6,272
886,87	2,284
887,05	4,545
887,22	1,716
887,40	6,648
887,58	3,848
887,75	4,265
887,93	1,925
888,11	3,856
888,28	2,229
888,46	3,217
888,63	0,410
888,81	3,387
888,99	4,848
889,16	5,575
889,34	3,181
889,51	3,152
889,69	1,663
889,87	5,268
890,04	2,759
890,22	2,194
890,39	3,375
890,57	4,650
890,75	1,449
890,92	3,725
891,10	2,627
891,27	2,506
891,45	3,256
891,63	4,938
891,80	3,353
891,98	2,483
892,15	2,703
892,33	3,784
892,51	3,241
892,68	3,170
892,86	1,687
893,03	3,432
893,21	4,123
893,38	2,586
893,56	4,152
893,74	3,060
893,91	4,846
894,09	3,415
894,26	3,129
894,44	4,888
894,61	3,105
894,79	2,972
894,96	1,792
895,14	3,814
895,32	5,033
895,49	1,917
895,67	2,998
895,84	1,100
896,02	2,277
896,19	0,380
896,37	1,538
896,54	1,979
896,72	2,232
896,89	3,558
897,07	4,421
897,25	2,526
897,42	3,181
897,60	3,124
897,77	3,339
897,95	2,780
898,12	4,098
898,30	3,588
898,47	1,592
898,65	1,605
898,82	2,564
899,00	1,691
899,17	2,640
899,35	2,167
899,52	4,774
899,70	2,442
899,87	0,993
900,05	1,294
900,22	3,276
900,40	2,005
900,57	2,968
900,75	1,345
900,92	3,226
901,10	2,345
901,27	1,258
901,45	4,641
901,62	2,098
901,80	1,381
901,97	2,950
902,15	2,251
902,32	2,372
902,50	2,117
902,67	4,625
902,85	0,963
903,02	3,665
903,20	2,212
903,37	1,246
903,54	2,227
903,72	2,416
903,89	3,125
904,07	0,784
904,24	2,519
904,42	2,113
904,59	2,036
904,77	1,556
904,94	1,849
905,12	-0,425
905,29	-0,105
905,47	2,161
905,64	2,093
905,81	1,670
905,99	1,505
906,16	1,041
906,34	2,088
906,51	1,002
906,69	2,622
906,86	1,474
907,03	1,682
907,21	1,494
907,38	1,872
907,56	2,498
907,73	3,009
907,91	1,063
908,08	1,638
908,25	3,292
908,43	1,745
908,60	1,133
908,78	1,443
908,95	0,904
909,13	3,865
909,30	2,145
909,47	0,163
909,65	2,808
909,82	2,634
910,00	2,570
910,17	1,822
910,34	2,402
910,52	1,993
910,69	1,262
910,87	3,289
911,04	1,575
911,21	3,513
911,39	1,064
911,56	1,743
911,73	1,502
911,91	1,479
912,08	1,697
912,26	1,782
912,43	3,137
912,60	1,404
912,78	2,234
912,95	1,620
913,13	1,645
913,30	2,491
913,47	2,346
913,65	2,920
913,82	2,218
913,99	0,873
914,17	1,817
914,34	1,148
914,51	1,600
914,69	2,525
914,86	3,081
915,03	1,210
915,21	2,009
915,38	2,978
915,56	2,167
915,73	0,569
915,90	2,145
916,08	1,895
916,25	2,482
916,42	2,536
916,60	2,529
916,77	2,041
916,94	1,808
917,12	2,393
917,29	1,544
917,46	0,851
917,64	1,836
917,81	0,739
917,98	1,064
918,16	1,980
918,33	1,350
918,50	0,834
918,67	1,673
918,85	1,033
919,02	2,409
919,19	1,746
919,37	1,755
919,54	1,869
919,71	2,401
919,89	1,745
920,06	1,486
920,23	0,358
920,41	1,297
920,58	0,650
920,75	2,551
920,92	0,989
921,10	1,258
921,27	0,700
921,44	2,560
921,62	1,740
921,79	0,894
921,96	2,698
922,13	2,878
922,31	0,195
922,48	0,270
922,65	1,191
922,82	1,554
923,00	2,366
923,17	1,198
923,34	1,309
923,52	0,796
923,69	0,891
923,86	1,948
924,03	2,052
924,21	0,803
924,38	2,395
924,55	2,244
924,72	1,346
924,90	1,025
925,07	1,300
925,24	1,037
925,41	1,224
925,59	1,233
925,76	0,139
925,93	1,613
926,10	1,384
926,28	1,021
926,45	1,339
926,62	1,037
926,79	1,594
926,96	2,164
927,14	2,092
927,31	1,346
927,48	0,932
927,65	0,951
927,83	1,015
928,00	1,142
928,17	1,521
928,34	1,931
928,51	1,030
928,69	1,368
928,86	1,115
929,03	0,966
929,20	0,753
929,37	1,851
929,55	1,855
929,72	1,184
929,89	1,675
930,06	0,793
930,23	1,428
930,41	1,207
930,58	1,915
930,75	0,706
930,92	0,752
931,09	1,905
931,27	1,610
931,44	1,023
931,61	2,602
931,78	1,258
931,95	1,122
932,12	1,423
932,30	0,895
932,47	0,309
932,64	1,847
932,81	1,197
932,98	1,385
933,16	0,201
933,33	1,074
933,50	0,916
933,67	1,677
933,84	2,224
934,01	1,429
934,18	0,984
934,36	0,729
934,53	2,032
934,70	0,764
934,87	1,012
935,04	1,675
935,21	0,888
935,38	0,601
935,56	1,124
935,73	0,739
935,90	1,666
936,07	0,667
936,24	1,998
936,41	0,670
936,58	1,206
936,76	1,769
936,93	0,965
937,10	1,937
937,27	1,015
937,44	1,095
937,61	1,527
937,78	1,214
937,95	1,268
938,13	0,855
938,30	0,693
938,47	0,843
938,64	0,600
938,81	1,153
938,98	1,396
939,15	1,408
939,32	1,299
939,49	0,776
939,66	1,511
939,84	0,363
940,01	0,851
940,18	0,911
940,35	-0,021
940,52	0,021
940,69	1,072
940,86	1,929
941,03	0,845
941,20	0,648
941,37	0,314
941,54	2,095
941,71	1,381
941,89	0,807
942,06	0,776
942,23	1,871
942,40	0,358
942,57	1,178
942,74	1,446
942,91	2,274
943,08	1,303
943,25	1,909
943,42	0,844
943,59	1,293
943,76	1,643
943,93	0,404
944,10	0,495
944,27	0,687
944,44	1,613
944,61	0,644
944,79	1,784
944,96	2,313
945,13	0,609
945,30	0,702
945,47	1,689
945,64	0,825
945,81	2,535
945,98	1,663
946,15	2,391
946,32	2,298
946,49	1,947
946,66	1,861
946,83	0,598
947,00	2,037
947,17	-0,027
947,34	1,189
947,51	1,377
947,68	1,838
947,85	1,846
948,02	1,672
948,19	0,551
948,36	2,333
948,53	0,640
948,70	1,272
948,87	0,772
949,04	3,068
949,21	1,191
949,38	2,739
949,55	2,874
949,72	1,302
949,89	2,330
950,06	0,532
950,23	0,774
950,40	2,035
950,57	1,533
950,74	0,761
950,91	0,954
951,08	2,466
951,25	1,937
951,42	3,014
951,59	1,140
951,76	1,472
951,93	2,696
952,10	1,169
952,27	1,267
952,44	3,185
952,61	3,205
952,77	2,270
952,94	2,714
953,11	4,431
953,28	5,558
953,45	3,961
953,62	3,839
953,79	3,951
953,96	4,169
954,13	4,932
954,30	4,140
954,47	2,687
954,64	0,915
954,81	2,856
954,98	1,404
955,15	3,083
955,32	1,915
955,49	4,044
955,65	3,387
955,82	4,479
955,99	3,371
956,16	5,064
956,33	1,942
956,50	3,540
956,67	2,832
956,84	6,431
957,01	1,119
957,18	7,072
957,35	4,703
957,52	6,385
957,68	6,601
957,85	5,877
958,02	2,985
958,19	7,498
958,36	5,199
958,53	4,816
958,70	6,233
958,87	6,786
959,04	8,384
959,21	8,691
959,37	9,766
959,54	4,712
959,71	6,681
959,88	7,674
960,05	8,615
960,22	7,296
960,39	7,161
960,56	8,440
960,72	3,878
960,89	7,114
961,06	9,834
961,23	2,141
961,40	9,838
961,57	6,709
961,74	8,602
961,90	13,933
962,07	10,164
962,24	7,705
962,41	11,552
962,58	11,706
962,75	9,744
962,92	5,088
963,08	8,333
963,25	2,191
963,42	19,478
963,59	9,035
963,76	7,555
963,93	17,719
964,10	5,882
964,26	13,095
964,43	6,744
964,60	8,353
964,77	19,016
964,94	9,877
965,10	8,078
965,27	6,425
965,44	5,714
965,61	19,178
965,78	11,801
965,95	16,418
966,11	7,273
966,28	13,966
966,45	27,124
966,62	4,530
966,79	3,413
966,95	22,776
967,12	33,968
967,29	19,444
967,46	14,591
967,63	31,373
967,79	37,248
967,96	4,587
968,13	29,048
968,30	39,506
968,47	28,462
968,63	36,275
968,80	19,540
968,97	34,682
969,14	54,237
969,31	38,776
969,47	54,348
969,64	8,791
969,81	35,484
969,98	30,000
970,14	14,516
970,31	30,818
970,48	46,309
970,65	50,413
970,81	17,483
970,98	30,729
971,15	66,061
971,32	64,394
971,48	66,667
971,65	39,073
971,82	47,273
971,99	68,987
972,15	37,209
972,32	20,139
972,49	54,918
972,66	14,050
972,82	50,685
972,99	30,000
973,16	69,536
973,33	44,444
973,49	89,024
973,66	76,190
973,83	72,840
974,00	46,835
974,16	70,909
974,33	56,000
974,50	65,657
974,67	52,381
974,83	92,857
975,00	63,636
975,17	62,903
975,33	86,207
975,50	121,311
975,67	75,000
975,84	39,024
976,00	71,053
976,17	76,087
976,34	94,118
976,50	46,154
976,67	109,524
976,84	160,417
977,00	128,205
977,17	102,222
977,34	225,000
977,50	51,190
977,67	95,294
977,84	138,983
978,01	89,189
978,17	13,793
978,34	129,630
978,51	304,000
978,67	85,714
978,84	160,000
979,01	65,789
979,17	91,429
979,34	123,913
979,51	115,909
979,67	216,667
979,84	218,644
980,01	176,923
980,17	141,176
980,34	104,110
980,51	622,222
980,67	82,222
980,84	107,143
981,01	285,294
981,17	102,941
981,34	85,714
981,50	120,000
981,67	190,476
981,84	292,857
982,00	1400,000
982,17	167,188
982,34	229,268
982,50	0,000
982,67	-671,429
982,84	475,000
983,00	179,630
983,17	-600,000
983,33	366,667
983,50	119,512
983,67	65,217
983,83	338,095
984,00	378,261
984,17	811,111
984,33	-350,000
984,50	189,189
984,66	437,500
984,83	275,000
985,00	53,846
985,16	206,452
985,33	3100,000
985,49	146,512
985,66	157,500
985,83	-1466,667
985,99	577,778
986,16	378,947
986,32	95,890
986,49	-620,000
986,66	880,000
986,82	260,606
986,99	-780,000
987,15	269,697
987,32	352,941
987,49	228,571
987,65	-191,304
987,82	-30,000
987,98	142,424
988,15	757,143
988,31	182,857
988,48	219,608
988,65	500,000
988,81	129,091
988,98	345,946
989,14	410,000
989,31	181,356
989,47	-110,714
989,64	583,333
989,80	105,319
989,97	143,636
990,14	307,143
990,30	-1187,500
990,47	-229,167
990,63	244,737
990,80	766,667
990,96	858,333
991,13	176,667
991,29	139,216
991,46	152,083
991,62	0,000
991,79	-380,000
991,95	505,882
992,12	1483,333
992,29	-300,000
992,45	138,095
992,62	-139,286
992,78	-783,333
992,95	112,903
993,11	900,000
993,28	-6200,000
993,44	-79,310
993,61	228,070
993,77	0,000
993,94	225,641
994,10	1114,286
994,27	-73,684
994,43	359,375
994,60	535,714
994,76	212,121
994,93	-540,000
995,09	-412,500
995,26	387,500
995,42	862,500
995,59	156,667
995,75	-466,667
995,92	-1385,714
996,08	-1120,000
996,25	148,485
996,41	1060,000
996,58	404,000
996,74	-420,000
996,91	175,806
997,07	364,000
997,23	152,941
997,40	1216,667
997,56	-1700,000
997,73	373,913
997,89	1440,000
998,06	164,912
998,22	189,362
998,39	224,490
998,55	405,263
998,72	-6000,000
998,88	172,000
999,05	393,333
999,21	394,118
999,37	181,395
999,54	109,677
999,70	152,381
999,87	1400,000
1000,03	290,000
1000,20	350,000
1000,36	-862,500
1000,52	1750,000
1000,69	428,000
1000,85	-400,000
1001,02	357,143
1001,18	1020,000
1001,35	0,000
1001,51	800,000
1001,67	505,000
1001,84	156,098
1002,00	-418,182
1002,17	2050,000
1002,33	-650,000
1002,50	700,000
1002,66	1025,000
1002,82	275,610
1002,99	-350,000
1003,15	-4500,000
1003,32	-371,429
1003,48	-1900,000
1003,64	430,435
1003,81	-231,579
1003,97	204,348
1004,14	-150,909
1004,30	381,818
1004,46	-6400,000
1004,63	-438,462
1004,79	143,243
1004,95	-620,000
1005,12	-461,538
1005,28	263,889
1005,45	-216,667
1005,61	569,231
1005,77	-542,857
1005,94	213,043
1006,10	-600,000
1006,26	-137,037
1006,43	260,606
1006,59	303,226
1006,76	-280,000
1006,92	404,348
1007,08	128,788
1007,25	177,778
1007,41	254,545
1007,57	-417,647
1007,74	426,087
1007,90	-400,000
1008,06	-253,333
1008,23	-305,263
1008,39	261,111
1008,55	92,941
1008,72	-1300,000
1008,88	-120,000
1009,04	-588,889
1009,21	159,375
1009,37	335,484
1009,53	-470,000
1009,70	-24,242
1009,86	384,211
1010,02	197,727
1010,19	600,000
1010,35	6800,000
1010,51	294,286
1010,68	418,182
1010,84	340,000
1011,00	285,714
1011,17	2033,333
1011,33	311,538
1011,49	600,000
1011,66	375,000
1011,82	-991,667
1011,98	766,667
1012,14	723,077
1012,31	227,273
1012,47	-1071,429
1012,63	6900,000
1012,80	416,667
1012,96	88,889
1013,12	-322,222
1013,29	391,667
1013,45	-85,294
1013,61	-1720,000
1013,77	-544,444
1013,94	283,333
1014,10	8400,000
1014,26	-114,706
1014,43	226,316
1014,59	0,000
1014,75	360,000
1014,91	271,429
1015,08	115,385
1015,24	753,333
1015,40	693,333
1015,56	358,824
1015,73	146,939
1015,89	622,222
1016,05	221,622
1016,21	292,593
1016,38	213,158
1016,54	-296,000
1016,70	457,895
1016,86	-561,538
1017,03	0,000
1017,19	1112,500
1017,35	300,000
1017,51	966,667
1017,68	771,429
1017,84	305,263
1018,00	271,429
1018,16	-375,000
1018,33	272,727
1018,49	457,143
1018,65	-377,273
1018,81	-48,780
1018,97	653,846
1019,14	-828,571
1019,30	547,619
1019,46	338,462
1019,62	2600,000
1019,79	-485,714
1019,95	-1250,000
1020,11	720,000
1020,27	160,000
1020,43	-600,000
1020,60	0,000
1020,76	138,235
1020,92	4700,000
1021,08	-93,333
1021,24	-1650,000
1021,41	330,303
1021,57	-379,167
1021,73	0,000
1021,89	-281,818
1022,05	311,429
1022,21	-453,846
1022,38	405,263
1022,54	1020,000
1022,70	181,481
1022,86	-1400,000
1023,02	800,000
1023,19	-125,000
1023,35	115,094
1023,51	254,839
1023,67	152,632
1023,83	445,455
1023,99	254,286
1024,16	-72,308
1024,32	506,250
1024,48	277,551
1024,64	-520,000
1024,80	441,667
1024,96	307,692
1025,12	1200,000
1025,29	-950,000
1025,45	250,000
1025,61	2133,333
1025,77	242,857
1025,93	-338,462
1026,09	5800,000
1026,26	-928,571
1026,42	-1825,000
1026,58	230,769
1026,74	1342,857
1026,90	410,526
1027,06	-590,000
1027,22	-633,333
1027,38	655,556
1027,55	-256,000
1027,71	662,500
1027,87	205,000
1028,03	106,061
1028,19	-184,848
1028,35	58,108
1028,51	-11,290
1028,67	-680,000
1028,83	226,190
1029,00	507,143
1029,16	-573,333
1029,32	394,118
1029,48	3650,000
1029,64	1414,286
1029,80	1333,333
1029,96	125,490
1030,12	-212,500
1030,28	1425,000
1030,44	-3100,000
1030,61	284,375
1030,77	-186,957
1030,93	206,977
1031,09	-257,143
1031,25	-611,111
1031,41	-3050,000
1031,57	-263,158
1031,73	627,273
1031,89	-69,697
1032,05	1514,286
1032,21	590,000
1032,37	-176,471
1032,53	-265,000
1032,69	-7200,000
1032,86	1900,000
1033,02	356,250
1033,18	-900,000
1033,34	-315,385
1033,50	300,000
1033,66	-522,222
1033,82	310,714
1033,98	-382,353
1034,14	977,778
1034,30	-186,364
1034,46	358,333
1034,62	500,000
1034,78	138,095
1034,94	3,226
1035,10	-259,091
1035,26	-733,333
1035,42	77,143
1035,58	680,000
1035,74	-180,000
1035,90	-416,667
1036,06	141,509
1036,22	-284,000
1036,38	640,000
1036,54	880,000
1036,70	-3700,000
1036,86	21,429
1037,02	-2550,000
1037,18	-46,429
1037,34	308,696
1037,50	-360,000
1037,66	-2533,333
1037,82	-241,176
1037,98	542,857
1038,14	-200,000
1038,30	15,385
1038,46	164,583
1038,62	138,710
1038,78	202,381
1038,94	-142,105
1039,10	-325,000
1039,26	-210,526
1039,42	-771,429
1039,58	143,396
1039,74	118,750
1039,90	-115,385
1040,06	535,294
>>>>>End Processed Spectral Data<<<<<
