SpectraSuite Data File
++++++++++++++++++++++++++++++++++++
Date: Thu Feb 02 17:49:08 EET 2017
User: optolab
Dark Spectrum Present: Yes
Reference Spectrum Present: Yes
Number of Sampled Component Spectra: 1
Spectrometers: USB4C02475
Integration Time (usec): 100000 (USB4C02475)
Spectra Averaged: 1 (USB4C02475)
Boxcar Smoothing: 0 (USB4C02475)
Correct for Electrical Dark: No (USB4C02475)
Strobe/Lamp Enabled: No (USB4C02475)
Correct for Detector Non-linearity: No (USB4C02475)
Correct for Stray Light: No (USB4C02475)
Number of Pixels in Processed Spectrum: 3648
>>>>>Begin Processed Spectral Data<<<<<
344,91	-625,000
345,13	-625,000
345,35	-625,000
345,57	-129,412
345,79	-0,000
346,00	-170,588
346,22	-1385,714
346,44	-142,424
346,66	180,851
346,87	369,565
347,09	584,615
347,31	5600,000
347,53	-1525,000
347,74	-127,907
347,96	-928,571
348,18	300,000
348,40	541,176
348,61	-248,718
348,83	4300,000
349,05	287,179
349,27	588,235
349,48	-4300,000
349,70	492,857
349,92	342,857
350,14	156,757
350,35	-530,769
350,57	-338,889
350,79	-51,282
351,01	-380,000
351,22	730,000
351,44	683,333
351,66	316,667
351,87	1216,667
352,09	126,316
352,31	264,286
352,53	305,714
352,74	-714,286
352,96	305,263
353,18	59,375
353,40	-500,000
353,61	473,333
353,83	160,417
354,05	290,625
354,26	342,857
354,48	-960,000
354,70	376,190
354,92	261,111
355,13	-176,744
355,35	240,741
355,57	189,062
355,78	450,000
356,00	170,213
356,22	250,000
356,44	218,605
356,65	464,286
356,87	336,111
357,09	268,571
357,30	111,364
357,52	-950,000
357,74	345,161
357,95	228,571
358,17	127,536
358,39	332,000
358,60	191,667
358,82	286,364
359,04	333,333
359,26	122,727
359,47	-661,538
359,69	307,143
359,91	484,000
360,12	300,000
360,34	125,000
360,56	-2550,000
360,77	966,667
360,99	333,333
361,21	230,435
361,42	-1975,000
361,64	-222,222
361,86	149,254
362,07	846,667
362,29	162,500
362,51	291,892
362,72	-1720,000
362,94	333,333
363,16	147,143
363,37	1000,000
363,59	-5400,000
363,81	1000,000
364,02	134,667
364,24	206,818
364,46	433,333
364,67	159,524
364,89	500,000
365,11	227,027
365,32	300,000
365,54	431,250
365,76	231,818
365,97	219,512
366,19	121,053
366,41	970,000
366,62	148,000
366,84	475,000
367,05	106,863
367,27	1280,000
367,49	433,333
367,70	666,667
367,92	131,250
368,14	-300,000
368,35	154,412
368,57	272,727
368,79	280,769
369,00	161,538
369,22	372,222
369,43	457,895
369,65	-37,931
369,87	-358,824
370,08	515,000
370,30	464,286
370,51	672,727
370,73	225,000
370,95	375,000
371,16	187,719
371,38	233,962
371,60	190,000
371,81	142,391
372,03	-1675,000
372,24	-125,000
372,46	2600,000
372,68	179,412
372,89	119,266
373,11	181,395
373,32	114,286
373,54	590,909
373,76	511,111
373,97	209,091
374,19	-231,579
374,40	111,429
374,62	435,294
374,84	325,000
375,05	221,154
375,27	272,973
375,48	102,469
375,70	300,000
375,92	114,286
376,13	389,474
376,35	300,000
376,56	345,000
376,78	204,082
376,99	281,818
377,21	287,500
377,43	181,818
377,64	192,000
377,86	587,500
378,07	168,182
378,29	180,556
378,51	139,286
378,72	-336,364
378,94	156,522
379,15	161,364
379,37	468,750
379,58	-3,333
379,80	156,818
380,01	178,000
380,23	317,391
380,45	172,917
380,66	104,167
380,88	245,946
381,09	469,565
381,31	225,641
381,52	204,348
381,74	210,714
381,95	307,143
382,17	272,000
382,39	124,194
382,60	411,765
382,82	382,759
383,03	1700,000
383,25	97,531
383,46	708,333
383,68	172,340
383,89	327,273
384,11	206,849
384,32	226,316
384,54	-1085,714
384,76	276,471
384,97	385,000
385,19	121,053
385,40	365,625
385,62	258,065
385,83	197,872
386,05	985,714
386,26	376,923
386,48	746,154
386,69	283,333
386,91	290,000
387,12	243,590
387,34	101,695
387,55	305,714
387,77	348,000
387,98	140,816
388,20	216,901
388,41	130,159
388,63	138,571
388,84	215,000
389,06	227,907
389,27	284,375
389,49	106,024
389,70	225,424
389,92	168,182
390,13	271,795
390,35	86,458
390,56	200,000
390,78	372,727
390,99	195,556
391,21	101,136
391,42	71,739
391,64	-390,000
391,85	150,000
392,07	-342,857
392,28	265,385
392,50	1220,000
392,71	4300,000
392,93	91,935
393,14	306,522
393,36	152,564
393,57	337,500
393,79	192,063
394,00	73,973
394,22	130,000
394,43	321,429
394,65	207,143
394,86	196,875
395,08	-1225,000
395,29	76,596
395,50	-2400,000
395,72	1214,286
395,93	376,000
396,15	-128,571
396,36	146,667
396,58	-200,000
396,79	204,651
397,01	290,476
397,22	156,522
397,44	142,553
397,65	109,459
397,87	101,429
398,08	323,077
398,29	375,000
398,51	278,049
398,72	130,435
398,94	190,698
399,15	143,333
399,37	184,783
399,58	169,841
399,80	260,000
400,01	308,824
400,22	592,857
400,44	409,524
400,65	160,274
400,87	5700,000
401,08	117,978
401,30	128,000
401,51	147,273
401,72	162,903
401,94	260,976
402,15	124,490
402,37	184,091
402,58	206,977
402,80	106,250
403,01	183,333
403,22	169,880
403,44	219,444
403,65	79,592
403,87	174,667
404,08	146,154
404,30	178,125
404,51	140,000
404,72	1054,545
404,94	108,434
405,15	135,821
405,37	147,253
405,58	138,710
405,79	521,429
406,01	101,481
406,22	114,286
406,44	156,140
406,65	136,905
406,86	120,000
407,08	116,049
407,29	134,667
407,51	136,538
407,72	115,842
407,93	155,696
408,15	135,227
408,36	354,286
408,58	130,000
408,79	90,698
409,00	127,660
409,22	114,706
409,43	126,126
409,64	89,103
409,86	139,773
410,07	109,565
410,29	60,000
410,50	90,476
410,71	86,290
410,93	62,376
411,14	106,542
411,35	77,083
411,57	53,472
411,78	36,029
412,00	34,000
412,21	40,265
412,42	38,049
412,64	63,889
412,85	40,415
413,06	44,643
413,28	37,255
413,49	49,302
413,70	38,197
413,92	35,714
414,13	26,087
414,34	27,509
414,56	20,000
414,77	24,354
414,98	8,834
415,20	26,165
415,41	13,312
415,63	23,077
415,84	24,100
416,05	12,651
416,27	21,727
416,48	22,986
416,69	16,570
416,91	16,800
417,12	11,991
417,33	13,093
417,55	25,400
417,76	15,856
417,97	16,667
418,19	9,833
418,40	11,087
418,61	12,521
418,83	11,444
419,04	11,318
419,25	12,600
419,46	13,804
419,68	8,112
419,89	13,834
420,10	8,468
420,32	12,053
420,53	8,950
420,74	10,992
420,96	11,611
421,17	11,060
421,38	7,436
421,60	7,074
421,81	6,507
422,02	4,220
422,23	4,091
422,45	7,081
422,66	5,268
422,87	5,513
423,09	5,751
423,30	6,285
423,51	4,387
423,73	5,994
423,94	4,693
424,15	5,664
424,36	4,895
424,58	3,365
424,79	2,147
425,00	7,258
425,22	4,235
425,43	5,811
425,64	3,085
425,85	6,257
426,07	2,630
426,28	5,820
426,49	1,628
426,71	3,942
426,92	3,490
427,13	2,451
427,34	4,780
427,56	4,996
427,77	-0,373
427,98	3,570
428,19	0,737
428,41	1,819
428,62	2,443
428,83	1,232
429,04	3,048
429,26	2,905
429,47	3,780
429,68	0,404
429,89	1,559
430,11	1,881
430,32	3,454
430,53	1,305
430,74	1,883
430,96	1,641
431,17	1,257
431,38	1,801
431,59	1,391
431,81	2,033
432,02	2,164
432,23	1,520
432,44	1,964
432,66	2,381
432,87	0,803
433,08	2,685
433,29	1,834
433,51	1,432
433,72	1,677
433,93	0,589
434,14	1,157
434,35	1,067
434,57	0,962
434,78	1,681
434,99	1,060
435,20	1,709
435,42	1,389
435,63	0,924
435,84	1,983
436,05	1,232
436,26	0,706
436,48	1,751
436,69	0,882
436,90	0,621
437,11	0,966
437,32	1,249
437,54	1,053
437,75	1,237
437,96	1,134
438,17	0,869
438,38	0,985
438,60	1,165
438,81	0,607
439,02	0,646
439,23	0,916
439,44	0,566
439,66	0,700
439,87	0,757
440,08	0,685
440,29	0,758
440,50	0,980
440,72	0,680
440,93	0,917
441,14	0,740
441,35	0,449
441,56	0,727
441,77	0,787
441,99	0,749
442,20	1,039
442,41	0,398
442,62	0,085
442,83	0,537
443,04	0,618
443,26	0,686
443,47	0,892
443,68	0,377
443,89	0,660
444,10	0,613
444,31	0,772
444,53	0,537
444,74	0,395
444,95	0,244
445,16	0,440
445,37	0,270
445,58	0,607
445,80	0,538
446,01	0,704
446,22	0,595
446,43	0,577
446,64	0,361
446,85	0,504
447,06	0,625
447,28	0,479
447,49	0,530
447,70	0,764
447,91	0,565
448,12	0,511
448,33	0,377
448,54	0,402
448,76	0,535
448,97	0,319
449,18	0,748
449,39	0,409
449,60	0,366
449,81	0,848
450,02	0,645
450,23	0,612
450,45	0,629
450,66	0,286
450,87	0,652
451,08	0,565
451,29	0,958
451,50	0,778
451,71	0,505
451,92	0,612
452,13	0,740
452,35	0,550
452,56	0,646
452,77	0,838
452,98	0,910
453,19	0,536
453,40	0,820
453,61	0,699
453,82	0,700
454,03	0,767
454,25	0,628
454,46	0,682
454,67	0,779
454,88	0,712
455,09	1,048
455,30	0,570
455,51	0,669
455,72	0,592
455,93	0,846
456,14	0,802
456,35	0,729
456,56	0,713
456,78	0,726
456,99	1,110
457,20	0,808
457,41	0,725
457,62	0,873
457,83	0,769
458,04	1,090
458,25	0,880
458,46	0,746
458,67	0,886
458,88	0,831
459,09	0,820
459,30	0,646
459,51	0,805
459,73	0,464
459,94	0,938
460,15	0,546
460,36	0,506
460,57	0,707
460,78	0,646
460,99	0,726
461,20	0,744
461,41	0,636
461,62	0,659
461,83	0,557
462,04	0,653
462,25	0,840
462,46	0,711
462,67	0,691
462,88	0,724
463,09	0,669
463,30	0,818
463,51	0,712
463,72	0,771
463,93	0,819
464,15	0,921
464,36	0,977
464,57	0,853
464,78	0,968
464,99	1,158
465,20	0,914
465,41	0,940
465,62	1,098
465,83	0,944
466,04	1,073
466,25	1,160
466,46	1,072
466,67	0,954
466,88	1,029
467,09	0,990
467,30	1,106
467,51	1,000
467,72	1,296
467,93	1,593
468,14	2,203
468,35	4,097
468,56	7,284
468,77	12,670
468,98	21,153
469,19	33,742
469,40	47,361
469,61	62,786
469,82	75,730
470,03	86,997
470,24	93,949
470,45	98,212
470,66	100,049
470,87	100,453
471,08	101,566
471,29	102,552
471,50	102,487
471,71	101,847
471,92	102,956
472,13	102,740
472,34	102,887
472,55	103,670
472,76	103,138
472,97	103,358
473,18	103,616
473,39	102,315
473,60	103,739
473,81	102,388
474,01	102,128
474,22	102,859
474,43	104,197
474,64	103,157
474,85	103,619
475,06	102,478
475,27	103,415
475,48	102,475
475,69	102,042
475,90	102,686
476,11	103,295
476,32	103,239
476,53	103,668
476,74	103,745
476,95	103,347
477,16	103,289
477,37	103,617
477,58	101,694
477,79	103,575
478,00	102,147
478,21	102,468
478,41	102,632
478,62	103,058
478,83	103,879
479,04	101,619
479,25	101,221
479,46	102,778
479,67	103,468
479,88	103,371
480,09	104,382
480,30	104,333
480,51	103,762
480,72	103,041
480,93	103,970
481,14	103,067
481,34	103,582
481,55	103,162
481,76	102,697
481,97	103,701
482,18	102,993
482,39	103,548
482,60	102,726
482,81	102,090
483,02	101,378
483,23	101,528
483,44	100,346
483,65	101,950
483,85	102,283
484,06	100,991
484,27	101,072
484,48	101,954
484,69	101,277
484,90	102,238
485,11	100,660
485,32	100,964
485,53	101,023
485,73	101,512
485,94	100,577
486,15	102,851
486,36	100,936
486,57	101,087
486,78	100,612
486,99	100,574
487,20	100,685
487,41	101,054
487,61	101,022
487,82	101,699
488,03	100,395
488,24	100,570
488,45	100,550
488,66	101,408
488,87	101,568
489,08	100,962
489,28	100,696
489,49	100,413
489,70	100,434
489,91	100,412
490,12	99,249
490,33	97,527
490,54	97,838
490,74	95,474
490,95	92,290
491,16	89,202
491,37	84,815
491,58	78,240
491,79	70,589
492,00	60,963
492,20	50,302
492,41	37,380
492,62	26,548
492,83	16,932
493,04	10,913
493,25	6,415
493,45	3,759
493,66	2,466
493,87	1,557
494,08	0,944
494,29	0,822
494,50	0,817
494,70	0,907
494,91	0,838
495,12	0,522
495,33	0,820
495,54	0,811
495,75	0,775
495,95	0,710
496,16	0,787
496,37	0,532
496,58	0,386
496,79	0,497
496,99	0,494
497,20	0,606
497,41	0,592
497,62	0,712
497,83	0,663
498,04	0,576
498,24	0,403
498,45	0,494
498,66	0,535
498,87	0,411
499,08	0,561
499,28	0,384
499,49	0,642
499,70	0,574
499,91	0,335
500,12	0,413
500,32	0,707
500,53	0,588
500,74	0,625
500,95	0,374
501,15	0,712
501,36	0,417
501,57	0,568
501,78	0,592
501,99	0,394
502,19	0,442
502,40	0,615
502,61	0,346
502,82	0,474
503,02	0,395
503,23	0,300
503,44	0,700
503,65	0,567
503,86	0,452
504,06	0,492
504,27	0,750
504,48	0,539
504,69	0,576
504,89	0,430
505,10	0,336
505,31	0,624
505,52	0,426
505,72	0,669
505,93	0,353
506,14	0,330
506,35	0,405
506,55	0,309
506,76	0,326
506,97	0,521
507,18	0,481
507,38	0,320
507,59	0,342
507,80	0,541
508,01	0,198
508,21	0,439
508,42	0,286
508,63	0,322
508,84	0,561
509,04	0,391
509,25	0,476
509,46	0,372
509,67	0,637
509,87	0,337
510,08	0,498
510,29	0,451
510,49	0,510
510,70	0,231
510,91	0,619
511,12	0,562
511,32	0,414
511,53	0,391
511,74	0,351
511,94	0,297
512,15	0,478
512,36	0,304
512,57	0,550
512,77	0,380
512,98	0,474
513,19	0,438
513,39	0,598
513,60	0,413
513,81	0,644
514,01	0,476
514,22	0,291
514,43	0,506
514,64	0,354
514,84	0,475
515,05	0,402
515,26	0,483
515,46	0,312
515,67	0,393
515,88	0,514
516,08	0,465
516,29	0,289
516,50	0,209
516,70	0,362
516,91	0,628
517,12	0,495
517,32	0,373
517,53	0,277
517,74	0,447
517,95	0,508
518,15	0,559
518,36	0,560
518,57	0,171
518,77	0,522
518,98	0,516
519,19	0,194
519,39	0,434
519,60	0,245
519,80	0,303
520,01	0,463
520,22	0,394
520,42	0,376
520,63	0,411
520,84	0,233
521,04	0,374
521,25	0,604
521,46	0,235
521,66	0,344
521,87	0,427
522,08	0,364
522,28	0,520
522,49	0,446
522,70	0,446
522,90	0,352
523,11	0,363
523,31	0,295
523,52	0,338
523,73	0,359
523,93	0,523
524,14	0,414
524,35	0,490
524,55	0,485
524,76	0,276
524,97	0,500
525,17	0,461
525,38	0,361
525,58	0,320
525,79	0,466
526,00	0,349
526,20	0,398
526,41	0,436
526,61	0,376
526,82	0,417
527,03	0,278
527,23	0,419
527,44	0,305
527,64	0,496
527,85	0,297
528,06	0,568
528,26	0,390
528,47	0,404
528,68	0,542
528,88	0,202
529,09	0,343
529,29	0,615
529,50	0,441
529,70	0,601
529,91	0,417
530,12	0,431
530,32	0,443
530,53	0,319
530,73	0,268
530,94	0,578
531,15	0,499
531,35	0,652
531,56	0,553
531,76	0,467
531,97	0,382
532,17	0,459
532,38	0,461
532,59	0,460
532,79	0,624
533,00	0,286
533,20	0,383
533,41	0,369
533,61	0,371
533,82	0,332
534,03	0,351
534,23	0,521
534,44	0,548
534,64	0,444
534,85	0,441
535,05	0,331
535,26	0,365
535,46	0,463
535,67	0,301
535,88	0,359
536,08	0,415
536,29	0,408
536,49	0,491
536,70	0,331
536,90	0,437
537,11	0,423
537,31	0,498
537,52	0,666
537,72	0,523
537,93	0,389
538,13	0,378
538,34	0,579
538,55	0,563
538,75	0,295
538,96	0,415
539,16	0,437
539,37	0,341
539,57	0,504
539,78	0,491
539,98	0,489
540,19	0,663
540,39	0,413
540,60	0,517
540,80	0,431
541,01	0,550
541,21	0,484
541,42	0,502
541,62	0,479
541,83	0,388
542,03	0,450
542,24	0,461
542,44	0,501
542,65	0,495
542,85	0,572
543,06	0,534
543,26	0,355
543,47	0,536
543,67	0,568
543,88	0,412
544,08	0,461
544,29	0,441
544,49	0,377
544,70	0,452
544,90	0,667
545,11	0,550
545,31	0,512
545,52	0,472
545,72	0,399
545,93	0,469
546,13	0,535
546,34	0,545
546,54	0,503
546,75	0,528
546,95	0,675
547,15	0,449
547,36	0,650
547,56	0,395
547,77	0,539
547,97	0,407
548,18	0,320
548,38	0,492
548,59	0,484
548,79	0,651
549,00	0,579
549,20	0,476
549,41	0,727
549,61	0,554
549,81	0,727
550,02	0,707
550,22	0,654
550,43	0,677
550,63	0,747
550,84	0,882
551,04	0,685
551,25	0,998
551,45	0,913
551,65	0,887
551,86	0,858
552,06	1,069
552,27	0,812
552,47	0,905
552,68	1,216
552,88	1,567
553,08	1,882
553,29	2,986
553,49	4,024
553,70	6,084
553,90	9,182
554,11	13,795
554,31	19,531
554,51	27,959
554,72	37,901
554,92	49,500
555,13	60,871
555,33	71,280
555,53	80,723
555,74	88,051
555,94	93,122
556,15	95,654
556,35	97,130
556,56	98,832
556,76	98,819
556,96	98,564
557,17	99,961
557,37	100,520
557,58	98,848
557,78	98,854
557,98	100,027
558,19	100,913
558,39	99,826
558,59	99,830
558,80	100,273
559,00	100,330
559,21	100,646
559,41	99,803
559,61	99,788
559,82	100,749
560,02	99,603
560,23	100,042
560,43	100,428
560,63	98,959
560,84	99,641
561,04	100,332
561,24	100,191
561,45	100,019
561,65	99,847
561,85	101,088
562,06	101,344
562,26	100,870
562,47	101,191
562,67	101,278
562,87	101,287
563,08	101,283
563,28	101,724
563,48	101,780
563,69	101,943
563,89	102,388
564,09	101,364
564,30	100,011
564,50	100,136
564,70	100,281
564,91	99,897
565,11	98,678
565,31	99,155
565,52	100,049
565,72	98,704
565,92	99,440
566,13	98,633
566,33	97,831
566,53	97,031
566,74	96,925
566,94	96,600
567,14	94,901
567,35	91,899
567,55	89,593
567,75	84,404
567,96	79,111
568,16	74,122
568,36	64,841
568,57	55,703
568,77	45,802
568,97	35,013
569,18	25,420
569,38	17,343
569,58	11,531
569,79	7,659
569,99	4,796
570,19	3,416
570,39	2,283
570,60	1,623
570,80	1,207
571,00	0,933
571,21	1,044
571,41	0,774
571,61	0,633
571,82	0,742
572,02	0,485
572,22	0,296
572,42	0,485
572,63	0,342
572,83	0,631
573,03	0,456
573,24	0,419
573,44	0,420
573,64	0,597
573,84	0,198
574,05	0,516
574,25	0,489
574,45	0,468
574,66	0,504
574,86	0,481
575,06	0,582
575,26	0,471
575,47	0,407
575,67	0,433
575,87	0,529
576,07	0,346
576,28	0,572
576,48	0,496
576,68	0,432
576,88	0,404
577,09	0,442
577,29	0,647
577,49	0,428
577,69	0,140
577,90	0,333
578,10	0,284
578,30	0,405
578,50	0,248
578,71	0,372
578,91	0,432
579,11	0,556
579,31	0,517
579,52	0,449
579,72	0,298
579,92	0,557
580,12	0,397
580,33	0,200
580,53	0,263
580,73	0,349
580,93	0,499
581,13	0,330
581,34	0,264
581,54	0,384
581,74	0,407
581,94	0,430
582,15	0,443
582,35	0,210
582,55	0,353
582,75	0,333
582,95	0,423
583,16	0,360
583,36	0,288
583,56	0,325
583,76	0,354
583,96	0,313
584,17	0,307
584,37	0,290
584,57	0,346
584,77	0,332
584,97	0,180
585,18	0,299
585,38	0,225
585,58	0,379
585,78	0,215
585,98	0,440
586,19	0,277
586,39	0,375
586,59	0,266
586,79	0,425
586,99	0,212
587,20	0,351
587,40	0,480
587,60	0,302
587,80	0,343
588,00	0,392
588,20	0,401
588,41	0,282
588,61	0,549
588,81	0,317
589,01	0,409
589,21	0,432
589,41	0,261
589,62	0,318
589,82	0,296
590,02	0,387
590,22	0,362
590,42	0,398
590,62	0,330
590,83	0,332
591,03	0,229
591,23	0,320
591,43	0,565
591,63	0,299
591,83	0,319
592,03	0,361
592,24	0,402
592,44	0,459
592,64	0,342
592,84	0,251
593,04	0,314
593,24	0,239
593,44	0,305
593,65	0,253
593,85	0,498
594,05	0,331
594,25	0,324
594,45	0,461
594,65	0,356
594,85	0,292
595,06	0,127
595,26	0,444
595,46	0,370
595,66	0,259
595,86	0,330
596,06	0,292
596,26	0,348
596,46	0,378
596,66	0,258
596,87	0,437
597,07	0,289
597,27	0,243
597,47	0,336
597,67	0,369
597,87	0,188
598,07	0,384
598,27	0,290
598,47	0,378
598,67	0,352
598,88	0,392
599,08	0,340
599,28	0,380
599,48	0,289
599,68	0,451
599,88	0,263
600,08	0,348
600,28	0,465
600,48	0,423
600,68	0,254
600,88	0,493
601,09	0,349
601,29	0,620
601,49	0,294
601,69	0,346
601,89	0,414
602,09	0,408
602,29	0,381
602,49	0,231
602,69	0,407
602,89	0,228
603,09	0,272
603,29	0,414
603,49	0,349
603,69	0,374
603,90	0,215
604,10	0,467
604,30	0,580
604,50	0,422
604,70	0,350
604,90	0,267
605,10	0,312
605,30	0,402
605,50	0,383
605,70	0,452
605,90	0,265
606,10	0,491
606,30	0,374
606,50	0,580
606,70	0,320
606,90	0,136
607,10	0,351
607,30	0,535
607,50	0,371
607,70	0,334
607,90	0,391
608,10	0,398
608,30	0,413
608,50	0,258
608,70	0,603
608,90	0,194
609,11	0,429
609,31	0,389
609,51	0,331
609,71	0,426
609,91	0,401
610,11	0,471
610,31	0,437
610,51	0,505
610,71	0,407
610,91	0,576
611,11	0,286
611,31	0,344
611,51	0,317
611,71	0,313
611,91	0,497
612,11	0,326
612,31	0,554
612,51	0,530
612,71	0,331
612,91	0,257
613,11	0,401
613,31	0,304
613,51	0,358
613,71	0,298
613,91	0,571
614,11	0,610
614,31	0,540
614,50	0,666
614,70	0,425
614,90	0,451
615,10	0,272
615,30	0,346
615,50	0,103
615,70	0,496
615,90	0,420
616,10	0,387
616,30	0,401
616,50	0,361
616,70	0,539
616,90	0,509
617,10	0,529
617,30	0,442
617,50	0,459
617,70	0,415
617,90	0,464
618,10	0,470
618,30	0,190
618,50	0,519
618,70	0,548
618,90	0,346
619,10	0,320
619,30	0,308
619,49	0,525
619,69	0,459
619,89	0,486
620,09	0,365
620,29	0,597
620,49	0,504
620,69	0,406
620,89	0,365
621,09	0,402
621,29	0,433
621,49	0,337
621,69	0,293
621,89	0,534
622,09	0,488
622,29	0,472
622,48	0,603
622,68	0,504
622,88	0,498
623,08	0,542
623,28	0,488
623,48	0,675
623,68	0,587
623,88	0,616
624,08	0,722
624,28	0,951
624,48	0,798
624,67	0,643
624,87	1,007
625,07	1,154
625,27	0,869
625,47	1,090
625,67	1,368
625,87	1,513
626,07	2,221
626,27	3,245
626,47	5,168
626,66	8,046
626,86	12,085
627,06	17,194
627,26	24,875
627,46	34,336
627,66	44,561
627,86	56,749
628,06	66,687
628,25	75,262
628,45	81,349
628,65	86,377
628,85	89,762
629,05	91,334
629,25	93,774
629,45	94,846
629,65	95,685
629,84	96,758
630,04	96,358
630,24	98,197
630,44	98,864
630,64	99,886
630,84	101,963
631,04	100,598
631,23	101,382
631,43	101,589
631,63	102,757
631,83	101,540
632,03	102,810
632,23	101,757
632,42	102,211
632,62	101,579
632,82	101,876
633,02	100,467
633,22	99,856
633,42	99,970
633,62	98,581
633,81	98,132
634,01	99,594
634,21	98,506
634,41	98,885
634,61	99,053
634,80	99,605
635,00	99,018
635,20	102,449
635,40	101,376
635,60	103,048
635,80	102,066
635,99	103,047
636,19	102,216
636,39	102,519
636,59	101,506
636,79	102,523
636,98	101,614
637,18	101,717
637,38	101,344
637,58	101,926
637,78	101,615
637,97	101,299
638,17	101,905
638,37	101,208
638,57	102,160
638,77	102,941
638,96	102,003
639,16	101,823
639,36	101,106
639,56	101,553
639,76	101,738
639,95	101,123
640,15	101,694
640,35	102,688
640,55	101,632
640,75	99,714
640,94	99,679
641,14	98,570
641,34	98,165
641,54	98,903
641,73	97,217
641,93	98,721
642,13	99,413
642,33	100,632
642,53	100,104
642,72	100,461
642,92	99,668
643,12	102,382
643,32	101,372
643,51	101,923
643,71	102,481
643,91	102,424
644,11	101,657
644,30	102,990
644,50	102,190
644,70	101,066
644,90	101,329
645,09	100,468
645,29	100,035
645,49	98,047
645,69	98,850
645,88	99,071
646,08	98,133
646,28	97,999
646,48	95,710
646,67	90,910
646,87	90,043
647,07	84,062
647,26	76,664
647,46	68,602
647,66	58,231
647,86	48,428
648,05	37,779
648,25	29,979
648,45	22,360
648,65	16,024
648,84	11,713
649,04	8,277
649,24	6,004
649,43	4,410
649,63	3,536
649,83	2,545
650,03	2,395
650,22	1,647
650,42	1,278
650,62	1,361
650,81	0,781
651,01	1,238
651,21	1,032
651,40	1,251
651,60	0,698
651,80	0,947
652,00	0,943
652,19	0,705
652,39	0,740
652,59	0,947
652,78	0,813
652,98	0,381
653,18	0,611
653,37	0,844
653,57	1,134
653,77	0,995
653,96	0,890
654,16	0,706
654,36	1,145
654,55	0,750
654,75	0,802
654,95	0,792
655,14	0,440
655,34	1,316
655,54	1,110
655,73	0,877
655,93	0,742
656,13	0,999
656,32	0,537
656,52	0,742
656,72	0,878
656,91	0,865
657,11	0,673
657,31	1,001
657,50	0,716
657,70	0,816
657,90	0,834
658,09	1,059
658,29	0,666
658,49	1,065
658,68	0,721
658,88	0,802
659,07	0,688
659,27	0,541
659,47	0,540
659,66	0,574
659,86	0,297
660,06	0,857
660,25	0,513
660,45	0,764
660,64	0,852
660,84	0,584
661,04	0,683
661,23	0,764
661,43	0,711
661,63	0,585
661,82	0,503
662,02	0,756
662,21	0,942
662,41	0,962
662,61	1,145
662,80	0,738
663,00	0,425
663,19	1,162
663,39	0,458
663,59	1,085
663,78	0,550
663,98	0,710
664,17	0,792
664,37	0,767
664,57	0,728
664,76	0,671
664,96	0,290
665,15	0,570
665,35	0,568
665,55	0,547
665,74	0,683
665,94	0,565
666,13	0,549
666,33	0,599
666,53	0,952
666,72	0,733
666,92	0,882
667,11	0,640
667,31	0,157
667,50	0,497
667,70	0,674
667,90	0,605
668,09	0,828
668,29	0,409
668,48	0,293
668,68	0,715
668,87	0,685
669,07	0,216
669,26	0,601
669,46	0,753
669,66	0,578
669,85	0,576
670,05	0,505
670,24	0,664
670,44	0,417
670,63	0,623
670,83	0,523
671,02	0,634
671,22	0,751
671,42	0,386
671,61	0,401
671,81	0,492
672,00	0,938
672,20	0,380
672,39	0,683
672,59	0,143
672,78	0,566
672,98	0,437
673,17	0,504
673,37	0,554
673,56	0,573
673,76	0,517
673,95	0,511
674,15	0,505
674,34	0,536
674,54	0,599
674,73	0,548
674,93	0,596
675,13	0,613
675,32	0,932
675,52	0,818
675,71	0,748
675,91	0,640
676,10	0,762
676,30	0,734
676,49	0,244
676,69	0,642
676,88	0,257
677,08	0,419
677,27	0,417
677,47	0,605
677,66	0,672
677,86	0,762
678,05	0,319
678,24	0,572
678,44	0,765
678,63	0,436
678,83	0,334
679,02	0,418
679,22	0,407
679,41	0,779
679,61	0,400
679,80	0,521
680,00	0,438
680,19	0,386
680,39	0,516
680,58	0,395
680,78	0,161
680,97	0,336
681,17	0,634
681,36	0,102
681,56	0,460
681,75	0,279
681,94	0,276
682,14	0,734
682,33	0,342
682,53	0,309
682,72	0,484
682,92	0,709
683,11	0,021
683,31	0,472
683,50	0,193
683,69	0,407
683,89	0,339
684,08	0,360
684,28	0,189
684,47	0,366
684,67	0,317
684,86	0,286
685,06	0,419
685,25	0,462
685,44	0,329
685,64	0,526
685,83	0,503
686,03	0,309
686,22	0,381
686,42	0,217
686,61	0,195
686,80	0,178
687,00	0,131
687,19	0,377
687,39	0,302
687,58	0,260
687,77	0,387
687,97	0,422
688,16	0,413
688,36	0,222
688,55	0,217
688,74	0,047
688,94	0,320
689,13	0,252
689,33	0,200
689,52	0,305
689,71	0,294
689,91	0,230
690,10	0,326
690,30	0,028
690,49	0,131
690,68	0,369
690,88	0,262
691,07	0,257
691,27	0,278
691,46	0,371
691,65	0,138
691,85	0,149
692,04	0,261
692,23	0,091
692,43	0,376
692,62	0,283
692,82	0,232
693,01	0,382
693,20	0,189
693,40	0,264
693,59	0,170
693,78	0,337
693,98	0,045
694,17	0,308
694,36	0,593
694,56	0,249
694,75	0,409
694,94	0,295
695,14	0,306
695,33	0,352
695,53	0,325
695,72	0,581
695,91	0,023
696,11	0,343
696,30	0,245
696,49	0,342
696,69	0,386
696,88	0,223
697,07	0,182
697,27	0,441
697,46	0,489
697,65	0,341
697,85	0,263
698,04	0,502
698,23	0,213
698,43	0,643
698,62	-0,051
698,81	0,690
699,01	0,677
699,20	0,316
699,39	0,620
699,58	0,270
699,78	0,299
699,97	0,165
700,16	0,218
700,36	0,760
700,55	0,906
700,74	0,963
700,94	0,260
701,13	0,209
701,32	0,233
701,52	0,359
701,71	0,727
701,90	0,609
702,09	1,138
702,29	0,997
702,48	0,376
702,67	0,916
702,87	1,244
703,06	0,826
703,25	1,493
703,44	0,793
703,64	0,691
703,83	1,218
704,02	1,628
704,22	1,063
704,41	0,526
704,60	1,012
704,79	1,090
704,99	1,655
705,18	1,558
705,37	1,103
705,56	0,760
705,76	1,572
705,95	1,384
706,14	1,354
706,33	0,769
706,53	1,196
706,72	0,649
706,91	2,186
707,11	1,161
707,30	1,235
707,49	1,756
707,68	1,387
707,88	1,529
708,07	0,609
708,26	1,765
708,45	1,402
708,64	3,168
708,84	2,102
709,03	2,379
709,22	1,644
709,41	3,690
709,61	2,378
709,80	3,263
709,99	2,073
710,18	3,484
710,38	0,629
710,57	1,303
710,76	1,049
710,95	2,164
711,14	2,052
711,34	2,822
711,53	3,325
711,72	3,961
711,91	2,472
712,11	2,816
712,30	1,501
712,49	1,302
712,68	0,871
712,87	1,837
713,07	3,332
713,26	4,456
713,45	0,999
713,64	2,794
713,83	2,243
714,03	3,223
714,22	2,805
714,41	1,862
714,60	3,702
714,79	0,192
714,99	3,648
715,18	4,539
715,37	4,491
715,56	2,996
715,75	2,801
715,94	5,364
716,14	4,295
716,33	4,683
716,52	3,983
716,71	7,333
716,90	3,108
717,10	2,673
717,29	3,602
717,48	4,561
717,67	3,328
717,86	3,460
718,05	2,986
718,24	4,281
718,44	3,614
718,63	3,589
718,82	4,372
719,01	2,055
719,20	5,016
719,39	3,333
719,59	3,190
719,78	3,407
719,97	4,418
720,16	5,847
720,35	2,546
720,54	1,607
720,73	4,300
720,93	4,266
721,12	-0,072
721,31	1,603
721,50	6,255
721,69	7,138
721,88	7,527
722,07	2,326
722,27	4,918
722,46	6,447
722,65	2,701
722,84	6,371
723,03	2,544
723,22	3,948
723,41	4,153
723,60	0,327
723,79	9,818
723,99	7,628
724,18	4,480
724,37	1,726
724,56	6,985
724,75	5,478
724,94	9,882
725,13	4,979
725,32	10,981
725,51	5,023
725,71	6,655
725,90	8,790
726,09	5,388
726,28	4,766
726,47	3,353
726,66	4,783
726,85	6,161
727,04	3,670
727,23	4,871
727,42	6,797
727,61	5,247
727,81	0,000
728,00	5,198
728,19	7,476
728,38	-1,310
728,57	10,417
728,76	7,618
728,95	7,292
729,14	3,571
729,33	9,247
729,52	9,674
729,71	8,351
729,90	6,813
730,09	7,260
730,28	5,964
730,48	9,594
730,67	10,937
730,86	10,047
731,05	3,967
731,24	5,976
731,43	11,034
731,62	8,820
731,81	4,086
732,00	14,371
732,19	9,375
732,38	10,128
732,57	5,012
732,76	9,029
732,95	7,079
733,14	1,865
733,33	-1,058
733,52	8,427
733,71	1,291
733,90	4,661
734,09	9,730
734,28	4,724
734,47	6,806
734,66	7,086
734,85	2,714
735,04	8,702
735,23	15,126
735,42	8,333
735,61	10,787
735,81	10,355
736,00	6,410
736,19	7,295
736,38	7,186
736,57	4,938
736,76	7,737
736,95	5,573
737,14	13,876
737,33	10,750
737,52	11,231
737,71	7,049
737,90	9,119
738,09	5,784
738,28	14,051
738,47	6,752
738,66	9,455
738,85	9,910
739,04	6,346
739,22	9,699
739,41	6,985
739,60	5,461
739,79	4,856
739,98	8,065
740,17	10,922
740,36	8,137
740,55	13,376
740,74	13,894
740,93	2,677
741,12	9,286
741,31	10,035
741,50	7,940
741,69	18,230
741,88	2,767
742,07	13,768
742,26	12,381
742,45	17,828
742,64	8,227
742,83	18,407
743,02	7,789
743,21	15,704
743,40	9,110
743,59	17,463
743,78	9,785
743,97	16,538
744,16	9,252
744,34	8,858
744,53	11,959
744,72	6,263
744,91	6,513
745,10	22,222
745,29	20,161
745,48	19,318
745,67	13,440
745,86	24,062
746,05	16,114
746,24	8,041
746,43	13,062
746,62	16,595
746,81	12,584
747,00	11,379
747,18	17,211
747,37	16,632
747,56	20,235
747,75	9,360
747,94	30,825
748,13	20,805
748,32	10,476
748,51	17,259
748,70	8,811
748,89	15,457
749,08	1,744
749,26	19,604
749,45	7,507
749,64	19,647
749,83	22,697
750,02	19,565
750,21	8,906
750,40	24,291
750,59	14,477
750,78	17,207
750,96	21,271
751,15	19,159
751,34	-1,705
751,53	10,383
751,72	20,282
751,91	15,803
752,10	17,801
752,29	11,733
752,47	7,450
752,66	15,556
752,85	18,306
753,04	14,525
753,23	13,622
753,42	12,399
753,61	20,376
753,80	12,371
753,98	18,434
754,17	5,471
754,36	19,677
754,55	11,446
754,74	6,818
754,93	27,824
755,12	21,662
755,30	26,299
755,49	26,453
755,68	16,564
755,87	14,201
756,06	12,153
756,25	19,149
756,43	3,020
756,62	20,186
756,81	15,563
757,00	28,947
757,19	6,944
757,38	4,633
757,56	12,400
757,75	29,693
757,94	12,928
758,13	12,329
758,32	25,223
758,51	11,448
758,69	18,147
758,88	18,855
759,07	30,240
759,26	35,689
759,45	21,053
759,63	32,900
759,82	23,860
760,01	30,037
760,20	32,704
760,39	33,754
760,57	20,906
760,76	26,481
760,95	33,681
761,14	31,387
761,33	42,581
761,51	14,286
761,70	37,918
761,89	34,667
762,08	30,855
762,27	19,495
762,45	17,391
762,64	25,126
762,83	38,645
763,02	32,174
763,21	-5,000
763,39	16,783
763,58	6,691
763,77	16,878
763,96	26,295
764,14	12,083
764,33	5,238
764,52	30,357
764,71	15,082
764,89	18,750
765,08	48,768
765,27	14,894
765,46	43,498
765,65	38,039
765,83	49,321
766,02	8,571
766,21	13,115
766,40	44,358
766,58	30,688
766,77	19,725
766,96	42,276
767,15	40,756
767,33	29,469
767,52	29,694
767,71	16,228
767,90	44,221
768,08	21,557
768,27	34,553
768,46	40,789
768,64	36,111
768,83	31,863
769,02	7,389
769,21	51,042
769,39	51,429
769,58	35,065
769,77	32,979
769,96	28,829
770,14	37,705
770,33	47,196
770,52	30,935
770,70	25,946
770,89	35,135
771,08	26,506
771,27	45,789
771,45	30,000
771,64	48,485
771,83	32,843
772,01	63,918
772,20	48,756
772,39	31,013
772,57	39,303
772,76	39,865
772,95	33,333
773,14	42,857
773,32	24,859
773,51	56,548
773,70	55,396
773,88	52,903
774,07	45,685
774,26	15,323
774,44	53,383
774,63	56,287
774,82	18,182
775,00	37,850
775,19	20,238
775,38	35,638
775,56	42,857
775,75	39,560
775,94	42,500
776,12	50,980
776,31	45,865
776,50	19,178
776,68	47,849
776,87	44,498
777,06	42,767
777,24	44,538
777,43	39,572
777,62	46,629
777,80	55,975
777,99	75,833
778,18	35,632
778,36	82,203
778,55	39,831
778,74	23,437
778,92	45,679
779,11	40,909
779,29	0,000
779,48	51,064
779,67	50,450
779,85	11,404
780,04	11,594
780,23	36,905
780,41	44,068
780,60	55,034
780,79	52,419
780,97	41,830
781,16	34,574
781,34	52,703
781,53	53,571
781,72	18,919
781,90	24,551
782,09	70,930
782,28	59,864
782,46	59,286
782,65	63,380
782,83	32,075
783,02	94,737
783,21	60,902
783,39	55,462
783,58	61,739
783,76	56,463
783,95	49,296
784,14	109,211
784,32	21,176
784,51	50,676
784,69	7,812
784,88	21,495
785,06	63,576
785,25	48,227
785,44	43,548
785,62	42,143
785,81	48,148
785,99	55,639
786,18	48,649
786,37	31,868
786,55	40,972
786,74	58,182
786,92	52,448
787,11	38,194
787,29	11,607
787,48	58,065
787,67	79,245
787,85	118,987
788,04	73,874
788,22	22,772
788,41	81,890
788,59	40,132
788,78	19,780
788,96	54,545
789,15	52,500
789,34	60,577
789,52	77,419
789,71	74,101
789,89	49,351
790,08	57,500
790,26	85,350
790,45	86,111
790,63	56,322
790,82	56,923
791,00	36,283
791,19	60,800
791,38	34,286
791,56	71,818
791,75	56,944
791,93	47,000
792,12	86,957
792,30	46,715
792,49	15,152
792,67	58,088
792,86	48,000
793,04	37,963
793,23	71,579
793,41	45,652
793,60	49,306
793,78	57,143
793,97	72,917
794,15	96,241
794,34	13,333
794,52	25,806
794,71	49,612
794,89	50,000
795,08	52,000
795,26	81,333
795,45	75,000
795,63	51,613
795,82	50,549
796,00	72,000
796,19	85,366
796,37	32,061
796,56	30,097
796,74	50,526
796,93	68,182
797,11	51,807
797,30	44,444
797,48	53,906
797,67	66,667
797,85	52,308
798,04	55,085
798,22	150,000
798,41	23,077
798,59	43,810
798,77	51,807
798,96	68,519
799,14	70,161
799,33	94,495
799,51	94,444
799,70	101,538
799,88	86,239
800,07	76,336
800,25	36,145
800,44	98,148
800,62	72,222
800,80	30,986
800,99	91,781
801,17	78,448
801,36	85,000
801,54	69,000
801,73	70,526
801,91	70,248
802,10	43,529
802,28	44,800
802,46	73,684
802,65	66,187
802,83	90,667
803,02	84,677
803,20	72,289
803,39	113,793
803,57	41,732
803,75	71,545
803,94	49,206
804,12	86,897
804,31	36,232
804,49	29,600
804,67	17,647
804,86	98,230
805,04	37,349
805,23	93,805
805,41	61,667
805,59	75,342
805,78	88,800
805,96	89,157
806,15	86,139
806,33	73,684
806,51	25,333
806,70	65,414
806,88	55,814
807,07	81,982
807,25	102,198
807,43	44,643
807,62	81,416
807,80	55,238
807,99	79,231
808,17	35,433
808,35	55,000
808,54	57,246
808,72	87,387
808,90	30,137
809,09	80,435
809,27	70,667
809,46	76,923
809,64	71,951
809,82	50,993
810,01	50,781
810,19	101,010
810,37	42,969
810,56	101,111
810,74	88,312
810,92	54,000
811,11	32,456
811,29	70,755
811,48	50,769
811,66	43,820
811,84	91,209
812,03	55,738
812,21	82,456
812,39	65,217
812,58	84,211
812,76	74,101
812,94	28,916
813,13	24,468
813,31	51,000
813,49	94,444
813,68	78,182
813,86	78,652
814,04	49,587
814,23	51,205
814,41	41,573
814,59	111,650
814,78	49,265
814,96	51,572
815,14	71,028
815,33	81,395
815,51	69,291
815,69	56,190
815,87	32,673
816,06	74,783
816,24	54,037
816,42	76,471
816,61	59,748
816,79	67,241
816,97	56,818
817,16	40,828
817,34	46,825
817,52	71,901
817,70	54,455
817,89	48,148
818,07	74,658
818,25	63,265
818,44	69,231
818,62	64,341
818,80	29,323
818,98	43,312
819,17	82,353
819,35	49,468
819,53	59,701
819,72	74,051
819,90	56,589
820,08	26,496
820,26	50,862
820,45	28,188
820,63	107,143
820,81	44,800
820,99	39,007
821,18	45,578
821,36	63,291
821,54	62,069
821,73	60,556
821,91	78,070
822,09	33,065
822,27	67,742
822,46	47,059
822,64	14,400
822,82	56,354
823,00	36,464
823,19	42,308
823,37	41,818
823,55	28,409
823,73	54,483
823,91	60,145
824,10	38,172
824,28	65,327
824,46	-8,738
824,64	48,684
824,83	37,888
825,01	18,000
825,19	50,806
825,37	60,870
825,56	34,906
825,74	42,347
825,92	55,414
826,10	42,614
826,28	24,405
826,47	36,316
826,65	78,723
826,83	32,759
827,01	58,960
827,19	50,595
827,38	49,383
827,56	49,432
827,74	30,726
827,92	37,209
828,10	28,846
828,29	44,379
828,47	40,650
828,65	26,923
828,83	29,091
829,01	32,609
829,20	25,275
829,38	40,341
829,56	37,500
829,74	32,704
829,92	23,016
830,10	24,713
830,29	43,719
830,47	28,141
830,65	24,390
830,83	33,482
831,01	46,429
831,20	62,621
831,38	32,536
831,56	53,488
831,74	64,929
831,92	59,868
832,10	31,905
832,29	31,757
832,47	15,730
832,65	49,020
832,83	33,803
833,01	47,500
833,19	31,222
833,37	39,367
833,56	13,080
833,74	32,843
833,92	16,204
834,10	38,174
834,28	35,443
834,46	31,674
834,64	52,315
834,83	46,818
835,01	50,622
835,19	43,600
835,37	33,884
835,55	40,104
835,73	15,271
835,91	49,815
836,09	21,293
836,28	23,985
836,46	21,200
836,64	38,722
836,82	37,557
837,00	20,290
837,18	35,688
837,36	32,669
837,54	35,455
837,72	31,466
837,91	25,373
838,09	10,757
838,27	24,000
838,45	36,525
838,63	26,838
838,81	24,473
838,99	21,774
839,17	28,716
839,35	30,496
839,53	17,895
839,72	32,331
839,90	21,649
840,08	38,769
840,26	7,540
840,44	26,888
840,62	22,759
840,80	37,415
840,98	41,569
841,16	24,335
841,34	17,391
841,52	21,407
841,70	26,769
841,89	34,274
842,07	17,241
842,25	35,057
842,43	9,914
842,61	29,474
842,79	11,299
842,97	20,195
843,15	30,363
843,33	13,249
843,51	27,410
843,69	34,758
843,87	6,716
844,05	10,942
844,23	37,838
844,41	15,047
844,59	19,597
844,77	19,048
844,95	10,694
845,13	26,154
845,31	9,593
845,50	25,654
845,68	18,006
845,86	6,322
846,04	33,520
846,22	12,262
846,40	22,581
846,58	16,809
846,76	31,989
846,94	19,451
847,12	19,948
847,30	18,814
847,48	16,718
847,66	15,271
847,84	17,213
848,02	26,812
848,20	23,256
848,38	11,966
848,56	17,045
848,74	23,628
848,92	7,481
849,10	6,250
849,28	16,397
849,46	18,933
849,64	18,938
849,82	15,432
850,00	26,168
850,18	16,383
850,36	11,258
850,54	16,291
850,72	16,710
850,90	30,217
851,08	17,287
851,26	22,538
851,44	4,867
851,62	19,070
851,80	25,771
851,98	20,000
852,16	16,785
852,34	15,464
852,52	18,527
852,70	10,478
852,87	18,037
853,05	10,331
853,23	14,433
853,41	17,234
853,59	19,917
853,77	23,016
853,95	23,629
854,13	12,611
854,31	17,043
854,49	18,962
854,67	12,311
854,85	15,735
855,03	15,631
855,21	7,368
855,39	5,634
855,57	7,348
855,75	17,883
855,93	15,882
856,11	25,919
856,28	17,343
856,46	20,641
856,64	15,429
856,82	13,058
857,00	14,402
857,18	7,220
857,36	13,322
857,54	16,782
857,72	6,140
857,90	8,303
858,08	11,765
858,26	0,207
858,44	8,967
858,61	15,505
858,79	11,938
858,97	15,044
859,15	16,409
859,33	12,813
859,51	7,370
859,69	8,050
859,87	7,908
860,05	9,059
860,23	16,396
860,40	14,057
860,58	7,541
860,76	14,603
860,94	11,057
861,12	14,769
861,30	11,303
861,48	14,571
861,66	9,841
861,84	7,025
862,01	16,053
862,19	3,898
862,37	10,893
862,55	11,816
862,73	10,526
862,91	1,615
863,09	11,607
863,27	5,029
863,44	9,732
863,62	6,793
863,80	7,454
863,98	10,979
864,16	2,312
864,34	13,296
864,52	13,941
864,69	10,234
864,87	6,078
865,05	7,619
865,23	10,327
865,41	14,651
865,59	7,672
865,76	8,797
865,94	12,791
866,12	7,484
866,30	3,366
866,48	11,750
866,66	6,586
866,83	15,903
867,01	7,161
867,19	5,332
867,37	3,105
867,55	8,961
867,73	5,649
867,90	2,754
868,08	11,971
868,26	8,088
868,44	6,917
868,62	7,617
868,79	12,600
868,97	7,557
869,15	3,248
869,33	6,227
869,51	6,736
869,69	6,220
869,86	10,877
870,04	11,954
870,22	7,903
870,40	9,357
870,57	6,113
870,75	7,956
870,93	8,105
871,11	9,091
871,29	9,018
871,46	5,408
871,64	9,623
871,82	6,889
872,00	8,848
872,18	6,435
872,35	9,781
872,53	5,154
872,71	9,082
872,89	12,208
873,06	10,800
873,24	7,953
873,42	6,647
873,60	6,744
873,77	6,646
873,95	2,999
874,13	6,025
874,31	6,605
874,49	6,583
874,66	5,263
874,84	4,213
875,02	8,158
875,20	7,192
875,37	7,404
875,55	8,397
875,73	4,371
875,91	5,576
876,08	7,678
876,26	2,473
876,44	9,209
876,61	7,736
876,79	9,974
876,97	2,737
877,15	3,436
877,32	5,712
877,50	2,566
877,68	5,398
877,86	1,020
878,03	8,271
878,21	5,305
878,39	6,897
878,56	1,240
878,74	7,492
878,92	2,260
879,10	6,918
879,27	6,939
879,45	5,873
879,63	7,298
879,80	7,260
879,98	3,160
880,16	5,968
880,34	5,158
880,51	4,732
880,69	2,902
880,87	5,382
881,04	6,151
881,22	8,140
881,40	5,668
881,57	3,862
881,75	4,224
881,93	5,787
882,10	4,919
882,28	4,897
882,46	6,096
882,63	6,097
882,81	9,287
882,99	4,172
883,16	4,205
883,34	2,607
883,52	6,573
883,69	8,923
883,87	1,628
884,05	3,167
884,22	5,936
884,40	5,484
884,58	1,354
884,75	5,228
884,93	5,839
885,11	5,943
885,28	2,246
885,46	0,492
885,64	4,031
885,81	2,591
885,99	2,045
886,17	4,016
886,34	2,787
886,52	1,807
886,70	6,794
886,87	2,610
887,05	3,535
887,22	3,597
887,40	4,451
887,58	1,497
887,75	4,994
887,93	5,501
888,11	4,807
888,28	2,389
888,46	4,008
888,63	4,455
888,81	3,439
888,99	4,848
889,16	3,751
889,34	3,330
889,51	3,152
889,69	0,907
889,87	4,871
890,04	3,645
890,22	3,657
890,39	1,935
890,57	3,133
890,75	2,665
890,92	4,394
891,10	1,876
891,27	2,506
891,45	4,483
891,63	4,661
891,80	4,088
891,98	2,115
892,15	3,894
892,33	3,323
892,51	4,368
892,68	4,665
892,86	3,557
893,03	2,654
893,21	3,126
893,38	2,541
893,56	2,682
893,74	2,070
893,91	4,674
894,09	4,410
894,26	4,187
894,44	3,330
894,61	2,169
894,79	2,548
894,96	2,858
895,14	4,915
895,32	4,742
895,49	2,769
895,67	2,027
895,84	3,301
896,02	1,847
896,19	2,196
896,37	3,493
896,54	2,598
896,72	3,612
896,89	3,680
897,07	4,871
897,25	3,749
897,42	3,777
897,60	4,405
897,77	3,701
897,95	3,884
898,12	4,411
898,30	2,248
898,47	1,825
898,65	2,232
898,82	1,049
899,00	1,927
899,17	1,734
899,35	2,640
899,52	5,068
899,70	2,137
899,87	1,069
900,05	1,750
900,22	2,629
900,40	0,908
900,57	2,338
900,75	1,457
900,92	3,040
901,10	3,647
901,27	2,776
901,45	3,213
901,62	3,035
901,80	1,567
901,97	3,165
902,15	2,568
902,32	4,024
902,50	1,399
902,67	5,127
902,85	3,957
903,02	2,925
903,20	2,818
903,37	0,854
903,54	2,622
903,72	2,865
903,89	2,669
904,07	1,319
904,24	3,658
904,42	1,408
904,59	1,000
904,77	3,254
904,94	0,856
905,12	1,630
905,29	1,826
905,47	2,475
905,64	1,395
905,81	0,800
905,99	1,715
906,16	1,353
906,34	2,602
906,51	1,969
906,69	0,863
906,86	1,943
907,03	2,153
907,21	0,066
907,38	2,791
907,56	1,840
907,73	1,571
907,91	2,352
908,08	3,042
908,25	3,196
908,43	0,302
908,60	1,715
908,78	0,590
908,95	2,971
909,13	3,961
909,30	2,370
909,47	1,044
909,65	2,489
909,82	2,634
910,00	2,478
910,17	1,758
910,34	2,926
910,52	1,277
910,69	2,303
910,87	2,851
911,04	2,332
911,21	2,726
911,39	1,094
911,56	2,179
911,73	1,412
911,91	3,078
912,08	3,008
912,26	0,815
912,43	1,598
912,60	1,941
912,78	2,728
912,95	2,070
913,13	1,905
913,30	2,699
913,47	2,317
913,65	3,382
913,82	1,786
913,99	1,746
914,17	2,628
914,34	1,809
914,51	3,487
914,69	1,549
914,86	2,710
915,03	2,275
915,21	1,808
915,38	1,879
915,56	2,779
915,73	1,535
915,90	2,758
916,08	2,744
916,25	2,203
916,42	2,141
916,60	3,113
916,77	2,510
916,94	1,613
917,12	1,971
917,29	1,709
917,46	1,922
917,64	1,558
917,81	1,369
917,98	1,092
918,16	1,927
918,33	1,642
918,50	1,829
918,67	1,916
918,85	0,435
919,02	1,010
919,19	1,199
919,37	1,598
919,54	2,316
919,71	2,527
919,89	0,938
920,06	2,100
920,23	0,716
920,41	2,294
920,58	1,742
920,75	2,045
920,92	1,572
921,10	1,899
921,27	0,300
921,44	3,200
921,62	1,470
921,79	1,613
921,96	1,275
922,13	1,426
922,31	1,483
922,48	1,276
922,65	1,726
922,82	1,628
923,00	2,607
923,17	1,369
923,34	2,189
923,52	1,568
923,69	1,828
923,86	2,140
924,03	1,345
924,21	1,441
924,38	1,541
924,55	2,712
924,72	1,016
924,90	1,537
925,07	1,182
925,24	1,721
925,41	2,447
925,59	1,142
925,76	0,739
925,93	1,953
926,10	1,883
926,28	0,658
926,45	0,908
926,62	1,060
926,79	0,957
926,96	2,340
927,14	2,136
927,31	1,037
927,48	1,192
927,65	1,665
927,83	1,655
928,00	1,228
928,17	1,347
928,34	1,367
928,51	1,030
928,69	1,496
928,86	0,962
929,03	1,866
929,20	0,926
929,37	1,553
929,55	2,063
929,72	1,734
929,89	1,236
930,06	1,836
930,23	1,780
930,41	1,166
930,58	1,073
930,75	1,660
930,92	1,382
931,09	1,843
931,27	1,341
931,44	0,777
931,61	0,908
931,78	1,502
931,95	0,837
932,12	2,505
932,30	1,810
932,47	0,495
932,64	1,989
932,81	1,501
932,98	0,931
933,16	1,229
933,33	1,378
933,50	1,649
933,67	1,233
933,84	1,884
934,01	1,731
934,18	1,004
934,36	1,884
934,53	2,133
934,70	1,066
934,87	1,154
935,04	1,535
935,21	0,612
935,38	0,982
935,56	1,007
935,73	1,337
935,90	1,627
936,07	1,021
936,24	2,136
936,41	0,907
936,58	0,751
936,76	1,395
936,93	1,122
937,10	1,663
937,27	1,992
937,44	0,797
937,61	1,246
937,78	1,468
937,95	1,624
938,13	1,438
938,30	1,188
938,47	1,184
938,64	1,520
938,81	0,815
938,98	1,237
939,15	1,508
939,32	0,984
939,49	0,816
939,66	1,193
939,84	0,303
940,01	0,811
940,18	1,417
940,35	1,233
940,52	0,986
940,69	0,283
940,86	2,152
941,03	1,237
941,20	1,519
941,37	1,026
941,54	1,307
941,71	1,381
941,89	1,423
942,06	0,482
942,23	1,957
942,40	1,179
942,57	1,956
942,74	1,020
942,91	2,038
943,08	1,559
943,25	1,354
943,42	0,977
943,59	1,427
943,76	2,049
943,93	0,112
944,10	0,855
944,27	0,940
944,44	1,221
944,61	0,644
944,79	2,178
944,96	1,534
945,13	0,562
945,30	1,871
945,47	1,207
945,64	2,305
945,81	0,829
945,98	0,621
946,15	2,217
946,32	2,595
946,49	1,178
946,66	1,835
946,83	1,326
947,00	2,630
947,17	0,870
947,34	1,567
947,51	2,106
947,68	1,756
947,85	1,433
948,02	2,850
948,19	1,913
948,36	2,563
948,53	0,524
948,70	1,213
948,87	2,840
949,04	2,677
949,21	1,130
949,38	2,865
949,55	3,129
949,72	1,106
949,89	3,172
950,06	1,994
950,23	1,615
950,40	1,797
950,57	2,385
950,74	2,282
950,91	1,174
951,08	2,540
951,25	1,304
951,42	2,449
951,59	1,064
951,76	2,706
951,93	2,188
952,10	2,418
952,27	0,845
952,44	2,473
952,61	1,975
952,77	2,357
952,94	1,242
953,11	3,405
953,28	3,872
953,45	3,821
953,62	2,903
953,79	2,222
953,96	3,666
954,13	3,473
954,30	5,765
954,47	2,740
954,64	1,772
954,81	3,359
954,98	3,820
955,15	1,209
955,32	4,005
955,49	1,540
955,65	3,323
955,82	4,290
955,99	5,948
956,16	6,212
956,33	2,080
956,50	3,245
956,67	3,631
956,84	6,290
957,01	5,000
957,18	6,160
957,35	5,941
957,52	5,556
957,68	6,518
957,85	5,877
958,02	6,146
958,19	6,467
958,36	7,886
958,53	6,421
958,70	9,674
958,87	4,691
959,04	4,294
959,21	10,989
959,37	8,952
959,54	6,597
959,71	7,996
959,88	3,605
960,05	9,662
960,22	11,824
960,39	4,523
960,56	8,312
960,72	12,742
960,89	3,087
961,06	6,094
961,23	6,269
961,40	13,363
961,57	9,265
961,74	6,912
961,90	12,192
962,07	9,417
962,24	10,433
962,41	8,276
962,58	14,047
962,75	14,530
962,92	9,123
963,08	4,375
963,25	10,359
963,42	17,269
963,59	5,544
963,76	12,326
963,93	15,682
964,10	9,729
964,26	17,857
964,43	12,791
964,60	13,689
964,77	9,620
964,94	17,531
965,10	7,521
965,27	5,587
965,44	1,905
965,61	33,219
965,78	19,255
965,95	24,129
966,11	24,545
966,28	14,246
966,45	7,516
966,62	11,498
966,79	19,113
966,95	9,964
967,12	19,365
967,29	34,259
967,46	31,317
967,63	42,353
967,79	27,181
967,96	8,257
968,13	22,381
968,30	44,033
968,47	26,923
968,63	28,922
968,80	26,820
968,97	38,728
969,14	36,158
969,31	34,184
969,47	48,370
969,64	25,824
969,81	21,935
969,98	36,842
970,14	31,183
970,31	16,352
970,48	65,101
970,65	40,496
970,81	39,161
970,98	35,938
971,15	61,212
971,32	52,273
971,48	79,167
971,65	47,020
971,82	80,000
971,99	47,468
972,15	10,465
972,32	44,444
972,49	53,279
972,66	38,017
972,82	44,521
972,99	61,250
973,16	54,305
973,33	57,037
973,49	97,561
973,66	64,762
973,83	120,988
974,00	48,101
974,16	101,818
974,33	85,333
974,50	115,152
974,67	57,143
974,83	62,245
975,00	96,364
975,17	67,742
975,33	144,828
975,50	98,361
975,67	76,923
975,84	85,366
976,00	109,211
976,17	113,043
976,34	94,118
976,50	72,527
976,67	70,238
976,84	175,000
977,00	87,179
977,17	122,222
977,34	173,077
977,50	97,619
977,67	71,765
977,84	198,305
978,01	90,541
978,17	177,586
978,34	148,148
978,51	224,000
978,67	157,143
978,84	87,273
979,01	100,000
979,17	74,286
979,34	143,478
979,51	154,545
979,67	145,833
979,84	189,831
980,01	113,462
980,17	111,765
980,34	79,452
980,51	800,000
980,67	93,333
980,84	120,000
981,01	294,118
981,17	136,765
981,34	57,143
981,50	131,579
981,67	169,048
981,84	185,714
982,00	2800,000
982,17	167,188
982,34	180,488
982,50	0,000
982,67	-600,000
982,84	265,000
983,00	103,704
983,17	-514,286
983,33	766,667
983,50	109,756
983,67	131,884
983,83	223,810
984,00	200,000
984,17	877,778
984,33	-535,714
984,50	210,811
984,66	168,750
984,83	637,500
985,00	507,692
985,16	187,097
985,33	3650,000
985,49	111,628
985,66	175,000
985,83	-2100,000
985,99	266,667
986,16	447,368
986,32	105,479
986,49	-360,000
986,66	460,000
986,82	224,242
986,99	-360,000
987,15	203,030
987,32	229,412
987,49	328,571
987,65	-143,478
987,82	-120,000
987,98	159,091
988,15	514,286
988,31	211,429
988,48	131,373
988,65	500,000
988,81	34,545
988,98	283,784
989,14	810,000
989,31	132,203
989,47	-100,000
989,64	322,222
989,80	151,064
989,97	169,091
990,14	600,000
990,30	-787,500
990,47	-250,000
990,63	176,316
990,80	1200,000
990,96	625,000
991,13	176,667
991,29	239,216
991,46	145,833
991,62	0,000
991,79	-290,000
991,95	423,529
992,12	1950,000
992,29	-219,048
992,45	192,857
992,62	-57,143
992,78	-666,667
992,95	229,032
993,11	612,500
993,28	-1800,000
993,44	-206,897
993,61	175,439
993,77	0,000
993,94	258,974
994,10	557,143
994,27	-102,632
994,43	168,750
994,60	1000,000
994,76	296,970
994,93	-670,000
995,09	-693,750
995,26	341,667
995,42	862,500
995,59	330,000
995,75	-733,333
995,92	-1300,000
996,08	-1620,000
996,25	218,182
996,41	720,000
996,58	272,000
996,74	-520,000
996,91	162,903
997,07	316,000
997,23	160,784
997,40	850,000
997,56	-1600,000
997,73	469,565
997,89	1920,000
998,06	124,561
998,22	170,213
998,39	193,878
998,55	521,053
998,72	-7400,000
998,88	130,000
999,05	613,333
999,21	329,412
999,37	204,651
999,54	248,387
999,70	257,143
999,87	900,000
1000,03	353,333
1000,20	214,286
1000,36	-937,500
1000,52	1900,000
1000,69	532,000
1000,85	-350,000
1001,02	414,286
1001,18	1380,000
1001,35	0,000
1001,51	535,714
1001,67	280,000
1001,84	114,634
1002,00	-481,818
1002,17	950,000
1002,33	-637,500
1002,50	625,000
1002,66	837,500
1002,82	185,366
1002,99	-368,182
1003,15	-5800,000
1003,32	-207,143
1003,48	-1066,667
1003,64	300,000
1003,81	-78,947
1003,97	165,217
1004,14	-129,091
1004,30	418,182
1004,46	-8000,000
1004,63	-300,000
1004,79	181,081
1004,95	-1280,000
1005,12	-330,769
1005,28	241,667
1005,45	-1033,333
1005,61	730,769
1005,77	-800,000
1005,94	217,391
1006,10	-630,000
1006,26	-262,963
1006,43	193,939
1006,59	277,419
1006,76	-284,000
1006,92	260,870
1007,08	150,000
1007,25	233,333
1007,41	286,364
1007,57	-488,235
1007,74	326,087
1007,90	-600,000
1008,06	-260,000
1008,23	-94,737
1008,39	280,556
1008,55	116,471
1008,72	-812,500
1008,88	-128,571
1009,04	-877,778
1009,21	246,875
1009,37	270,968
1009,53	-500,000
1009,70	18,182
1009,86	315,789
1010,02	236,364
1010,19	846,667
1010,35	11300,000
1010,51	274,286
1010,68	245,455
1010,84	290,000
1011,00	421,429
1011,17	2700,000
1011,33	365,385
1011,49	537,500
1011,66	346,875
1011,82	-1008,333
1011,98	760,000
1012,14	676,923
1012,31	286,364
1012,47	-1114,286
1012,63	8200,000
1012,80	477,778
1012,96	69,444
1013,12	-137,037
1013,29	529,167
1013,45	-132,353
1013,61	-1120,000
1013,77	-1000,000
1013,94	291,667
1014,10	700,000
1014,26	-76,471
1014,43	271,053
1014,59	0,000
1014,75	710,000
1014,91	194,286
1015,08	303,846
1015,24	786,667
1015,40	333,333
1015,56	552,941
1015,73	179,592
1015,89	455,556
1016,05	272,973
1016,21	214,815
1016,38	202,632
1016,54	-372,000
1016,70	573,684
1016,86	-584,615
1017,03	0,000
1017,19	800,000
1017,35	343,333
1017,51	1200,000
1017,68	1585,714
1017,84	526,316
1018,00	314,286
1018,16	-425,000
1018,33	581,818
1018,49	264,286
1018,65	-304,545
1018,81	-34,146
1018,97	438,462
1019,14	-1114,286
1019,30	319,048
1019,46	217,949
1019,62	3500,000
1019,79	-400,000
1019,95	-1550,000
1020,11	1000,000
1020,27	250,000
1020,43	-1237,500
1020,60	0,000
1020,76	117,647
1020,92	7900,000
1021,08	-113,333
1021,24	-2200,000
1021,41	251,515
1021,57	-283,333
1021,73	0,000
1021,89	-354,545
1022,05	194,286
1022,21	-507,692
1022,38	447,368
1022,54	1280,000
1022,70	244,444
1022,86	-2850,000
1023,02	1066,667
1023,19	-385,000
1023,35	190,566
1023,51	306,452
1023,67	168,421
1023,83	709,091
1023,99	254,286
1024,16	-43,077
1024,32	550,000
1024,48	253,061
1024,64	-700,000
1024,80	291,667
1024,96	476,923
1025,12	2966,667
1025,29	-525,000
1025,45	220,833
1025,61	2900,000
1025,77	509,524
1025,93	-430,769
1026,09	4700,000
1026,26	-1171,429
1026,42	-2425,000
1026,58	198,077
1026,74	757,143
1026,90	210,526
1027,06	-570,000
1027,22	-691,667
1027,38	744,444
1027,55	-260,000
1027,71	925,000
1027,87	225,000
1028,03	175,758
1028,19	-121,212
1028,35	70,270
1028,51	-30,645
1028,67	-1040,000
1028,83	216,667
1029,00	557,143
1029,16	-433,333
1029,32	552,941
1029,48	4750,000
1029,64	1014,286
1029,80	1283,333
1029,96	225,490
1030,12	-275,000
1030,28	1525,000
1030,44	-2550,000
1030,61	253,125
1030,77	-252,174
1030,93	111,628
1031,09	-421,429
1031,25	-866,667
1031,41	-4100,000
1031,57	-236,842
1031,73	590,909
1031,89	-90,909
1032,05	1328,571
1032,21	950,000
1032,37	-232,353
1032,53	-385,000
1032,69	-5400,000
1032,86	1366,667
1033,02	362,500
1033,18	-646,154
1033,34	-69,231
1033,50	190,323
1033,66	-766,667
1033,82	335,714
1033,98	-311,765
1034,14	866,667
1034,30	-240,909
1034,46	287,500
1034,62	511,111
1034,78	157,143
1034,94	-138,710
1035,10	-259,091
1035,26	-822,222
1035,42	182,857
1035,58	1740,000
1035,74	-86,667
1035,90	-541,667
1036,06	132,075
1036,22	-220,000
1036,38	546,667
1036,54	740,000
1036,70	-1150,000
1036,86	-457,143
1037,02	-2700,000
1037,18	-64,286
1037,34	313,043
1037,50	-640,000
1037,66	-2966,667
1037,82	-111,765
1037,98	409,524
1038,14	-127,586
1038,30	9,615
1038,46	112,500
1038,62	222,581
1038,78	233,333
1038,94	-121,053
1039,10	-187,500
1039,26	-305,263
1039,42	-1271,429
1039,58	107,547
1039,74	218,750
1039,90	-115,385
1040,06	405,882
>>>>>End Processed Spectral Data<<<<<
