SpectraSuite Data File
++++++++++++++++++++++++++++++++++++
Date: Thu Feb 02 17:50:40 EET 2017
User: optolab
Dark Spectrum Present: Yes
Reference Spectrum Present: Yes
Number of Sampled Component Spectra: 1
Spectrometers: USB4C02475
Integration Time (usec): 100000 (USB4C02475)
Spectra Averaged: 1 (USB4C02475)
Boxcar Smoothing: 0 (USB4C02475)
Correct for Electrical Dark: No (USB4C02475)
Strobe/Lamp Enabled: No (USB4C02475)
Correct for Detector Non-linearity: No (USB4C02475)
Correct for Stray Light: No (USB4C02475)
Number of Pixels in Processed Spectrum: 3648
>>>>>Begin Processed Spectral Data<<<<<
344,91	-500,000
345,13	-500,000
345,35	-500,000
345,57	-88,235
345,79	-23,913
346,00	-161,765
346,22	-1342,857
346,44	-130,303
346,66	291,489
346,87	317,391
347,09	800,000
347,31	11200,000
347,53	-1825,000
347,74	-132,558
347,96	-1328,571
348,18	276,471
348,40	400,000
348,61	-179,487
348,83	8000,000
349,05	171,795
349,27	376,471
349,48	-2600,000
349,70	400,000
349,92	371,429
350,14	162,162
350,35	-400,000
350,57	-411,111
350,79	-69,231
351,01	-380,000
351,22	410,000
351,44	866,667
351,66	266,667
351,87	1450,000
352,09	147,368
352,31	246,429
352,53	337,143
352,74	-1128,571
352,96	436,842
353,18	150,000
353,40	-912,500
353,61	793,333
353,83	256,250
354,05	365,625
354,26	246,429
354,48	-1840,000
354,70	495,238
354,92	241,667
355,13	-111,628
355,35	155,556
355,57	179,687
355,78	278,571
356,00	180,851
356,22	309,091
356,44	295,349
356,65	557,143
356,87	144,444
357,09	228,571
357,30	150,000
357,52	-1700,000
357,74	312,903
357,95	297,143
358,17	120,290
358,39	368,000
358,60	186,111
358,82	350,000
359,04	269,231
359,26	109,091
359,47	-607,692
359,69	346,429
359,91	460,000
360,12	465,000
360,34	136,111
360,56	-4050,000
360,77	922,222
360,99	487,500
361,21	173,913
361,42	-2250,000
361,64	-322,222
361,86	170,149
362,07	713,333
362,29	255,000
362,51	235,135
362,72	-1280,000
362,94	200,000
363,16	175,714
363,37	1200,000
363,59	-7000,000
363,81	1025,000
364,02	106,667
364,24	263,636
364,46	609,524
364,67	207,143
364,89	194,118
365,11	245,946
365,32	262,963
365,54	450,000
365,76	150,000
365,97	314,634
366,19	161,404
366,41	620,000
366,62	142,000
366,84	900,000
367,05	96,078
367,27	1800,000
367,49	261,538
367,70	733,333
367,92	225,000
368,14	-330,769
368,35	183,824
368,57	66,667
368,79	315,385
369,00	107,692
369,22	483,333
369,43	442,105
369,65	-186,207
369,87	-394,118
370,08	455,000
370,30	614,286
370,51	218,182
370,73	255,556
370,95	460,000
371,16	163,158
371,38	152,830
371,60	323,333
371,81	121,739
372,03	-2800,000
372,24	-275,000
372,46	2333,333
372,68	258,824
372,89	103,670
373,11	225,581
373,32	109,244
373,54	754,545
373,76	683,333
373,97	248,485
374,19	-457,895
374,40	131,429
374,62	329,412
374,84	529,167
375,05	184,615
375,27	183,784
375,48	146,914
375,70	335,294
375,92	208,929
376,13	410,526
376,35	412,500
376,56	410,000
376,78	126,531
376,99	281,818
377,21	243,750
377,43	233,333
377,64	72,000
377,86	362,500
378,07	115,909
378,29	272,222
378,51	135,714
378,72	-113,636
378,94	69,565
379,15	218,182
379,37	431,250
379,58	156,667
379,80	93,182
380,01	138,000
380,23	204,348
380,45	239,583
380,66	127,778
380,88	245,946
381,09	421,739
381,31	292,308
381,52	339,130
381,74	153,571
381,95	300,000
382,17	324,000
382,39	151,613
382,60	529,412
382,82	241,379
383,03	2366,667
383,25	116,049
383,46	83,333
383,68	161,702
383,89	350,000
384,11	161,644
384,32	244,737
384,54	-1328,571
384,76	311,765
384,97	305,000
385,19	310,526
385,40	368,750
385,62	287,097
385,83	293,617
386,05	785,714
386,26	392,308
386,48	638,462
386,69	277,778
386,91	520,000
387,12	187,179
387,34	123,729
387,55	177,143
387,77	336,000
387,98	183,673
388,20	163,380
388,41	68,254
388,63	155,714
388,84	220,000
389,06	223,256
389,27	206,250
389,49	101,205
389,70	211,864
389,92	209,091
390,13	187,179
390,35	91,667
390,56	206,250
390,78	177,273
390,99	166,667
391,21	127,273
391,42	117,391
391,64	-180,000
391,85	191,379
392,07	-335,714
392,28	265,385
392,50	1580,000
392,71	7300,000
392,93	124,194
393,14	206,522
393,36	128,205
393,57	304,167
393,79	187,302
394,00	94,521
394,22	128,000
394,43	264,286
394,65	353,571
394,86	237,500
395,08	-850,000
395,29	134,043
395,50	-2200,000
395,72	1371,429
395,93	388,000
396,15	-128,571
396,36	73,333
396,58	-271,429
396,79	153,488
397,01	223,810
397,22	178,261
397,44	242,553
397,65	120,270
397,87	137,143
398,08	130,769
398,29	225,000
398,51	209,756
398,72	150,000
398,94	186,047
399,15	125,000
399,37	108,696
399,58	165,079
399,80	166,667
400,01	255,882
400,22	585,714
400,44	447,619
400,65	128,767
400,87	6800,000
401,08	75,281
401,30	129,333
401,51	107,273
401,72	183,871
401,94	114,634
402,15	179,592
402,37	238,636
402,58	69,767
402,80	562,500
403,01	125,000
403,22	125,301
403,44	305,556
403,65	100,000
403,87	164,000
404,08	194,231
404,30	253,125
404,51	141,429
404,72	900,000
404,94	154,217
405,15	167,164
405,37	92,308
405,58	229,032
405,79	592,857
406,01	85,185
406,22	90,476
406,44	166,667
406,65	140,476
406,86	86,000
407,08	88,889
407,29	106,667
407,51	72,115
407,72	96,040
407,93	48,101
408,15	67,045
408,36	228,571
408,58	74,167
408,79	51,163
409,00	64,539
409,22	83,333
409,43	69,369
409,64	51,923
409,86	87,500
410,07	21,739
410,29	27,333
410,50	39,683
410,71	50,806
410,93	30,693
411,14	75,701
411,35	58,333
411,57	15,972
411,78	50,000
412,00	40,000
412,21	38,496
412,42	27,805
412,64	33,889
412,85	45,078
413,06	45,982
413,28	35,686
413,49	34,419
413,70	30,043
413,92	38,571
414,13	32,016
414,34	20,818
414,56	37,447
414,77	43,542
414,98	24,028
415,20	40,143
415,41	36,039
415,63	29,915
415,84	21,607
416,05	22,289
416,27	11,142
416,48	25,118
416,69	13,081
416,91	21,867
417,12	3,846
417,33	14,221
417,55	23,600
417,76	19,873
417,97	17,041
418,19	7,531
418,40	6,823
418,61	12,178
418,83	12,676
419,04	9,147
419,25	9,569
419,46	16,051
419,68	8,112
419,89	10,277
420,10	14,919
420,32	6,490
420,53	12,888
420,74	7,168
420,96	8,531
421,17	4,789
421,38	3,441
421,60	5,788
421,81	8,609
422,02	7,851
422,23	8,944
422,45	3,445
422,66	8,445
422,87	5,598
423,09	4,292
423,30	4,512
423,51	2,751
423,73	4,249
423,94	7,292
424,15	4,266
424,36	5,778
424,58	4,711
424,79	3,058
425,00	5,893
425,22	5,235
425,43	4,067
425,64	4,477
425,85	3,100
426,07	4,892
426,28	5,446
426,49	3,408
426,71	1,994
426,92	4,295
427,13	4,724
427,34	2,347
427,56	2,286
427,77	1,946
427,98	4,165
428,19	-0,039
428,41	2,477
428,62	3,063
428,83	3,526
429,04	3,288
429,26	2,034
429,47	3,974
429,68	1,275
429,89	1,009
430,11	1,794
430,32	3,307
430,53	1,027
430,74	3,101
430,96	1,985
431,17	2,461
431,38	1,235
431,59	1,439
431,81	1,626
432,02	1,842
432,23	1,967
432,44	1,787
432,66	2,528
432,87	0,782
433,08	2,275
433,29	1,479
433,51	1,687
433,72	1,821
433,93	1,293
434,14	1,460
434,35	1,399
434,57	1,097
434,78	1,877
434,99	1,526
435,20	1,820
435,42	1,283
435,63	0,864
435,84	1,763
436,05	1,232
436,26	0,083
436,48	1,643
436,69	1,349
436,90	0,786
437,11	1,149
437,32	1,069
437,54	0,790
437,75	1,124
437,96	1,179
438,17	0,869
438,38	1,070
438,60	1,459
438,81	0,567
439,02	0,783
439,23	0,974
439,44	0,687
439,66	0,560
439,87	0,784
440,08	0,738
440,29	0,934
440,50	1,032
440,72	0,739
440,93	0,753
441,14	0,732
441,35	0,165
441,56	0,735
441,77	0,671
441,99	0,683
442,20	0,686
442,41	0,449
442,62	0,339
442,83	0,571
443,04	0,550
443,26	0,775
443,47	1,028
443,68	0,397
443,89	0,889
444,10	0,697
444,31	0,991
444,53	0,713
444,74	0,527
444,95	0,412
445,16	0,471
445,37	0,427
445,58	0,402
445,80	0,544
446,01	0,764
446,22	0,913
446,43	0,638
446,64	0,306
446,85	0,431
447,06	0,794
447,28	0,424
447,49	0,786
447,70	0,770
447,91	0,823
448,12	0,243
448,33	0,407
448,54	0,506
448,76	0,622
448,97	0,577
449,18	0,558
449,39	0,389
449,60	0,612
449,81	0,658
450,02	0,626
450,23	0,644
450,45	0,604
450,66	0,703
450,87	0,704
451,08	0,683
451,29	0,807
451,50	0,550
451,71	0,452
451,92	0,855
452,13	0,649
452,35	0,389
452,56	0,476
452,77	0,735
452,98	1,006
453,19	1,028
453,40	1,092
453,61	1,028
453,82	0,871
454,03	0,593
454,25	0,782
454,46	0,852
454,67	1,091
454,88	0,671
455,09	1,007
455,30	0,915
455,51	0,878
455,72	0,894
455,93	0,880
456,14	1,055
456,35	0,963
456,56	0,713
456,78	0,831
456,99	1,136
457,20	0,569
457,41	0,694
457,62	1,144
457,83	0,958
458,04	1,134
458,25	0,522
458,46	1,311
458,67	0,897
458,88	1,051
459,09	1,224
459,30	0,992
459,51	1,109
459,73	0,754
459,94	1,476
460,15	1,053
460,36	1,140
460,57	1,359
460,78	1,242
460,99	1,148
461,20	1,299
461,41	1,397
461,62	1,367
461,83	1,497
462,04	2,080
462,25	3,151
462,46	4,283
462,67	5,837
462,88	8,686
463,09	11,907
463,30	16,170
463,51	20,798
463,72	26,010
463,93	32,151
464,15	37,976
464,36	45,005
464,57	50,991
464,78	58,245
464,99	65,571
465,20	72,122
465,41	76,594
465,62	81,500
465,83	86,523
466,04	90,752
466,25	92,872
466,46	94,999
466,67	97,389
466,88	99,214
467,09	99,435
467,30	100,524
467,51	100,985
467,72	101,080
467,93	102,761
468,14	102,151
468,35	101,716
468,56	101,323
468,77	102,703
468,98	101,398
469,19	104,416
469,40	102,555
469,61	102,804
469,82	102,365
470,03	102,663
470,24	101,496
470,45	101,904
470,66	100,968
470,87	101,090
471,08	102,265
471,29	103,060
471,50	103,091
471,71	101,884
471,92	101,791
472,13	102,286
472,34	103,394
472,55	102,399
472,76	102,043
472,97	102,110
473,18	102,593
473,39	101,852
473,60	100,457
473,81	99,620
474,01	100,523
474,22	100,552
474,43	100,543
474,64	100,895
474,85	100,893
475,06	100,214
475,27	100,852
475,48	101,255
475,69	101,078
475,90	101,548
476,11	103,047
476,32	102,650
476,53	103,142
476,74	103,142
476,95	101,403
477,16	102,219
477,37	101,728
477,58	100,383
477,79	101,313
478,00	101,681
478,21	100,902
478,41	100,869
478,62	102,653
478,83	101,913
479,04	99,437
479,25	100,104
479,46	102,468
479,67	102,557
479,88	101,841
480,09	102,518
480,30	103,169
480,51	102,228
480,72	102,384
480,93	102,052
481,14	100,406
481,34	100,268
481,55	99,976
481,76	98,973
481,97	100,477
482,18	98,724
482,39	100,102
482,60	99,358
482,81	99,088
483,02	97,144
483,23	97,596
483,44	97,402
483,65	96,488
483,85	95,494
484,06	92,784
484,27	92,285
484,48	89,700
484,69	87,386
484,90	85,496
485,11	80,800
485,32	77,401
485,53	72,848
485,73	68,152
485,94	63,082
486,15	58,366
486,36	52,295
486,57	46,013
486,78	39,994
486,99	34,424
487,20	28,180
487,41	22,198
487,61	16,898
487,82	12,714
488,03	8,740
488,24	5,922
488,45	4,211
488,66	2,933
488,87	1,974
489,08	1,460
489,28	0,965
489,49	0,987
489,70	0,794
489,91	0,700
490,12	0,649
490,33	0,544
490,54	0,781
490,74	0,777
490,95	0,590
491,16	0,625
491,37	0,600
491,58	0,598
491,79	0,599
492,00	0,287
492,20	0,692
492,41	0,665
492,62	0,585
492,83	0,504
493,04	0,785
493,25	0,473
493,45	0,468
493,66	0,613
493,87	0,515
494,08	0,495
494,29	0,562
494,50	0,331
494,70	0,471
494,91	0,656
495,12	0,368
495,33	0,709
495,54	0,533
495,75	0,614
495,95	0,608
496,16	0,601
496,37	0,476
496,58	0,509
496,79	0,490
496,99	0,440
497,20	0,446
497,41	0,513
497,62	0,463
497,83	0,618
498,04	0,406
498,24	0,560
498,45	0,498
498,66	0,516
498,87	0,502
499,08	0,477
499,28	0,331
499,49	0,468
499,70	0,574
499,91	0,324
500,12	0,425
500,32	0,534
500,53	0,418
500,74	0,424
500,95	0,514
501,15	0,531
501,36	0,451
501,57	0,534
501,78	0,435
501,99	0,429
502,19	0,312
502,40	0,332
502,61	0,538
502,82	0,493
503,02	0,441
503,23	0,472
503,44	0,474
503,65	0,586
503,86	0,243
504,06	0,389
504,27	0,545
504,48	0,451
504,69	0,572
504,89	0,357
505,10	0,359
505,31	0,593
505,52	0,368
505,72	0,688
505,93	0,531
506,14	0,303
506,35	0,437
506,55	0,547
506,76	0,405
506,97	0,442
507,18	0,364
507,38	0,395
507,59	0,528
507,80	0,395
508,01	0,376
508,21	0,387
508,42	0,378
508,63	0,386
508,84	0,648
509,04	0,248
509,25	0,567
509,46	0,392
509,67	0,497
509,87	0,514
510,08	0,486
510,29	0,431
510,49	0,233
510,70	0,474
510,91	0,403
511,12	0,324
511,32	0,500
511,53	0,452
511,74	0,489
511,94	0,236
512,15	0,434
512,36	0,419
512,57	0,396
512,77	0,397
512,98	0,357
513,19	0,458
513,39	0,557
513,60	0,376
513,81	0,555
514,01	0,520
514,22	0,364
514,43	0,445
514,64	0,457
514,84	0,537
515,05	0,520
515,26	0,508
515,46	0,472
515,67	0,302
515,88	0,469
516,08	0,555
516,29	0,289
516,50	0,345
516,70	0,243
516,91	0,717
517,12	0,553
517,32	0,190
517,53	0,313
517,74	0,476
517,95	0,435
518,15	0,489
518,36	0,682
518,57	0,199
518,77	0,259
518,98	0,398
519,19	0,480
519,39	0,462
519,60	0,273
519,80	0,235
520,01	0,450
520,22	0,382
520,42	0,324
520,63	0,424
520,84	0,450
521,04	0,264
521,25	0,359
521,46	0,243
521,66	0,392
521,87	0,423
522,08	0,388
522,28	0,405
522,49	0,292
522,70	0,405
522,90	0,332
523,11	0,376
523,31	0,558
523,52	0,442
523,73	0,338
523,93	0,510
524,14	0,476
524,35	0,507
524,55	0,617
524,76	0,301
524,97	0,264
525,17	0,539
525,38	0,431
525,58	0,357
525,79	0,417
526,00	0,390
526,20	0,484
526,41	0,580
526,61	0,421
526,82	0,375
527,03	0,409
527,23	0,309
527,44	0,429
527,64	0,328
527,85	0,185
528,06	0,446
528,26	0,414
528,47	0,404
528,68	0,427
528,88	0,313
529,09	0,495
529,29	0,565
529,50	0,490
529,70	0,472
529,91	0,483
530,12	0,539
530,32	0,484
530,53	0,505
530,73	0,401
530,94	0,392
531,15	0,404
531,35	0,484
531,56	0,697
531,76	0,467
531,97	0,341
532,17	0,430
532,38	0,571
532,59	0,543
532,79	0,640
533,00	0,303
533,20	0,367
533,41	0,498
533,61	0,428
533,82	0,291
534,03	0,446
534,23	0,468
534,44	0,664
534,64	0,514
534,85	0,322
535,05	0,289
535,26	0,345
535,46	0,450
535,67	0,347
535,88	0,417
536,08	0,584
536,29	0,453
536,49	0,520
536,70	0,707
536,90	0,457
537,11	0,616
537,31	0,547
537,52	0,522
537,72	0,461
537,93	0,487
538,13	0,507
538,34	0,465
538,55	0,534
538,75	0,316
538,96	0,540
539,16	0,371
539,37	0,675
539,57	0,557
539,78	0,394
539,98	0,513
540,19	0,635
540,39	0,514
540,60	0,497
540,80	0,577
541,01	0,619
541,21	0,764
541,42	0,510
541,62	0,796
541,83	0,587
542,03	0,539
542,24	0,664
542,44	0,534
542,65	0,524
542,85	0,966
543,06	0,870
543,26	0,727
543,47	0,740
543,67	0,870
543,88	0,876
544,08	0,763
544,29	1,171
544,49	1,158
544,70	1,476
544,90	1,829
545,11	2,354
545,31	3,095
545,52	4,005
545,72	5,276
545,93	6,870
546,13	8,686
546,34	10,918
546,54	13,538
546,75	16,661
546,95	20,256
547,15	23,093
547,36	27,798
547,56	31,260
547,77	35,019
547,97	38,601
548,18	42,443
548,38	46,069
548,59	49,454
548,79	53,068
549,00	56,395
549,20	60,167
549,41	65,455
549,61	69,773
549,81	73,820
550,02	78,803
550,22	81,617
550,43	86,023
550,63	88,269
550,84	90,221
551,04	92,514
551,25	92,822
551,45	94,955
551,65	94,657
551,86	95,729
552,06	96,208
552,27	97,683
552,47	96,509
552,68	98,103
552,88	98,264
553,08	99,759
553,29	98,493
553,49	99,386
553,70	99,256
553,90	100,723
554,11	101,248
554,31	101,173
554,51	100,723
554,72	100,400
554,92	100,082
555,13	100,198
555,33	99,992
555,53	99,482
555,74	100,530
555,94	98,929
556,15	98,943
556,35	98,554
556,56	98,205
556,76	98,305
556,96	97,948
557,17	97,481
557,37	97,769
557,58	97,677
557,78	96,543
557,98	96,509
558,19	96,625
558,39	95,230
558,59	94,754
558,80	93,343
559,00	90,576
559,21	89,190
559,41	85,436
559,61	82,128
559,82	78,974
560,02	75,476
560,23	71,502
560,43	66,756
560,63	61,797
560,84	56,692
561,04	52,526
561,24	48,192
561,45	42,661
561,65	38,938
561,85	35,268
562,06	31,344
562,26	27,742
562,47	23,768
562,67	19,723
562,87	15,646
563,08	12,353
563,28	9,325
563,48	6,750
563,69	4,996
563,89	3,688
564,09	2,705
564,30	1,934
564,50	1,533
564,70	1,112
564,91	0,982
565,11	0,854
565,31	0,773
565,52	0,626
565,72	0,757
565,92	0,556
566,13	0,498
566,33	0,610
566,53	0,389
566,74	0,397
566,94	0,507
567,14	0,609
567,35	0,519
567,55	0,493
567,75	0,667
567,96	0,608
568,16	0,632
568,36	0,416
568,57	0,539
568,77	0,355
568,97	0,504
569,18	0,428
569,38	0,394
569,58	0,434
569,79	0,358
569,99	0,403
570,19	0,329
570,39	0,379
570,60	0,377
570,80	0,421
571,00	0,320
571,21	0,425
571,41	0,424
571,61	0,467
571,82	0,613
572,02	0,277
572,22	0,326
572,42	0,370
572,63	0,434
572,83	0,443
573,03	0,325
573,24	0,334
573,44	0,420
573,64	0,408
573,84	0,303
574,05	0,365
574,25	0,367
574,45	0,504
574,66	0,485
574,86	0,430
575,06	0,411
575,26	0,336
575,47	0,525
575,67	0,415
575,87	0,429
576,07	0,302
576,28	0,391
576,48	0,474
576,68	0,536
576,88	0,366
577,09	0,317
577,29	0,448
577,49	0,279
577,69	0,133
577,90	0,265
578,10	0,328
578,30	0,397
578,50	0,365
578,71	0,476
578,91	0,355
579,11	0,500
579,31	0,528
579,52	0,419
579,72	0,413
579,92	0,457
580,12	0,349
580,33	0,392
580,53	0,369
580,73	0,394
580,93	0,421
581,13	0,260
581,34	0,209
581,54	0,439
581,74	0,333
581,94	0,390
582,15	0,421
582,35	0,221
582,55	0,297
582,75	0,340
582,95	0,397
583,16	0,331
583,36	0,307
583,56	0,329
583,76	0,236
583,96	0,371
584,17	0,340
584,37	0,198
584,57	0,398
584,77	0,232
584,97	0,220
585,18	0,365
585,38	0,273
585,58	0,327
585,78	0,414
585,98	0,296
586,19	0,347
586,39	0,331
586,59	0,292
586,79	0,359
586,99	0,377
587,20	0,234
587,40	0,447
587,60	0,261
587,80	0,419
588,00	0,473
588,20	0,328
588,41	0,542
588,61	0,490
588,81	0,416
589,01	0,384
589,21	0,461
589,41	0,247
589,62	0,343
589,82	0,292
590,02	0,252
590,22	0,369
590,42	0,380
590,62	0,245
590,83	0,318
591,03	0,131
591,23	0,287
591,43	0,568
591,63	0,329
591,83	0,369
592,03	0,522
592,24	0,470
592,44	0,317
592,64	0,404
592,84	0,455
593,04	0,231
593,24	0,345
593,44	0,355
593,65	0,318
593,85	0,307
594,05	0,389
594,25	0,335
594,45	0,335
594,65	0,331
594,85	0,169
595,06	0,338
595,26	0,509
595,46	0,359
595,66	0,331
595,86	0,316
596,06	0,361
596,26	0,290
596,46	0,403
596,66	0,196
596,87	0,419
597,07	0,217
597,27	0,399
597,47	0,310
597,67	0,275
597,87	0,301
598,07	0,337
598,27	0,297
598,47	0,507
598,67	0,352
598,88	0,494
599,08	0,509
599,28	0,439
599,48	0,244
599,68	0,391
599,88	0,404
600,08	0,300
600,28	0,376
600,48	0,308
600,68	0,414
600,88	0,478
601,09	0,416
601,29	0,538
601,49	0,230
601,69	0,346
601,89	0,557
602,09	0,494
602,29	0,305
602,49	0,258
602,69	0,319
602,89	0,358
603,09	0,378
603,29	0,440
603,49	0,472
603,69	0,499
603,90	0,222
604,10	0,539
604,30	0,472
604,50	0,380
604,70	0,308
604,90	0,396
605,10	0,331
605,30	0,376
605,50	0,464
605,70	0,445
605,90	0,246
606,10	0,464
606,30	0,335
606,50	0,429
606,70	0,505
606,90	0,445
607,10	0,475
607,30	0,532
607,50	0,286
607,70	0,536
607,90	0,483
608,10	0,515
608,30	0,363
608,50	0,513
608,70	0,479
608,90	0,505
609,11	0,530
609,31	0,587
609,51	0,458
609,71	0,454
609,91	0,335
610,11	0,614
610,31	0,464
610,51	0,563
610,71	0,383
610,91	0,545
611,11	0,399
611,31	0,419
611,51	0,465
611,71	0,341
611,91	0,509
612,11	0,440
612,31	0,656
612,51	0,550
612,71	0,582
612,91	0,332
613,11	0,485
613,31	0,304
613,51	0,398
613,71	0,266
613,91	0,647
614,11	0,674
614,31	0,465
614,50	0,662
614,70	0,547
614,90	0,578
615,10	0,575
615,30	0,683
615,50	0,576
615,70	0,904
615,90	0,676
616,10	0,894
616,30	0,933
616,50	1,032
616,70	1,054
616,90	1,264
617,10	1,675
617,30	2,320
617,50	3,008
617,70	3,837
617,90	5,057
618,10	6,238
618,30	8,092
618,50	10,469
618,70	13,700
618,90	16,789
619,10	20,937
619,30	25,632
619,49	31,422
619,69	36,917
619,89	42,709
620,09	49,385
620,29	55,766
620,49	61,593
620,69	66,241
620,89	71,618
621,09	75,673
621,29	78,963
621,49	81,699
621,69	83,854
621,89	87,547
622,09	89,196
622,29	90,659
622,48	92,090
622,68	92,649
622,88	94,396
623,08	94,636
623,28	95,728
623,48	95,411
623,68	96,371
623,88	96,614
624,08	96,402
624,28	95,651
624,48	95,932
624,67	96,292
624,87	95,637
625,07	94,744
625,27	95,299
625,47	95,422
625,67	95,408
625,87	95,930
626,07	95,879
626,27	94,693
626,47	95,621
626,66	94,671
626,86	95,785
627,06	94,649
627,26	97,305
627,46	96,985
627,66	98,521
627,86	97,677
628,06	98,392
628,25	98,687
628,45	98,055
628,65	99,260
628,85	98,207
629,05	99,309
629,25	99,097
629,45	100,019
629,65	98,899
629,84	99,583
630,04	99,802
630,24	99,582
630,44	99,109
630,64	100,292
630,84	99,966
631,04	100,057
631,23	100,365
631,43	100,615
631,63	101,612
631,83	99,675
632,03	100,640
632,23	100,591
632,42	100,525
632,62	100,205
632,82	100,984
633,02	100,172
633,22	99,911
633,42	100,625
633,62	100,390
633,81	100,229
634,01	100,938
634,21	100,237
634,41	99,481
634,61	99,446
634,80	99,502
635,00	98,590
635,20	98,797
635,40	98,518
635,60	98,922
635,80	97,413
635,99	96,792
636,19	95,482
636,39	93,309
636,59	91,000
636,79	90,052
636,98	87,873
637,18	86,609
637,38	84,164
637,58	81,846
637,78	79,313
637,97	77,087
638,17	73,210
638,37	69,757
638,57	66,356
638,77	62,865
638,96	58,614
639,16	55,176
639,36	49,599
639,56	46,114
639,76	41,173
639,95	37,173
640,15	32,216
640,35	27,269
640,55	23,513
640,75	19,649
640,94	16,179
641,14	13,076
641,34	9,933
641,54	8,026
641,73	6,203
641,93	4,811
642,13	4,166
642,33	3,327
642,53	2,535
642,72	2,241
642,92	1,809
643,12	1,331
643,32	1,293
643,51	1,602
643,71	1,057
643,91	0,894
644,11	1,075
644,30	0,658
644,50	0,907
644,70	0,850
644,90	0,957
645,09	0,964
645,29	0,794
645,49	0,962
645,69	0,654
645,88	0,706
646,08	0,724
646,28	0,949
646,48	0,619
646,67	0,787
646,87	0,790
647,07	0,835
647,26	0,917
647,46	0,816
647,66	0,660
647,86	0,816
648,05	0,948
648,25	1,343
648,45	0,766
648,65	0,619
648,84	0,560
649,04	1,047
649,24	0,956
649,43	0,622
649,63	0,917
649,83	0,760
650,03	0,903
650,22	1,012
650,42	0,897
650,62	0,942
650,81	0,741
651,01	0,647
651,21	0,611
651,40	0,638
651,60	0,633
651,80	0,931
652,00	0,772
652,19	0,893
652,39	1,009
652,59	0,955
652,78	0,805
652,98	0,149
653,18	0,393
653,37	0,735
653,57	0,850
653,77	0,803
653,96	0,398
654,16	0,899
654,36	0,712
654,55	0,733
654,75	0,906
654,95	1,090
655,14	0,699
655,34	1,196
655,54	0,938
655,73	0,521
655,93	0,846
656,13	0,695
656,32	0,581
656,52	0,750
656,72	0,956
656,91	1,218
657,11	0,716
657,31	0,714
657,50	1,113
657,70	1,050
657,90	1,034
658,09	0,937
658,29	0,995
658,49	1,265
658,68	0,826
658,88	1,081
659,07	0,837
659,27	0,602
659,47	0,670
659,66	0,548
659,86	0,515
660,06	0,476
660,25	0,451
660,45	1,189
660,64	0,808
660,84	0,697
661,04	0,613
661,23	0,704
661,43	0,562
661,63	0,482
661,82	0,416
662,02	0,843
662,21	0,732
662,41	0,979
662,61	0,923
662,80	0,746
663,00	0,416
663,19	0,873
663,39	0,475
663,59	0,947
663,78	0,395
663,98	0,752
664,17	0,341
664,37	1,025
664,57	0,728
664,76	0,603
664,96	0,494
665,15	0,306
665,35	0,424
665,55	0,231
665,74	0,767
665,94	0,633
666,13	0,449
666,33	0,895
666,53	0,493
666,72	0,615
666,92	0,569
667,11	0,599
667,31	0,314
667,50	0,315
667,70	0,723
667,90	0,678
668,09	0,492
668,29	0,695
668,48	0,634
668,68	0,341
668,87	0,661
669,07	0,520
669,26	0,633
669,46	0,481
669,66	0,546
669,85	0,702
670,05	0,647
670,24	0,624
670,44	0,850
670,63	0,265
670,83	0,624
671,02	0,564
671,22	0,418
671,42	0,695
671,61	0,440
671,81	0,739
672,00	0,749
672,20	0,646
672,39	0,593
672,59	0,195
672,78	0,551
672,98	0,535
673,17	0,378
673,37	0,487
673,56	0,588
673,76	0,211
673,95	0,817
674,15	0,585
674,34	0,464
674,54	0,499
674,73	0,676
674,93	0,497
675,13	0,816
675,32	0,806
675,52	0,811
675,71	0,666
675,91	0,606
676,10	0,453
676,30	0,625
676,49	0,326
676,69	0,562
676,88	0,481
677,08	0,393
677,27	0,639
677,47	0,475
677,66	0,465
677,86	0,647
678,05	0,211
678,24	0,623
678,44	0,907
678,63	0,467
678,83	0,520
679,02	0,320
679,22	0,747
679,41	0,666
679,61	0,461
679,80	0,402
680,00	0,314
680,19	0,433
680,39	0,476
680,58	0,523
680,78	0,344
680,97	0,535
681,17	0,498
681,36	0,554
681,56	0,326
681,75	0,291
681,94	0,408
682,14	0,646
682,33	0,613
682,53	0,189
682,72	0,360
682,92	0,437
683,11	0,290
683,31	0,472
683,50	0,345
683,69	0,293
683,89	0,519
684,08	0,425
684,28	0,158
684,47	0,401
684,67	0,278
684,86	0,138
685,06	0,163
685,25	0,303
685,44	0,242
685,64	0,431
685,83	0,389
686,03	0,337
686,22	0,242
686,42	0,411
686,61	0,350
686,80	0,323
687,00	0,271
687,19	0,204
687,39	0,453
687,58	0,234
687,77	0,461
687,97	0,582
688,16	0,452
688,36	0,261
688,55	0,152
688,74	0,128
688,94	0,290
689,13	0,378
689,33	0,212
689,52	0,429
689,71	0,306
689,91	0,222
690,10	0,236
690,30	-0,056
690,49	0,223
690,68	0,564
690,88	0,170
691,07	0,210
691,27	0,133
691,46	0,351
691,65	0,395
691,85	0,314
692,04	0,241
692,23	0,170
692,43	0,206
692,62	0,315
692,82	0,461
693,01	0,414
693,20	0,310
693,40	0,320
693,59	0,182
693,78	0,271
693,98	0,184
694,17	0,295
694,36	0,622
694,56	0,375
694,75	0,269
694,94	0,303
695,14	0,188
695,33	0,506
695,53	0,352
695,72	0,416
695,91	-0,023
696,11	0,216
696,30	0,168
696,49	0,435
696,69	0,386
696,88	0,223
697,07	0,156
697,27	0,420
697,46	0,313
697,65	0,131
697,85	0,246
698,04	0,425
698,23	0,334
698,43	0,580
698,62	0,090
698,81	0,493
699,01	0,561
699,20	0,575
699,39	0,534
699,58	0,571
699,78	0,253
699,97	0,518
700,16	0,105
700,36	0,601
700,55	0,734
700,74	0,937
700,94	0,638
701,13	0,228
701,32	0,447
701,52	0,409
701,71	0,850
701,90	0,502
702,09	0,726
702,29	0,964
702,48	0,501
702,67	1,035
702,87	1,552
703,06	1,290
703,25	0,948
703,44	0,470
703,64	0,470
703,83	1,304
704,02	1,297
704,22	1,299
704,41	0,387
704,60	0,935
704,79	0,497
704,99	1,241
705,18	1,745
705,37	2,190
705,56	1,140
705,76	1,716
705,95	1,739
706,14	1,451
706,33	0,454
706,53	1,440
706,72	1,130
706,91	1,913
707,11	1,440
707,30	1,662
707,49	1,300
707,68	1,841
707,88	1,820
708,07	0,585
708,26	1,591
708,45	1,972
708,64	1,818
708,84	1,051
709,03	3,379
709,22	1,700
709,41	2,852
709,61	0,754
709,80	2,225
709,99	2,825
710,18	2,189
710,38	1,290
710,57	1,875
710,76	1,508
710,95	2,671
711,14	1,953
711,34	3,063
711,53	3,150
711,72	2,355
711,91	1,402
712,11	3,863
712,30	1,539
712,49	2,795
712,68	1,504
712,87	3,265
713,07	4,095
713,26	2,499
713,45	0,583
713,64	2,750
713,83	3,122
714,03	1,880
714,22	4,434
714,41	2,793
714,60	2,943
714,79	1,728
714,99	3,079
715,18	2,050
715,37	4,491
715,56	2,097
715,75	2,201
715,94	2,904
716,14	4,093
716,33	5,775
716,52	4,612
716,71	3,560
716,90	1,887
717,10	2,561
717,29	3,883
717,48	3,504
717,67	4,456
717,86	4,268
718,05	6,148
718,24	4,578
718,44	5,981
718,63	3,467
718,82	3,435
719,01	3,674
719,20	3,365
719,39	5,098
719,59	1,563
719,78	1,804
719,97	5,221
720,16	5,444
720,35	0,619
720,54	1,328
720,73	5,802
720,93	3,760
721,12	1,006
721,31	4,810
721,50	8,218
721,69	5,204
721,88	9,217
722,07	3,751
722,27	7,572
722,46	7,421
722,65	2,224
722,84	3,952
723,03	7,633
723,22	4,351
723,41	5,233
723,60	2,453
723,79	9,571
723,99	3,604
724,18	8,030
724,37	0,636
724,56	8,944
724,75	3,739
724,94	9,291
725,13	8,584
725,32	9,091
725,51	4,651
725,71	5,679
725,90	8,223
726,09	5,114
726,28	4,480
726,47	2,170
726,66	9,567
726,85	6,256
727,04	4,689
727,23	10,315
727,42	8,651
727,61	2,058
727,81	3,351
728,00	6,965
728,19	7,476
728,38	5,786
728,57	8,021
728,76	8,047
728,95	11,771
729,14	4,437
729,33	9,355
729,52	9,111
729,71	5,423
729,90	8,022
730,09	6,674
730,28	7,242
730,48	7,675
730,67	10,714
730,86	8,274
731,05	5,018
731,24	3,293
731,43	8,479
731,62	8,591
731,81	11,351
732,00	12,934
732,19	6,370
732,38	12,051
732,57	8,068
732,76	9,986
732,95	7,979
733,14	1,578
733,33	3,968
733,52	7,444
733,71	5,308
733,90	5,226
734,09	9,730
734,28	3,281
734,47	8,194
734,66	7,219
734,85	8,286
735,04	7,275
735,23	12,325
735,42	10,246
735,61	10,933
735,81	12,130
736,00	8,120
736,19	12,310
736,38	13,473
736,57	11,111
736,76	12,555
736,95	11,465
737,14	14,195
737,33	19,802
737,52	5,846
737,71	6,393
737,90	12,519
738,09	14,764
738,28	5,979
738,47	16,058
738,66	8,494
738,85	15,165
739,04	3,087
739,22	5,518
739,41	6,985
739,60	4,096
739,79	11,331
739,98	9,677
740,17	15,358
740,36	15,009
740,55	8,758
740,74	15,609
740,93	10,134
741,12	9,821
741,31	14,437
741,50	8,696
741,69	12,212
741,88	6,126
742,07	17,391
742,26	8,571
742,45	12,910
742,64	9,506
742,83	15,221
743,02	13,263
743,21	17,148
743,40	4,141
743,59	19,301
743,78	18,395
743,97	14,808
744,16	8,858
744,34	9,324
744,53	13,814
744,72	13,361
744,91	10,714
745,10	13,836
745,29	18,750
745,48	8,636
745,67	8,428
745,86	22,737
746,05	21,564
746,24	13,814
746,43	10,707
746,62	22,198
746,81	20,674
747,00	11,816
747,18	17,429
747,37	14,947
747,56	19,059
747,75	4,926
747,94	15,049
748,13	8,277
748,32	18,095
748,51	18,274
748,70	11,013
748,89	11,710
749,08	2,326
749,26	21,145
749,45	13,405
749,64	8,816
749,83	15,506
750,02	20,109
750,21	21,883
750,40	29,757
750,59	9,115
750,78	17,456
750,96	19,337
751,15	22,430
751,34	4,261
751,53	13,115
751,72	11,831
751,91	22,021
752,10	7,853
752,29	18,933
752,47	7,163
752,66	19,048
752,85	25,683
753,04	8,939
753,23	19,505
753,42	15,633
753,61	30,408
753,80	13,746
753,98	27,273
754,17	14,286
754,36	19,355
754,55	24,699
754,74	20,779
754,93	24,242
755,12	20,178
755,30	20,130
755,49	6,395
755,68	24,847
755,87	17,456
756,06	13,194
756,25	21,884
756,43	21,812
756,62	23,913
756,81	26,490
757,00	14,145
757,19	19,444
757,38	16,988
757,56	9,600
757,75	22,184
757,94	10,266
758,13	21,575
758,32	20,178
758,51	19,529
758,69	19,691
758,88	22,559
759,07	23,653
759,26	20,141
759,45	15,088
759,63	39,827
759,82	18,596
760,01	21,245
760,20	39,623
760,39	28,707
760,57	34,495
760,76	34,495
760,95	32,292
761,14	32,117
761,33	35,161
761,51	32,857
761,70	34,201
761,89	44,000
762,08	48,327
762,27	25,993
762,45	17,029
762,64	28,643
762,83	33,466
763,02	2,174
763,21	18,500
763,39	18,881
763,58	23,048
763,77	30,380
763,96	19,920
764,14	30,000
764,33	29,524
764,52	30,357
764,71	23,607
764,89	25,000
765,08	16,256
765,27	28,936
765,46	35,874
765,65	32,941
765,83	44,796
766,02	15,714
766,21	13,661
766,40	29,572
766,58	42,857
766,77	35,780
766,96	34,959
767,15	23,109
767,33	37,681
767,52	37,555
767,71	10,526
767,90	24,623
768,08	11,976
768,27	38,618
768,46	42,982
768,64	36,574
768,83	50,980
769,02	16,256
769,21	30,729
769,39	42,857
769,58	40,260
769,77	42,553
769,96	40,090
770,14	40,984
770,33	38,318
770,52	65,468
770,70	28,649
770,89	36,216
771,08	9,036
771,27	41,579
771,45	40,588
771,64	35,152
771,83	22,059
772,01	45,361
772,20	38,806
772,39	43,671
772,57	32,836
772,76	52,027
772,95	31,609
773,14	57,143
773,32	36,723
773,51	43,452
773,70	46,763
773,88	26,452
774,07	41,624
774,26	31,452
774,44	33,083
774,63	40,719
774,82	13,636
775,00	40,187
775,19	33,929
775,38	28,191
775,56	62,733
775,75	56,044
775,94	50,833
776,12	39,869
776,31	49,624
776,50	39,041
776,68	43,548
776,87	58,373
777,06	60,377
777,24	27,731
777,43	32,620
777,62	48,315
777,80	70,440
777,99	56,667
778,18	41,954
778,36	58,475
778,55	14,407
778,74	29,688
778,92	38,889
779,11	65,455
779,29	43,262
779,48	40,426
779,67	66,667
779,85	45,614
780,04	39,855
780,23	55,952
780,41	79,661
780,60	10,067
780,79	70,161
780,97	35,948
781,16	29,255
781,34	49,324
781,53	67,857
781,72	58,559
781,90	35,329
782,09	18,605
782,28	45,578
782,46	87,143
782,65	56,338
782,83	50,314
783,02	71,053
783,21	22,556
783,39	44,538
783,58	75,652
783,76	37,415
783,95	92,254
784,14	63,158
784,32	25,882
784,51	61,486
784,69	25,781
784,88	48,598
785,06	44,371
785,25	44,681
785,44	95,161
785,62	45,714
785,81	51,852
785,99	79,699
786,18	66,667
786,37	60,440
786,55	57,639
786,74	74,545
786,92	26,573
787,11	56,944
787,29	75,893
787,48	72,043
787,67	48,113
787,85	126,582
788,04	75,676
788,22	31,683
788,41	40,157
788,59	41,447
788,78	38,462
788,96	38,017
789,15	65,833
789,34	81,731
789,52	74,194
789,71	97,122
789,89	46,753
790,08	88,750
790,26	89,809
790,45	136,111
790,63	31,034
790,82	53,846
791,00	86,726
791,19	60,000
791,38	9,524
791,56	73,636
791,75	86,111
791,93	69,000
792,12	95,652
792,30	54,015
792,49	90,909
792,67	41,176
792,86	74,400
793,04	64,815
793,23	85,263
793,41	62,319
793,60	65,278
793,78	40,952
793,97	59,722
794,15	87,218
794,34	25,333
794,52	26,882
794,71	56,589
794,89	33,333
795,08	72,800
795,26	78,667
795,45	63,889
795,63	58,871
795,82	85,714
796,00	38,000
796,19	53,659
796,37	19,847
796,56	62,136
796,74	41,053
796,93	95,455
797,11	102,410
797,30	55,000
797,48	38,281
797,67	52,033
797,85	76,154
798,04	24,576
798,22	107,692
798,41	80,769
798,59	67,619
798,77	83,133
798,96	70,370
799,14	79,839
799,33	78,899
799,51	97,222
799,70	80,769
799,88	82,569
800,07	90,076
800,25	81,928
800,44	96,296
800,62	44,444
800,80	72,535
800,99	160,274
801,17	82,759
801,36	76,429
801,54	86,000
801,73	46,316
801,91	60,331
802,10	61,176
802,28	73,600
802,46	38,158
802,65	57,554
802,83	60,000
803,02	75,000
803,20	100,000
803,39	75,862
803,57	32,283
803,75	45,528
803,94	46,032
804,12	83,448
804,31	76,812
804,49	42,400
804,67	35,294
804,86	58,407
805,04	85,542
805,23	79,646
805,41	53,333
805,59	62,329
805,78	80,800
805,96	69,880
806,15	59,406
806,33	81,579
806,51	81,333
806,70	65,414
806,88	115,116
807,07	90,991
807,25	93,407
807,43	67,857
807,62	60,177
807,80	43,810
807,99	46,154
808,17	35,433
808,35	69,000
808,54	62,319
808,72	87,387
808,90	63,699
809,09	57,609
809,27	96,000
809,46	106,593
809,64	76,829
809,82	52,980
810,01	55,469
810,19	81,818
810,37	70,312
810,56	111,111
810,74	84,416
810,92	44,000
811,11	28,947
811,29	86,792
811,48	47,692
811,66	91,011
811,84	7,692
812,03	70,492
812,21	61,404
812,39	84,348
812,58	43,158
812,76	75,540
812,94	45,783
813,13	50,000
813,31	49,000
813,49	47,222
813,68	43,636
813,86	52,809
814,04	50,413
814,23	27,711
814,41	56,180
814,59	75,728
814,78	46,324
814,96	36,478
815,14	84,112
815,33	59,690
815,51	47,244
815,69	85,714
815,87	34,653
816,06	40,870
816,24	38,509
816,42	67,647
816,61	51,572
816,79	56,034
816,97	45,455
817,16	53,254
817,34	67,460
817,52	71,074
817,70	86,139
817,89	62,222
818,07	50,000
818,25	47,959
818,44	46,154
818,62	42,636
818,80	39,098
818,98	76,433
819,17	79,832
819,35	35,106
819,53	79,104
819,72	79,114
819,90	72,868
820,08	30,769
820,26	68,103
820,45	38,926
820,63	93,750
820,81	40,800
820,99	78,723
821,18	70,748
821,36	48,734
821,54	57,241
821,73	61,111
821,91	78,947
822,09	33,065
822,27	81,935
822,46	51,471
822,64	71,200
822,82	41,989
823,00	30,387
823,19	50,000
823,37	64,848
823,55	30,682
823,73	71,724
823,91	42,754
824,10	53,226
824,28	62,312
824,46	9,709
824,64	52,632
824,83	45,342
825,01	54,667
825,19	50,806
825,37	62,609
825,56	66,038
825,74	56,633
825,92	46,497
826,10	69,318
826,28	24,405
826,47	27,368
826,65	62,411
826,83	31,034
827,01	47,399
827,19	63,690
827,38	55,556
827,56	40,909
827,74	27,374
827,92	26,744
828,10	44,872
828,29	43,787
828,47	44,309
828,65	34,615
828,83	20,606
829,01	54,891
829,20	50,000
829,38	42,045
829,56	55,435
829,74	27,673
829,92	31,746
830,10	60,345
830,29	18,593
830,47	39,196
830,65	12,195
830,83	25,893
831,01	51,190
831,20	43,204
831,38	19,139
831,56	22,326
831,74	46,445
831,92	57,895
832,10	41,905
832,29	50,000
832,47	18,539
832,65	42,157
832,83	37,559
833,01	38,000
833,19	31,222
833,37	39,367
833,56	10,127
833,74	28,922
833,92	15,278
834,10	37,344
834,28	27,004
834,46	45,701
834,64	43,056
834,83	38,636
835,01	48,133
835,19	36,800
835,37	32,645
835,55	29,688
835,73	29,557
835,91	37,638
836,09	24,715
836,28	37,269
836,46	14,800
836,64	39,850
836,82	11,312
837,00	39,130
837,18	19,703
837,36	36,653
837,54	34,091
837,72	14,224
837,91	30,970
838,09	11,155
838,27	20,000
838,45	21,631
838,63	18,015
838,81	26,160
838,99	33,871
839,17	38,176
839,35	26,596
839,53	19,649
839,72	22,556
839,90	28,179
840,08	35,385
840,26	21,032
840,44	23,565
840,62	11,724
840,80	29,932
840,98	30,588
841,16	30,798
841,34	12,040
841,52	30,581
841,70	30,462
841,89	21,371
842,07	12,539
842,25	33,046
842,43	15,948
842,61	24,561
842,79	27,684
842,97	18,241
843,15	27,063
843,33	28,076
843,51	31,325
843,69	35,897
843,87	18,657
844,05	21,277
844,23	27,327
844,41	14,107
844,59	20,461
844,77	18,487
844,95	25,723
845,13	27,385
845,31	17,733
845,50	28,272
845,68	24,116
845,86	14,943
846,04	33,240
846,22	4,087
846,40	22,581
846,58	22,507
846,76	22,849
846,94	21,945
847,12	18,912
847,30	7,732
847,48	13,622
847,66	16,010
847,84	17,486
848,02	20,531
848,20	20,672
848,38	15,385
848,56	23,580
848,74	21,957
848,92	0,998
849,10	18,750
849,28	13,563
849,46	12,800
849,64	20,785
849,82	16,975
850,00	17,991
850,18	19,787
850,36	14,570
850,54	19,799
850,72	20,566
850,90	16,957
851,08	19,256
851,26	19,912
851,44	14,381
851,62	9,535
851,80	25,991
851,98	16,484
852,16	16,785
852,34	16,701
852,52	14,732
852,70	11,617
852,87	16,895
853,05	13,840
853,23	13,814
853,41	24,036
853,59	18,880
853,77	12,103
853,95	21,308
854,13	14,823
854,31	14,990
854,49	13,373
854,67	15,551
854,85	14,700
855,03	17,034
855,21	22,526
855,39	9,054
855,57	12,366
855,75	15,693
855,93	8,627
856,11	26,886
856,28	9,963
856,46	18,861
856,64	25,333
856,82	17,010
857,00	13,590
857,18	15,343
857,36	15,683
857,54	11,938
857,72	7,544
857,90	11,070
858,08	13,333
858,26	4,555
858,44	7,602
858,61	4,007
858,79	17,993
858,97	11,504
859,15	15,944
859,33	6,406
859,51	6,198
859,69	2,147
859,87	14,498
860,05	5,151
860,23	8,117
860,40	16,370
860,58	10,656
860,76	13,175
860,94	13,171
861,12	12,154
861,30	5,965
861,48	12,000
861,66	8,413
861,84	4,933
862,01	16,200
862,19	13,559
862,37	5,900
862,55	12,248
862,73	6,656
862,91	9,692
863,09	10,863
863,27	6,466
863,44	6,911
863,62	8,967
863,80	9,283
863,98	11,424
864,16	6,069
864,34	9,618
864,52	6,568
864,69	9,942
864,87	8,828
865,05	9,252
865,23	10,458
865,41	10,215
865,59	7,941
865,76	10,091
865,94	11,370
866,12	13,290
866,30	4,769
866,48	17,870
866,66	11,694
866,83	10,560
867,01	8,184
867,19	9,103
867,37	6,598
867,55	9,916
867,73	10,817
867,90	5,868
868,08	10,157
868,26	9,559
868,44	7,386
868,62	9,337
868,79	7,675
868,97	4,408
869,15	6,613
869,33	7,570
869,51	7,201
869,69	6,098
869,86	6,901
870,04	12,759
870,22	11,380
870,40	12,164
870,57	5,421
870,75	13,370
870,93	9,684
871,11	6,494
871,29	8,219
871,46	9,272
871,64	10,565
871,82	10,011
872,00	13,272
872,18	4,852
872,35	10,198
872,53	9,539
872,71	10,306
872,89	10,297
873,06	7,477
873,24	9,505
873,42	7,143
873,60	5,690
873,77	2,965
873,95	6,722
874,13	3,700
874,31	5,779
874,49	6,099
874,66	4,323
874,84	7,523
875,02	8,524
875,20	9,557
875,37	4,728
875,55	10,592
875,73	5,420
875,91	6,970
876,08	7,221
876,26	3,357
876,44	6,690
876,61	8,139
876,79	7,524
876,97	3,467
877,15	5,815
877,32	7,928
877,50	1,738
877,68	3,256
877,86	1,105
878,03	7,361
878,21	4,513
878,39	7,378
878,56	6,033
878,74	8,639
878,92	1,130
879,10	6,380
879,27	7,479
879,45	6,878
879,63	4,348
879,80	5,090
879,98	4,590
880,16	6,041
880,34	4,790
880,51	5,047
880,69	0,967
880,87	5,524
881,04	3,690
881,22	7,524
881,40	8,747
881,57	3,933
881,75	6,302
881,93	6,057
882,10	4,427
882,28	3,862
882,46	8,630
882,63	2,187
882,81	6,213
882,99	3,651
883,16	4,008
883,34	3,476
883,52	3,488
883,69	7,733
883,87	3,516
884,05	3,410
884,22	3,653
884,40	5,241
884,58	1,741
884,75	3,846
884,93	4,258
885,11	5,155
885,28	1,310
885,46	0,861
885,64	3,320
885,81	3,946
885,99	2,726
886,17	2,852
886,34	2,564
886,52	1,049
886,70	8,362
886,87	3,426
887,05	3,255
887,22	3,542
887,40	4,560
887,58	4,169
887,75	3,479
887,93	4,785
888,11	4,860
888,28	4,140
888,46	5,116
888,63	2,816
888,81	3,179
888,99	4,444
889,16	2,179
889,34	1,243
889,51	4,102
889,69	4,032
889,87	3,777
890,04	4,236
890,22	2,535
890,39	2,481
890,57	4,454
890,75	2,197
890,92	4,250
891,10	3,377
891,27	3,073
891,45	4,483
891,63	4,199
891,80	2,435
891,98	2,713
892,15	2,061
892,33	3,046
892,51	5,120
892,68	4,574
892,86	2,554
893,03	3,799
893,21	2,719
893,38	3,131
893,56	3,979
893,74	4,320
893,91	3,559
894,09	5,058
894,26	5,112
894,44	3,417
894,61	3,701
894,79	1,656
894,96	2,474
895,14	3,008
895,32	3,203
895,49	4,474
895,67	2,660
895,84	2,201
896,02	0,473
896,19	2,998
896,37	3,992
896,54	3,093
896,72	3,044
896,89	3,558
897,07	4,380
897,25	3,341
897,42	2,664
897,60	4,686
897,77	3,178
897,95	3,352
898,12	4,489
898,30	3,470
898,47	1,708
898,65	1,919
898,82	1,904
899,00	2,635
899,17	2,719
899,35	2,206
899,52	4,370
899,70	3,357
899,87	0,573
900,05	2,321
900,22	4,800
900,40	2,307
900,57	2,449
900,75	3,026
900,92	2,410
901,10	2,196
901,27	0,851
901,45	3,499
901,62	3,784
901,80	1,754
901,97	1,439
902,15	2,990
902,32	3,378
902,50	1,220
902,67	4,840
902,85	2,460
903,02	3,383
903,20	2,497
903,37	0,819
903,54	1,580
903,72	3,348
903,89	2,177
904,07	1,533
904,24	3,106
904,42	1,866
904,59	2,357
904,77	3,148
904,94	1,404
905,12	1,701
905,29	0,983
905,47	1,603
905,64	2,860
905,81	2,470
905,99	1,120
906,16	0,763
906,34	2,396
906,51	2,625
906,69	0,863
906,86	1,474
907,03	2,052
907,21	1,062
907,38	2,280
907,56	3,221
907,73	2,574
907,91	2,159
908,08	2,508
908,25	2,615
908,43	1,376
908,60	1,165
908,78	1,344
908,95	2,551
909,13	3,575
909,30	3,170
909,47	1,664
909,65	2,808
909,82	2,888
910,00	1,858
910,17	2,301
910,34	1,848
910,52	2,180
910,69	1,546
910,87	3,008
911,04	1,999
911,21	3,937
911,39	1,094
911,56	2,895
911,73	2,374
911,91	2,173
912,08	3,127
912,26	0,846
912,43	3,759
912,60	2,330
912,78	2,118
912,95	1,830
913,13	2,050
913,30	3,944
913,47	3,041
913,65	2,313
913,82	3,313
913,99	1,920
914,17	2,264
914,34	1,005
914,51	2,372
914,69	2,066
914,86	2,825
915,03	1,728
915,21	0,718
915,38	2,804
915,56	1,834
915,73	1,279
915,90	1,337
916,08	2,320
916,25	1,478
916,42	1,352
916,60	2,223
916,77	2,179
916,94	1,919
917,12	0,788
917,29	2,013
917,46	1,181
917,64	1,919
917,81	1,260
917,98	1,501
918,16	1,686
918,33	1,959
918,50	1,641
918,67	2,402
918,85	1,359
919,02	1,943
919,19	1,095
919,37	1,257
919,54	1,369
919,71	3,538
919,89	1,146
920,06	2,357
920,23	1,663
920,41	2,219
920,58	0,858
920,75	2,146
920,92	1,598
921,10	1,463
921,27	1,725
921,44	2,264
921,62	1,617
921,79	1,762
921,96	2,649
922,13	1,952
922,31	1,775
922,48	1,129
922,65	1,751
922,82	1,603
923,00	2,390
923,17	1,076
923,34	1,237
923,52	1,240
923,69	2,086
923,86	1,900
924,03	2,147
924,21	1,961
924,38	1,636
924,55	2,665
924,72	1,464
924,90	1,654
925,07	1,702
925,24	1,297
925,41	3,012
925,59	1,393
925,76	1,224
925,93	1,272
926,10	2,155
926,28	1,475
926,45	1,339
926,62	1,195
926,79	2,027
926,96	3,047
927,14	2,356
927,31	1,633
927,48	1,495
927,65	2,357
927,83	2,162
928,00	2,111
928,17	1,521
928,34	0,759
928,51	1,709
928,69	1,410
928,86	0,787
929,03	0,922
929,20	0,818
929,37	1,042
929,55	2,147
929,72	1,819
929,89	1,424
930,06	1,753
930,23	1,883
930,41	1,832
930,58	1,241
930,75	1,079
930,92	2,378
931,09	2,089
931,27	0,949
931,44	1,105
931,61	1,412
931,78	2,009
931,95	1,347
932,12	2,104
932,30	1,993
932,47	1,176
932,64	1,624
932,81	0,730
932,98	1,634
933,16	1,370
933,33	1,277
933,50	1,140
933,67	1,657
933,84	1,844
934,01	1,872
934,18	1,566
934,36	1,033
934,53	1,791
934,70	1,126
934,87	1,032
935,04	1,934
935,21	0,769
935,38	0,421
935,56	2,015
935,73	0,778
935,90	1,389
936,07	1,001
936,24	2,136
936,41	1,065
936,58	-0,119
936,76	1,140
936,93	0,945
937,10	1,311
937,27	1,699
937,44	1,334
937,61	1,688
937,78	1,468
937,95	1,902
938,13	1,341
938,30	1,584
938,47	1,204
938,64	0,980
938,81	1,391
938,98	0,598
939,15	1,528
939,32	1,359
939,49	0,557
939,66	1,252
939,84	1,252
940,01	1,418
940,18	0,870
940,35	0,699
940,52	0,863
940,69	0,526
940,86	1,746
941,03	1,134
941,20	1,195
941,37	0,712
941,54	2,053
941,71	1,820
941,89	1,189
942,06	1,153
942,23	1,764
942,40	1,137
942,57	1,073
942,74	1,573
942,91	2,210
943,08	1,944
943,25	1,975
943,42	1,177
943,59	2,676
943,76	1,553
943,93	0,987
944,10	0,495
944,27	0,848
944,44	1,429
944,61	1,909
944,79	2,619
944,96	2,431
945,13	0,890
945,30	1,216
945,47	1,737
945,64	1,820
945,81	1,462
945,98	1,688
946,15	1,719
946,32	2,174
946,49	1,562
946,66	2,243
946,83	0,936
947,00	2,166
947,17	1,793
947,34	2,512
947,51	1,296
947,68	2,058
947,85	0,689
948,02	1,562
948,19	1,942
948,36	1,296
948,53	0,349
948,70	1,598
948,87	2,902
949,04	3,188
949,21	1,466
949,38	1,858
949,55	3,736
949,72	0,846
949,89	2,686
950,06	1,695
950,23	1,715
950,40	1,119
950,57	0,784
950,74	1,413
950,91	2,348
951,08	2,944
951,25	2,756
951,42	0,716
951,59	1,596
951,76	0,557
951,93	1,368
952,10	2,297
952,27	2,957
952,44	2,850
952,61	2,634
952,77	3,012
952,94	2,622
953,11	4,198
953,28	4,784
953,45	3,588
953,62	3,558
953,79	4,444
953,96	2,260
954,13	2,818
954,30	4,612
954,47	4,030
954,64	4,974
954,81	3,415
954,98	3,876
955,15	3,628
955,32	6,152
955,49	4,621
955,65	3,578
955,82	1,451
955,99	5,816
956,16	10,263
956,33	1,734
956,50	5,826
956,67	3,704
956,84	6,502
957,01	4,478
957,18	6,996
957,35	4,785
957,52	7,214
957,68	7,591
957,85	5,792
958,02	4,565
958,19	4,311
958,36	9,272
958,53	4,344
958,70	7,628
958,87	3,992
959,04	5,726
959,21	13,586
959,37	8,749
959,54	5,340
959,71	9,091
959,88	5,000
960,05	8,033
960,22	5,409
960,39	7,915
960,56	6,394
960,72	11,080
960,89	5,101
961,06	6,094
961,23	3,976
961,40	7,930
961,57	11,502
961,74	14,747
961,90	8,563
962,07	8,670
962,24	8,186
962,41	14,655
962,58	10,870
962,75	9,231
962,92	5,263
963,08	3,750
963,25	0,996
963,42	17,871
963,59	6,366
963,76	16,700
963,93	16,090
964,10	4,751
964,26	20,000
964,43	2,326
964,60	8,585
964,77	21,029
964,94	8,395
965,10	8,914
965,27	8,659
965,44	15,873
965,61	14,041
965,78	20,807
965,95	26,866
966,11	14,242
966,28	23,464
966,45	12,092
966,62	18,467
966,79	12,969
966,95	17,794
967,12	25,397
967,29	16,975
967,46	25,267
967,63	35,294
967,79	35,906
967,96	28,899
968,13	25,714
968,30	46,091
968,47	19,231
968,63	31,863
968,80	40,613
968,97	28,902
969,14	27,119
969,31	24,490
969,47	31,522
969,64	31,319
969,81	23,226
969,98	27,895
970,14	12,366
970,31	29,560
970,48	21,477
970,65	40,496
970,81	17,483
970,98	52,604
971,15	63,636
971,32	38,636
971,48	69,643
971,65	37,086
971,82	43,636
971,99	50,000
972,15	11,628
972,32	56,944
972,49	39,344
972,66	52,893
972,82	56,849
972,99	103,750
973,16	94,702
973,33	31,852
973,49	84,146
973,66	50,476
973,83	60,494
974,00	17,722
974,16	92,727
974,33	70,667
974,50	95,960
974,67	71,429
974,83	110,204
975,00	169,091
975,17	133,871
975,33	113,793
975,50	34,426
975,67	98,077
975,84	35,366
976,00	110,526
976,17	165,217
976,34	92,941
976,50	67,033
976,67	71,429
976,84	106,250
977,00	91,026
977,17	173,333
977,34	148,077
977,50	91,667
977,67	124,706
977,84	144,068
978,01	98,649
978,17	62,069
978,34	188,889
978,51	236,000
978,67	173,469
978,84	121,818
979,01	97,368
979,17	41,429
979,34	132,609
979,51	150,000
979,67	420,833
979,84	162,712
980,01	100,000
980,17	147,059
980,34	87,671
980,51	966,667
980,67	95,556
980,84	122,857
981,01	294,118
981,17	175,000
981,34	111,429
981,50	90,526
981,67	221,429
981,84	107,143
982,00	6100,000
982,17	107,813
982,34	143,902
982,50	0,000
982,67	-1042,857
982,84	365,000
983,00	170,370
983,17	-585,714
983,33	277,778
983,50	221,951
983,67	118,841
983,83	309,524
984,00	421,739
984,17	722,222
984,33	-592,857
984,50	162,162
984,66	381,250
984,83	200,000
985,00	261,538
985,16	270,968
985,33	5700,000
985,49	104,651
985,66	105,000
985,83	-2400,000
985,99	311,111
986,16	294,737
986,32	119,178
986,49	-160,000
986,66	1140,000
986,82	260,606
986,99	-760,000
987,15	166,667
987,32	211,765
987,49	267,857
987,65	-121,739
987,82	-215,000
987,98	131,818
988,15	271,429
988,31	288,571
988,48	139,216
988,65	670,000
988,81	125,455
988,98	329,730
989,14	730,000
989,31	159,322
989,47	-75,000
989,64	316,667
989,80	102,128
989,97	160,000
990,14	378,571
990,30	-600,000
990,47	-125,000
990,63	305,263
990,80	1416,667
990,96	741,667
991,13	226,667
991,29	160,784
991,46	150,000
991,62	0,000
991,79	-510,000
991,95	447,059
992,12	1300,000
992,29	-261,905
992,45	204,762
992,62	-217,857
992,78	-1200,000
992,95	287,097
993,11	787,500
993,28	-8000,000
993,44	-310,345
993,61	152,632
993,77	0,000
993,94	184,615
994,10	685,714
994,27	-86,842
994,43	278,125
994,60	914,286
994,76	196,970
994,93	-550,000
995,09	-293,750
995,26	279,167
995,42	1037,500
995,59	166,667
995,75	-800,000
995,92	-1142,857
996,08	-1200,000
996,25	281,818
996,41	1860,000
996,58	308,000
996,74	-560,000
996,91	177,419
997,07	236,000
997,23	143,137
997,40	1683,333
997,56	-3500,000
997,73	382,609
997,89	1140,000
998,06	157,895
998,22	97,872
998,39	189,796
998,55	431,579
998,72	-6600,000
998,88	202,000
999,05	640,000
999,21	264,706
999,37	230,233
999,54	277,419
999,70	223,810
999,87	533,333
1000,03	410,000
1000,20	678,571
1000,36	-550,000
1000,52	1300,000
1000,69	504,000
1000,85	-250,000
1001,02	385,714
1001,18	1380,000
1001,35	0,000
1001,51	457,143
1001,67	385,000
1001,84	136,585
1002,00	-509,091
1002,17	2025,000
1002,33	-812,500
1002,50	866,667
1002,66	900,000
1002,82	292,683
1002,99	-240,909
1003,15	-2300,000
1003,32	-271,429
1003,48	-2633,333
1003,64	382,609
1003,81	-152,632
1003,97	178,261
1004,14	-121,818
1004,30	690,909
1004,46	-7100,000
1004,63	-576,923
1004,79	208,108
1004,95	-1540,000
1005,12	-130,769
1005,28	238,889
1005,45	-1116,667
1005,61	153,846
1005,77	-871,429
1005,94	271,739
1006,10	-440,000
1006,26	-107,407
1006,43	269,697
1006,59	241,935
1006,76	-208,000
1006,92	221,739
1007,08	121,212
1007,25	227,778
1007,41	304,545
1007,57	-347,059
1007,74	226,087
1007,90	-357,143
1008,06	-286,667
1008,23	-336,842
1008,39	177,778
1008,55	129,412
1008,72	-1337,500
1008,88	-125,714
1009,04	-966,667
1009,21	284,375
1009,37	367,742
1009,53	-425,000
1009,70	-28,788
1009,86	357,895
1010,02	190,909
1010,19	706,667
1010,35	6300,000
1010,51	211,429
1010,68	381,818
1010,84	360,000
1011,00	592,857
1011,17	3600,000
1011,33	315,385
1011,49	506,250
1011,66	331,250
1011,82	-708,333
1011,98	766,667
1012,14	469,231
1012,31	222,727
1012,47	-942,857
1012,63	5500,000
1012,80	461,111
1012,96	58,333
1013,12	-174,074
1013,29	370,833
1013,45	-126,471
1013,61	-1920,000
1013,77	-522,222
1013,94	425,000
1014,10	2900,000
1014,26	-94,118
1014,43	250,000
1014,59	0,000
1014,75	700,000
1014,91	388,571
1015,08	311,538
1015,24	453,333
1015,40	553,333
1015,56	511,765
1015,73	151,020
1015,89	544,444
1016,05	281,081
1016,21	303,704
1016,38	247,368
1016,54	-416,000
1016,70	405,263
1016,86	-607,692
1017,03	0,000
1017,19	812,500
1017,35	393,333
1017,51	1400,000
1017,68	685,714
1017,84	421,053
1018,00	133,333
1018,16	-625,000
1018,33	481,818
1018,49	571,429
1018,65	-300,000
1018,81	-102,439
1018,97	592,308
1019,14	-828,571
1019,30	447,619
1019,46	176,923
1019,62	1200,000
1019,79	-457,143
1019,95	-1625,000
1020,11	900,000
1020,27	135,000
1020,43	-775,000
1020,60	0,000
1020,76	170,588
1020,92	8500,000
1021,08	-133,333
1021,24	-3000,000
1021,41	284,848
1021,57	-170,833
1021,73	0,000
1021,89	-359,091
1022,05	337,143
1022,21	-107,692
1022,38	473,684
1022,54	1320,000
1022,70	277,778
1022,86	-3350,000
1023,02	944,444
1023,19	-180,000
1023,35	222,642
1023,51	232,258
1023,67	110,526
1023,83	381,818
1023,99	177,143
1024,16	-46,154
1024,32	243,750
1024,48	193,878
1024,64	-1020,000
1024,80	341,667
1024,96	453,846
1025,12	2800,000
1025,29	-900,000
1025,45	262,500
1025,61	2166,667
1025,77	319,048
1025,93	-246,154
1026,09	3300,000
1026,26	-1085,714
1026,42	-1900,000
1026,58	134,615
1026,74	900,000
1026,90	510,526
1027,06	-650,000
1027,22	-708,333
1027,38	800,000
1027,55	-236,000
1027,71	875,000
1027,87	182,500
1028,03	133,333
1028,19	-133,333
1028,35	93,243
1028,51	-37,097
1028,67	-820,000
1028,83	226,190
1029,00	585,714
1029,16	-513,333
1029,32	352,941
1029,48	4650,000
1029,64	1257,143
1029,80	1566,667
1029,96	203,922
1030,12	100,000
1030,28	1800,000
1030,44	-4400,000
1030,61	337,500
1030,77	-256,522
1030,93	241,860
1031,09	-100,000
1031,25	-555,556
1031,41	-1400,000
1031,57	-310,526
1031,73	709,091
1031,89	-239,394
1032,05	1157,143
1032,21	680,000
1032,37	-117,647
1032,53	-10,000
1032,69	-4300,000
1032,86	1283,333
1033,02	437,500
1033,18	-807,692
1033,34	-346,154
1033,50	222,581
1033,66	-388,889
1033,82	196,429
1033,98	-700,000
1034,14	833,333
1034,30	-113,636
1034,46	333,333
1034,62	561,111
1034,78	161,905
1034,94	-116,129
1035,10	-350,000
1035,26	-1244,444
1035,42	120,000
1035,58	1340,000
1035,74	-100,000
1035,90	-416,667
1036,06	162,264
1036,22	-348,000
1036,38	726,667
1036,54	730,000
1036,70	-3500,000
1036,86	-578,571
1037,02	-1850,000
1037,18	-146,429
1037,34	356,522
1037,50	-540,000
1037,66	-3033,333
1037,82	-264,706
1037,98	428,571
1038,14	-151,724
1038,30	23,077
1038,46	137,500
1038,62	170,968
1038,78	235,714
1038,94	-136,842
1039,10	-258,333
1039,26	-173,684
1039,42	-1228,571
1039,58	175,472
1039,74	287,500
1039,90	-69,231
1040,06	394,118
>>>>>End Processed Spectral Data<<<<<
