SpectraSuite Data File
++++++++++++++++++++++++++++++++++++
Date: Thu Feb 02 17:55:26 EET 2017
User: optolab
Dark Spectrum Present: Yes
Reference Spectrum Present: Yes
Number of Sampled Component Spectra: 1
Spectrometers: USB4C02475
Integration Time (usec): 100000 (USB4C02475)
Spectra Averaged: 1 (USB4C02475)
Boxcar Smoothing: 0 (USB4C02475)
Correct for Electrical Dark: No (USB4C02475)
Strobe/Lamp Enabled: No (USB4C02475)
Correct for Detector Non-linearity: No (USB4C02475)
Correct for Stray Light: No (USB4C02475)
Number of Pixels in Processed Spectrum: 3648
>>>>>Begin Processed Spectral Data<<<<<
344,91	-1125,000
345,13	-1125,000
345,35	-1125,000
345,57	-135,294
345,79	-47,826
346,00	-47,059
346,22	-1300,000
346,44	-151,515
346,66	308,511
346,87	391,304
347,09	630,769
347,31	7800,000
347,53	-1075,000
347,74	-160,465
347,96	-1328,571
348,18	297,059
348,40	564,706
348,61	-261,538
348,83	6800,000
349,05	148,718
349,27	300,000
349,48	-4300,000
349,70	807,143
349,92	428,571
350,14	72,973
350,35	-500,000
350,57	-555,556
350,79	-7,692
351,01	-233,333
351,22	910,000
351,44	791,667
351,66	405,556
351,87	1150,000
352,09	77,632
352,31	192,857
352,53	274,286
352,74	-500,000
352,96	357,895
353,18	278,125
353,40	-750,000
353,61	373,333
353,83	175,000
354,05	178,125
354,26	121,429
354,48	-1280,000
354,70	509,524
354,92	280,556
355,13	-141,860
355,35	183,333
355,57	159,375
355,78	78,571
356,00	180,851
356,22	218,182
356,44	255,814
356,65	328,571
356,87	194,444
357,09	248,571
357,30	163,636
357,52	-750,000
357,74	348,387
357,95	205,714
358,17	85,507
358,39	252,000
358,60	252,778
358,82	359,091
359,04	258,974
359,26	109,091
359,47	-484,615
359,69	250,000
359,91	420,000
360,12	260,000
360,34	100,000
360,56	-2500,000
360,77	755,556
360,99	504,167
361,21	156,522
361,42	-2200,000
361,64	-174,074
361,86	120,896
362,07	826,667
362,29	335,000
362,51	264,865
362,72	-1500,000
362,94	177,778
363,16	132,857
363,37	981,818
363,59	-6500,000
363,81	737,500
364,02	157,333
364,24	204,545
364,46	423,810
364,67	185,714
364,89	464,706
365,11	181,081
365,32	344,444
365,54	506,250
365,76	156,818
365,97	207,317
366,19	178,947
366,41	770,000
366,62	162,000
366,84	591,667
367,05	144,118
367,27	1460,000
367,49	302,564
367,70	644,444
367,92	150,000
368,14	-276,923
368,35	167,647
368,57	296,970
368,79	311,538
369,00	150,000
369,22	372,222
369,43	336,842
369,65	-113,793
369,87	-558,824
370,08	335,000
370,30	614,286
370,51	54,545
370,73	183,333
370,95	365,000
371,16	145,614
371,38	198,113
371,60	253,333
371,81	158,696
372,03	-1800,000
372,24	-131,250
372,46	2700,000
372,68	135,294
372,89	99,083
373,11	230,233
373,32	115,966
373,54	654,545
373,76	405,556
373,97	266,667
374,19	-326,316
374,40	152,857
374,62	535,294
374,84	450,000
375,05	211,538
375,27	278,378
375,48	124,691
375,70	276,471
375,92	226,786
376,13	400,000
376,35	354,167
376,56	305,000
376,78	159,184
376,99	190,909
377,21	278,125
377,43	72,727
377,64	158,000
377,86	506,250
378,07	143,182
378,29	169,444
378,51	82,143
378,72	-390,909
378,94	200,000
379,15	177,273
379,37	518,750
379,58	133,333
379,80	156,818
380,01	198,000
380,23	186,957
380,45	210,417
380,66	84,722
380,88	202,703
381,09	295,652
381,31	194,872
381,52	495,652
381,74	151,786
381,95	314,286
382,17	480,000
382,39	148,387
382,60	458,824
382,82	420,690
383,03	1766,667
383,25	108,642
383,46	616,667
383,68	170,213
383,89	409,091
384,11	110,959
384,32	157,895
384,54	-1114,286
384,76	182,353
384,97	165,000
385,19	205,263
385,40	278,125
385,62	200,000
385,83	240,426
386,05	1085,714
386,26	253,846
386,48	484,615
386,69	272,222
386,91	410,000
387,12	251,282
387,34	132,203
387,55	288,571
387,77	344,000
387,98	108,163
388,20	123,944
388,41	60,317
388,63	161,429
388,84	275,000
389,06	190,698
389,27	234,375
389,49	85,542
389,70	233,898
389,92	88,636
390,13	161,538
390,35	92,708
390,56	151,562
390,78	145,455
390,99	213,333
391,21	130,682
391,42	56,522
391,64	-820,000
391,85	168,966
392,07	-178,571
392,28	269,231
392,50	1380,000
392,71	5400,000
392,93	161,290
393,14	182,609
393,36	175,641
393,57	358,333
393,79	73,016
394,00	158,904
394,22	172,000
394,43	260,714
394,65	200,000
394,86	146,875
395,08	-587,500
395,29	51,064
395,50	-3100,000
395,72	1157,143
395,93	376,000
396,15	-164,286
396,36	120,000
396,58	-257,143
396,79	274,419
397,01	247,619
397,22	82,609
397,44	153,191
397,65	104,054
397,87	141,429
398,08	146,154
398,29	191,667
398,51	260,976
398,72	200,000
398,94	216,279
399,15	66,667
399,37	121,739
399,58	146,032
399,80	266,667
400,01	226,471
400,22	621,429
400,44	233,333
400,65	121,918
400,87	4300,000
401,08	111,236
401,30	132,000
401,51	145,455
401,72	98,387
401,94	239,024
402,15	187,755
402,37	229,545
402,58	197,674
402,80	300,000
403,01	69,444
403,22	86,747
403,44	191,667
403,65	95,918
403,87	106,667
404,08	171,154
404,30	131,250
404,51	91,429
404,72	872,727
404,94	81,928
405,15	146,269
405,37	97,802
405,58	-22,581
405,79	385,714
406,01	85,926
406,22	63,095
406,44	161,404
406,65	77,381
406,86	112,000
407,08	111,111
407,29	80,000
407,51	70,192
407,72	94,059
407,93	100,000
408,15	36,364
408,36	211,429
408,58	72,500
408,79	72,868
409,00	57,447
409,22	47,059
409,43	51,351
409,64	50,000
409,86	81,818
410,07	25,217
410,29	42,667
410,50	34,127
410,71	42,742
410,93	42,574
411,14	28,972
411,35	37,500
411,57	50,694
411,78	59,559
412,00	48,000
412,21	50,885
412,42	37,073
412,64	46,111
412,85	32,124
413,06	31,696
413,28	39,216
413,49	32,093
413,70	36,910
413,92	27,143
414,13	23,715
414,34	25,651
414,56	28,936
414,77	19,557
414,98	15,548
415,20	31,900
415,41	27,922
415,63	31,909
415,84	29,917
416,05	17,771
416,27	22,006
416,48	27,962
416,69	18,023
416,91	24,533
417,12	8,597
417,33	13,544
417,55	18,000
417,76	16,702
417,97	16,479
418,19	16,527
418,40	-0,213
418,61	15,952
418,83	14,789
419,04	8,062
419,25	12,759
419,46	13,162
419,68	7,817
419,89	14,888
420,10	14,785
420,32	4,901
420,53	8,831
420,74	10,992
420,96	6,635
421,17	12,657
421,38	5,105
421,60	6,217
421,81	4,605
422,02	5,594
422,23	7,326
422,45	6,316
422,66	8,528
422,87	6,531
423,09	1,803
423,30	2,901
423,51	3,494
423,73	3,338
423,94	5,632
424,15	2,308
424,36	5,031
424,58	7,806
424,79	2,993
425,00	3,598
425,22	5,412
425,43	4,009
425,64	1,754
425,85	3,833
426,07	5,313
426,28	4,965
426,49	3,764
426,71	1,763
426,92	4,519
427,13	4,679
427,34	3,927
427,56	5,800
427,77	1,408
427,98	3,332
428,19	2,171
428,41	3,019
428,62	6,018
428,83	5,238
429,04	6,610
429,26	6,779
429,47	8,756
429,68	9,456
429,89	11,740
430,11	14,091
430,32	15,943
430,53	16,884
430,74	19,740
430,96	21,249
431,17	25,836
431,38	27,708
431,59	28,690
431,81	29,849
432,02	30,647
432,23	32,186
432,44	35,702
432,66	35,356
432,87	36,208
433,08	38,696
433,29	39,294
433,51	39,101
433,72	40,433
433,93	42,099
434,14	40,370
434,35	43,084
434,57	41,049
434,78	43,757
434,99	41,726
435,20	43,520
435,42	42,204
435,63	44,226
435,84	43,890
436,05	43,015
436,26	43,917
436,48	44,781
436,69	43,159
436,90	42,587
437,11	43,912
437,32	42,111
437,54	42,895
437,75	42,547
437,96	43,218
438,17	42,573
438,38	42,883
438,60	43,677
438,81	44,503
439,02	46,636
439,23	47,304
439,44	48,375
439,66	50,863
439,87	50,451
440,08	51,023
440,29	51,965
440,50	53,813
440,72	53,166
440,93	53,669
441,14	51,126
441,35	51,110
441,56	51,230
441,77	49,329
441,99	48,759
442,20	48,091
442,41	47,181
442,62	48,402
442,83	47,324
443,04	47,610
443,26	50,007
443,47	48,915
443,68	49,222
443,89	50,131
444,10	49,751
444,31	49,807
444,53	50,691
444,74	49,652
444,95	49,453
445,16	49,269
445,37	49,137
445,58	48,937
445,80	51,169
446,01	49,326
446,22	49,228
446,43	50,386
446,64	49,486
446,85	50,261
447,06	49,387
447,28	49,479
447,49	49,452
447,70	49,412
447,91	48,247
448,12	47,802
448,33	46,963
448,54	46,559
448,76	46,209
448,97	44,146
449,18	42,752
449,39	41,733
449,60	40,320
449,81	38,272
450,02	36,949
450,23	34,186
450,45	33,400
450,66	31,409
450,87	29,050
451,08	27,729
451,29	24,982
451,50	22,829
451,71	20,784
451,92	18,962
452,13	17,439
452,35	15,362
452,56	13,498
452,77	12,598
452,98	10,694
453,19	9,319
453,40	8,205
453,61	7,256
453,82	6,066
454,03	5,135
454,25	4,678
454,46	3,813
454,67	3,443
454,88	2,806
455,09	2,885
455,30	2,168
455,51	2,154
455,72	1,761
455,93	1,604
456,14	1,663
456,35	1,144
456,56	1,042
456,78	0,910
456,99	1,288
457,20	0,814
457,41	0,872
457,62	0,371
457,83	0,649
458,04	0,786
458,25	0,388
458,46	0,541
458,67	0,678
458,88	0,445
459,09	0,427
459,30	0,283
459,51	0,540
459,73	0,346
459,94	0,631
460,15	0,178
460,36	0,186
460,57	0,409
460,78	0,515
460,99	0,417
461,20	0,476
461,41	0,487
461,62	0,384
461,83	0,341
462,04	0,286
462,25	0,420
462,46	0,383
462,67	0,368
462,88	0,283
463,09	0,276
463,30	0,538
463,51	0,364
463,72	0,649
463,93	0,338
464,15	0,443
464,36	0,354
464,57	0,161
464,78	0,484
464,99	0,347
465,20	0,191
465,41	0,222
465,62	0,426
465,83	0,262
466,04	0,417
466,25	0,350
466,46	0,376
466,67	0,375
466,88	0,383
467,09	0,382
467,30	0,334
467,51	0,252
467,72	0,281
467,93	0,290
468,14	0,321
468,35	0,397
468,56	0,364
468,77	0,449
468,98	0,427
469,19	0,259
469,40	0,352
469,61	0,319
469,82	0,349
470,03	0,310
470,24	0,321
470,45	0,255
470,66	0,551
470,87	0,465
471,08	0,413
471,29	0,209
471,50	0,327
471,71	0,198
471,92	0,315
472,13	0,408
472,34	0,258
472,55	0,642
472,76	0,504
472,97	0,332
473,18	0,350
473,39	0,346
473,60	0,345
473,81	0,312
474,01	0,439
474,22	0,390
474,43	0,424
474,64	0,545
474,85	0,091
475,06	0,451
475,27	0,541
475,48	0,259
475,69	0,361
475,90	0,443
476,11	0,439
476,32	0,477
476,53	0,540
476,74	0,391
476,95	0,474
477,16	0,516
477,37	0,526
477,58	0,212
477,79	0,344
478,00	0,250
478,21	0,686
478,41	0,266
478,62	0,372
478,83	0,494
479,04	0,498
479,25	0,407
479,46	0,177
479,67	0,091
479,88	0,310
480,09	0,344
480,30	0,430
480,51	0,451
480,72	0,236
480,93	0,500
481,14	0,294
481,34	0,357
481,55	0,448
481,76	0,516
481,97	0,267
482,18	0,285
482,39	0,460
482,60	0,447
482,81	0,200
483,02	0,282
483,23	0,472
483,44	0,255
483,65	0,238
483,85	0,394
484,06	0,491
484,27	0,165
484,48	0,245
484,69	0,487
484,90	0,189
485,11	0,492
485,32	0,527
485,53	0,297
485,73	0,553
485,94	0,284
486,15	0,275
486,36	0,259
486,57	0,462
486,78	0,534
486,99	0,389
487,20	0,336
487,41	0,396
487,61	0,500
487,82	0,158
488,03	0,574
488,24	0,430
488,45	0,605
488,66	0,429
488,87	0,621
489,08	0,561
489,28	0,122
489,49	0,429
489,70	0,331
489,91	0,449
490,12	0,392
490,33	0,266
490,54	0,510
490,74	0,453
490,95	0,388
491,16	0,480
491,37	0,459
491,58	0,343
491,79	0,324
492,00	0,168
492,20	0,521
492,41	0,410
492,62	0,334
492,83	0,433
493,04	0,296
493,25	0,512
493,45	0,267
493,66	0,359
493,87	0,330
494,08	0,302
494,29	0,341
494,50	0,237
494,70	0,347
494,91	0,378
495,12	0,410
495,33	0,502
495,54	0,446
495,75	0,458
495,95	0,300
496,16	0,559
496,37	0,381
496,58	0,420
496,79	0,230
496,99	0,295
497,20	0,457
497,41	0,501
497,62	0,358
497,83	0,524
498,04	0,316
498,24	0,563
498,45	0,256
498,66	0,417
498,87	0,573
499,08	0,470
499,28	0,407
499,49	0,502
499,70	0,494
499,91	0,392
500,12	0,515
500,32	0,677
500,53	0,497
500,74	0,727
500,95	0,563
501,15	0,965
501,36	0,864
501,57	1,004
501,78	1,075
501,99	1,164
502,19	1,398
502,40	1,875
502,61	2,035
502,82	2,499
503,02	2,996
503,23	3,291
503,44	4,392
503,65	4,916
503,86	5,333
504,06	6,500
504,27	7,485
504,48	8,150
504,69	9,401
504,89	10,854
505,10	12,149
505,31	13,390
505,52	14,669
505,72	16,636
505,93	18,041
506,14	19,460
506,35	21,726
506,55	23,674
506,76	25,178
506,97	26,712
507,18	28,612
507,38	30,371
507,59	32,100
507,80	33,944
508,01	34,724
508,21	35,629
508,42	37,607
508,63	37,810
508,84	39,211
509,04	39,331
509,25	40,720
509,46	40,314
509,67	41,505
509,87	42,299
510,08	42,383
510,29	42,304
510,49	42,827
510,70	42,626
510,91	43,165
511,12	42,913
511,32	43,818
511,53	43,657
511,74	43,939
511,94	44,055
512,15	43,989
512,36	45,258
512,57	45,735
512,77	44,976
512,98	45,910
513,19	46,347
513,39	45,942
513,60	46,124
513,81	46,249
514,01	46,538
514,22	46,628
514,43	46,728
514,64	46,753
514,84	47,017
515,05	46,922
515,26	46,603
515,46	46,578
515,67	45,686
515,88	45,321
516,08	44,491
516,29	43,585
516,50	44,198
516,70	42,801
516,91	42,247
517,12	41,091
517,32	40,172
517,53	39,753
517,74	37,747
517,95	37,234
518,15	35,865
518,36	35,155
518,57	34,600
518,77	33,165
518,98	31,856
519,19	30,443
519,39	29,572
519,60	28,896
519,80	27,813
520,01	26,798
520,22	25,912
520,42	24,928
520,63	24,218
520,84	23,171
521,04	22,106
521,25	21,186
521,46	19,675
521,66	19,209
521,87	18,316
522,08	17,674
522,28	16,727
522,49	16,300
522,70	15,354
522,90	13,956
523,11	13,454
523,31	12,862
523,52	11,472
523,73	10,689
523,93	9,488
524,14	8,529
524,35	7,754
524,55	6,546
524,76	5,789
524,97	4,932
525,17	4,450
525,38	3,807
525,58	3,121
525,79	2,638
526,00	2,175
526,20	1,711
526,41	1,382
526,61	0,961
526,82	0,652
527,03	0,721
527,23	0,549
527,44	0,578
527,64	0,598
527,85	0,350
528,06	0,503
528,26	0,332
528,47	0,383
528,68	0,522
528,88	0,321
529,09	0,367
529,29	0,473
529,50	0,305
529,70	0,485
529,91	0,293
530,12	0,286
530,32	0,361
530,53	0,385
530,73	0,173
530,94	0,330
531,15	0,285
531,35	0,537
531,56	0,478
531,76	0,384
531,97	0,370
532,17	0,369
532,38	0,551
532,59	0,395
532,79	0,477
533,00	0,332
533,20	0,375
533,41	0,324
533,61	0,189
533,82	0,139
534,03	0,363
534,23	0,259
534,44	0,594
534,64	0,477
534,85	0,223
535,05	0,280
535,26	0,291
535,46	0,372
535,67	0,111
535,88	0,173
536,08	0,498
536,29	0,239
536,49	0,433
536,70	0,393
536,90	0,408
537,11	0,234
537,31	0,384
537,52	0,489
537,72	0,461
537,93	0,372
538,13	0,467
538,34	0,245
538,55	0,452
538,75	0,170
538,96	0,256
539,16	0,241
539,37	0,443
539,57	0,475
539,78	0,398
539,98	0,437
540,19	0,618
540,39	0,312
540,60	0,183
540,80	0,268
541,01	0,554
541,21	0,650
541,42	0,453
541,62	0,747
541,83	0,498
542,03	0,738
542,24	0,766
542,44	0,737
542,65	0,536
542,85	0,833
543,06	0,700
543,26	0,751
543,47	0,924
543,67	0,813
543,88	0,703
544,08	0,608
544,29	0,710
544,49	0,718
544,70	0,645
544,90	0,756
545,11	0,748
545,31	0,891
545,52	0,820
545,72	0,842
545,93	0,817
546,13	0,737
546,34	0,821
546,54	0,523
546,75	0,591
546,95	0,711
547,15	0,473
547,36	0,674
547,56	0,588
547,77	0,519
547,97	0,301
548,18	0,360
548,38	0,456
548,59	0,254
548,79	0,532
549,00	0,433
549,20	0,476
549,41	0,385
549,61	0,419
549,81	0,486
550,02	0,413
550,22	0,447
550,43	0,251
550,63	0,306
550,84	0,433
551,04	0,314
551,25	0,503
551,45	0,529
551,65	0,524
551,86	0,421
552,06	0,347
552,27	0,269
552,47	0,388
552,68	0,441
552,88	0,327
553,08	0,347
553,29	0,435
553,49	0,418
553,70	0,542
553,90	0,255
554,11	0,352
554,31	0,238
554,51	0,418
554,72	0,299
554,92	0,280
555,13	0,400
555,33	0,270
555,53	0,240
555,74	0,378
555,94	0,366
556,15	0,340
556,35	0,223
556,56	0,329
556,76	0,288
556,96	0,352
557,17	0,412
557,37	0,455
557,58	0,126
557,78	0,379
557,98	0,243
558,19	0,435
558,39	0,378
558,59	0,355
558,80	0,262
559,00	0,327
559,21	0,333
559,41	0,440
559,61	0,193
559,82	0,273
560,02	0,492
560,23	0,303
560,43	0,367
560,63	0,138
560,84	0,417
561,04	0,359
561,24	0,351
561,45	0,377
561,65	0,156
561,85	0,290
562,06	0,236
562,26	0,296
562,47	0,465
562,67	0,223
562,87	0,220
563,08	0,357
563,28	0,340
563,48	0,399
563,69	0,239
563,89	0,545
564,09	0,461
564,30	0,467
564,50	0,401
564,70	0,402
564,91	0,616
565,11	0,595
565,31	0,914
565,52	0,740
565,72	1,017
565,92	1,109
566,13	1,131
566,33	1,480
566,53	1,673
566,74	1,908
566,94	2,109
567,14	2,899
567,35	3,363
567,55	3,986
567,75	4,478
567,96	5,098
568,16	5,817
568,36	6,370
568,57	7,381
568,77	8,161
568,97	9,456
569,18	10,194
569,38	11,528
569,58	12,527
569,79	14,112
569,99	15,059
570,19	16,871
570,39	18,063
570,60	18,804
570,80	21,268
571,00	22,418
571,21	23,903
571,41	24,855
571,61	26,386
571,82	27,140
572,02	28,314
572,22	27,975
572,42	29,463
572,63	29,924
572,83	30,396
573,03	30,351
573,24	31,560
573,44	32,041
573,64	32,178
573,84	33,429
574,05	34,144
574,25	34,867
574,45	35,470
574,66	36,533
574,86	37,360
575,06	38,466
575,26	39,330
575,47	40,347
575,67	40,781
575,87	41,750
576,07	42,607
576,28	43,531
576,48	43,850
576,68	44,244
576,88	45,415
577,09	44,698
577,29	45,723
577,49	45,925
577,69	45,632
577,90	46,292
578,10	45,863
578,30	46,943
578,50	46,374
578,71	46,859
578,91	46,973
579,11	47,356
579,31	48,092
579,52	49,044
579,72	48,083
579,92	48,991
580,12	49,167
580,33	48,411
580,53	48,787
580,73	48,750
580,93	49,108
581,13	48,743
581,34	47,337
581,54	48,488
581,74	48,839
581,94	47,883
582,15	48,253
582,35	47,689
582,55	47,772
582,75	46,825
582,95	47,103
583,16	46,241
583,36	46,466
583,56	46,446
583,76	46,306
583,96	46,550
584,17	45,698
584,37	45,915
584,57	46,003
584,77	46,107
584,97	46,285
585,18	46,250
585,38	46,134
585,58	46,902
585,78	46,833
585,98	46,497
586,19	45,816
586,39	46,234
586,59	46,144
586,79	45,848
586,99	45,246
587,20	45,386
587,40	44,774
587,60	44,570
587,80	44,157
588,00	43,292
588,20	43,094
588,41	42,528
588,61	42,445
588,81	41,948
589,01	41,061
589,21	40,201
589,41	39,748
589,62	39,194
589,82	38,451
590,02	38,516
590,22	37,497
590,42	37,074
590,62	36,636
590,83	35,951
591,03	34,894
591,23	34,466
591,43	33,733
591,63	33,209
591,83	32,078
592,03	31,261
592,24	30,026
592,44	29,057
592,64	27,306
592,84	26,815
593,04	24,847
593,24	23,610
593,44	21,868
593,65	20,312
593,85	18,934
594,05	17,175
594,25	15,776
594,45	13,961
594,65	12,876
594,85	10,740
595,06	9,805
595,26	8,557
595,46	7,263
595,66	6,481
595,86	5,513
596,06	4,584
596,26	3,790
596,46	3,486
596,66	2,743
596,87	2,426
597,07	1,870
597,27	1,701
597,47	1,474
597,67	1,202
597,87	0,869
598,07	0,823
598,27	0,748
598,47	0,830
598,67	0,693
598,88	0,542
599,08	0,369
599,28	0,461
599,48	0,448
599,68	0,499
599,88	0,486
600,08	0,315
600,28	0,431
600,48	0,237
600,68	0,328
600,88	0,388
601,09	0,450
601,29	0,441
601,49	0,260
601,69	0,282
601,89	0,301
602,09	0,260
602,29	0,252
602,49	0,098
602,69	0,304
602,89	0,278
603,09	0,193
603,29	0,368
603,49	0,383
603,69	0,255
603,90	0,203
604,10	0,319
604,30	0,340
604,50	0,312
604,70	0,177
604,90	0,278
605,10	0,301
605,30	0,199
605,50	0,172
605,70	0,448
605,90	0,050
606,10	0,311
606,30	0,203
606,50	0,414
606,70	0,255
606,90	0,105
607,10	0,370
607,30	0,380
607,50	0,263
607,70	0,342
607,90	0,437
608,10	0,344
608,30	0,309
608,50	0,432
608,70	0,537
608,90	0,295
609,11	0,195
609,31	0,373
609,51	0,385
609,71	0,293
609,91	0,257
610,11	0,526
610,31	0,534
610,51	0,567
610,71	0,595
610,91	0,784
611,11	0,759
611,31	0,920
611,51	0,743
611,71	0,871
611,91	0,903
612,11	0,675
612,31	0,834
612,51	0,621
612,71	0,594
612,91	0,562
613,11	0,560
613,31	0,546
613,51	0,526
613,71	0,552
613,91	0,536
614,11	0,443
614,31	0,544
614,50	0,570
614,70	0,339
614,90	0,455
615,10	0,350
615,30	0,544
615,50	0,342
615,70	0,559
615,90	0,312
616,10	0,267
616,30	0,290
616,50	0,275
616,70	0,335
616,90	0,308
617,10	0,469
617,30	0,314
617,50	0,420
617,70	0,160
617,90	0,345
618,10	0,395
618,30	0,313
618,50	0,444
618,70	0,288
618,90	0,255
619,10	0,164
619,30	0,120
619,49	0,427
619,69	0,218
619,89	0,336
620,09	0,195
620,29	0,454
620,49	0,369
620,69	0,264
620,89	0,318
621,09	0,425
621,29	0,205
621,49	0,266
621,69	0,230
621,89	0,479
622,09	0,375
622,29	0,148
622,48	0,407
622,68	0,230
622,88	0,347
623,08	0,279
623,28	0,217
623,48	0,370
623,68	0,391
623,88	0,275
624,08	0,211
624,28	0,448
624,48	0,335
624,67	0,201
624,87	0,314
625,07	0,334
625,27	0,215
625,47	0,343
625,67	0,177
625,87	0,275
626,07	0,195
626,27	0,263
626,47	0,408
626,66	0,229
626,86	0,344
627,06	0,359
627,26	0,184
627,46	-0,041
627,66	0,283
627,86	0,262
628,06	0,232
628,25	0,218
628,45	0,197
628,65	0,206
628,85	0,205
629,05	0,179
629,25	0,156
629,45	0,244
629,65	0,294
629,84	0,150
630,04	0,292
630,24	0,294
630,44	0,045
630,64	0,364
630,84	0,203
631,04	0,469
631,23	0,388
631,43	0,196
631,63	0,269
631,83	0,341
632,03	0,417
632,23	0,233
632,42	0,411
632,62	0,352
632,82	0,249
633,02	0,278
633,22	0,330
633,42	0,360
633,62	0,165
633,81	0,022
634,01	0,313
634,21	0,282
634,41	0,214
634,61	0,179
634,80	0,339
635,00	0,335
635,20	0,289
635,40	0,019
635,60	0,299
635,80	0,394
635,99	0,372
636,19	0,166
636,39	0,222
636,59	0,093
636,79	0,422
636,98	0,460
637,18	0,338
637,38	0,377
637,58	0,317
637,78	0,427
637,97	0,022
638,17	0,205
638,37	0,443
638,57	0,348
638,77	0,318
638,96	-0,029
639,16	0,652
639,36	0,315
639,56	0,221
639,76	0,141
639,95	0,254
640,15	0,245
640,35	0,042
640,55	0,254
640,75	0,207
640,94	0,218
641,14	0,469
641,34	0,494
641,54	0,303
641,73	0,056
641,93	0,361
642,13	0,245
642,33	0,137
642,53	0,532
642,72	0,507
642,92	0,677
643,12	0,579
643,32	0,284
643,51	0,507
643,71	0,033
643,91	0,284
644,11	0,322
644,30	0,082
644,50	0,342
644,70	0,098
644,90	0,703
645,09	0,234
645,29	0,468
645,49	0,399
645,69	0,431
645,88	0,425
646,08	0,651
646,28	0,708
646,48	0,162
646,67	0,204
646,87	0,295
647,07	0,224
647,26	0,939
647,46	0,605
647,66	0,235
647,86	0,718
648,05	0,440
648,25	0,694
648,45	0,410
648,65	0,191
648,84	0,176
649,04	0,594
649,24	0,663
649,43	0,591
649,63	0,272
649,83	0,587
650,03	0,809
650,22	0,502
650,42	0,476
650,62	0,522
650,81	0,129
651,01	0,543
651,21	0,318
651,40	0,452
651,60	-0,065
651,80	0,759
652,00	0,577
652,19	0,524
652,39	0,586
652,59	0,642
652,78	0,402
652,98	-0,008
653,18	0,636
653,37	0,593
653,57	0,817
653,77	0,535
653,96	0,534
654,16	0,572
654,36	0,560
654,55	0,320
654,75	0,147
654,95	0,494
655,14	0,181
655,34	0,854
655,54	0,740
655,73	0,591
655,93	0,471
656,13	0,183
656,32	-0,053
656,52	0,327
656,72	0,313
656,91	0,441
657,11	0,362
657,31	0,252
657,50	0,828
657,70	0,599
657,90	0,721
658,09	0,434
658,29	0,329
658,49	0,934
658,68	0,513
658,88	0,436
659,07	0,532
659,27	0,044
659,47	0,514
659,66	0,371
659,86	0,384
660,06	0,320
660,25	0,186
660,45	0,408
660,64	0,334
660,84	0,349
661,04	0,700
661,23	0,395
661,43	0,641
661,63	0,241
661,82	-0,009
662,02	0,903
662,21	0,488
662,41	0,962
662,61	1,128
662,80	0,334
663,00	0,139
663,19	0,672
663,39	0,121
663,59	0,818
663,78	0,653
663,98	0,530
664,17	0,656
664,37	0,569
664,57	0,754
664,76	0,433
664,96	-0,068
665,15	0,264
665,35	0,296
665,55	-0,009
665,74	0,388
665,94	0,380
666,13	0,582
666,33	0,295
666,53	0,568
666,72	0,278
666,92	0,569
667,11	0,391
667,31	0,289
667,50	0,207
667,70	0,279
667,90	0,114
668,09	0,271
668,29	0,213
668,48	0,382
668,68	0,179
668,87	0,693
669,07	0,256
669,26	0,208
669,46	0,513
669,66	0,467
669,85	0,458
670,05	0,253
670,24	0,512
670,44	0,394
670,63	0,546
670,83	0,507
671,02	0,509
671,22	0,364
671,42	0,448
671,61	0,063
671,81	0,400
672,00	0,515
672,20	0,441
672,39	0,450
672,59	0,045
672,78	0,324
672,98	0,301
673,17	0,460
673,37	0,217
673,56	0,341
673,76	-0,044
673,95	0,576
674,15	0,628
674,34	0,200
674,54	0,499
674,73	0,505
674,93	0,255
675,13	0,446
675,32	0,631
675,52	0,427
675,71	0,309
675,91	0,578
676,10	0,556
676,30	0,302
676,49	0,176
676,69	0,321
676,88	0,349
677,08	0,177
677,27	0,274
677,47	0,390
677,66	0,401
677,86	0,499
678,05	0,147
678,24	0,445
678,44	0,568
678,63	0,467
678,83	0,180
679,02	0,264
679,22	0,580
679,41	0,416
679,61	0,164
679,80	0,201
680,00	0,041
680,19	0,199
680,39	0,238
680,58	0,564
680,78	0,195
680,97	0,239
681,17	0,476
681,36	0,040
681,56	0,275
681,75	0,201
681,94	0,287
682,14	0,323
682,33	0,477
682,53	0,130
682,72	0,344
682,92	0,485
683,11	0,190
683,31	0,220
683,50	0,073
683,69	0,298
683,89	0,180
684,08	0,213
684,28	0,122
684,47	0,326
684,67	0,193
684,86	0,232
685,06	0,192
685,25	0,414
685,44	0,252
685,64	0,474
685,83	0,323
686,03	-0,009
686,22	0,283
686,42	0,236
686,61	0,268
686,80	0,128
687,00	0,221
687,19	0,280
687,39	0,213
687,58	0,247
687,77	0,187
687,97	0,235
688,16	0,270
688,36	0,126
688,55	0,160
688,74	0,128
688,94	0,132
689,13	0,168
689,33	0,071
689,52	0,346
689,71	0,252
689,91	0,166
690,10	0,236
690,30	-0,016
690,49	0,191
690,68	0,520
690,88	0,095
691,07	0,277
691,27	0,176
691,46	0,363
691,65	0,316
691,85	0,350
692,04	0,170
692,23	0,111
692,43	0,444
692,62	0,551
692,82	0,425
693,01	0,346
693,20	0,451
693,40	0,452
693,59	0,357
693,78	0,645
693,98	0,351
694,17	0,511
694,36	0,739
694,56	0,535
694,75	0,635
694,94	0,611
695,14	0,620
695,33	0,514
695,53	0,735
695,72	0,704
695,91	0,376
696,11	0,583
696,30	0,764
696,49	0,582
696,69	0,518
696,88	0,371
697,07	0,582
697,27	0,696
697,46	0,638
697,65	0,392
697,85	0,304
698,04	0,608
698,23	0,578
698,43	0,568
698,62	0,129
698,81	0,493
699,01	0,520
699,20	0,484
699,39	0,281
699,58	0,270
699,78	0,092
699,97	0,369
700,16	0,331
700,36	0,576
700,55	0,483
700,74	0,692
700,94	0,278
701,13	0,256
701,32	0,398
701,52	0,399
701,71	0,573
701,90	0,512
702,09	0,867
702,29	0,471
702,48	0,250
702,67	0,666
702,87	1,342
703,06	0,764
703,25	1,000
703,44	0,846
703,64	0,746
703,83	1,132
704,02	0,937
704,22	0,546
704,41	0,635
704,60	1,121
704,79	1,346
704,99	1,241
705,18	1,694
705,37	1,190
705,56	1,140
705,76	1,987
705,95	1,178
706,14	1,200
706,33	0,927
706,53	1,115
706,72	1,172
706,91	2,039
707,11	1,075
707,30	0,696
707,49	1,848
707,68	0,887
707,88	1,432
708,07	1,097
708,26	0,970
708,45	0,545
708,64	2,207
708,84	0,970
709,03	2,028
709,22	0,975
709,41	2,824
709,61	2,117
709,80	2,166
709,99	2,344
710,18	2,405
710,38	0,975
710,57	0,064
710,76	0,918
710,95	1,657
711,14	1,986
711,34	1,996
711,53	3,185
711,72	1,999
711,91	2,952
712,11	3,357
712,30	0,654
712,49	1,685
712,68	1,979
712,87	1,388
713,07	3,493
713,26	4,332
713,45	0,957
713,64	3,230
713,83	1,891
714,03	1,835
714,22	2,670
714,41	3,771
714,60	2,183
714,79	1,344
714,99	2,037
715,18	4,002
715,37	2,914
715,56	1,598
715,75	3,152
715,94	3,986
716,14	4,598
716,33	3,850
716,52	3,669
716,71	3,773
716,90	2,608
717,10	2,004
717,29	3,939
717,48	1,279
717,67	3,102
717,86	2,480
718,05	3,103
718,24	3,567
718,44	5,794
718,63	-0,365
718,82	1,999
719,01	2,242
719,20	5,587
719,39	3,007
719,59	2,669
719,78	0,935
719,97	3,748
720,16	4,368
720,35	0,206
720,54	1,607
720,73	4,369
720,93	3,109
721,12	1,221
721,31	3,134
721,50	5,236
721,69	1,636
721,88	3,610
722,07	3,001
722,27	4,762
722,46	3,073
722,65	4,130
722,84	1,371
723,03	6,554
723,22	4,351
723,41	2,159
723,60	1,717
723,79	10,149
723,99	5,616
724,18	6,678
724,37	-1,090
724,56	3,918
724,75	4,348
724,94	8,361
725,13	3,519
725,32	7,651
725,51	2,791
725,71	3,904
725,90	7,561
726,09	4,384
726,28	3,432
726,47	2,761
726,66	7,762
726,85	7,299
727,04	3,874
727,23	7,163
727,42	7,930
727,61	8,230
727,81	2,054
728,00	4,678
728,19	4,984
728,38	1,856
728,57	2,292
728,76	6,652
728,95	10,417
729,14	4,654
729,33	6,989
729,52	3,712
729,71	3,471
729,90	9,341
730,09	2,459
730,28	6,922
730,48	9,932
730,67	5,580
730,86	7,210
731,05	1,050
731,24	0,000
731,43	6,156
731,62	2,520
731,81	4,994
732,00	14,251
732,19	4,808
732,38	5,769
732,57	5,746
732,76	5,198
732,95	5,277
733,14	1,722
733,33	3,042
733,52	5,618
733,71	5,595
733,90	-0,706
734,09	8,649
734,28	4,068
734,47	7,778
734,66	7,487
734,85	4,143
735,04	4,280
735,23	7,983
735,42	12,158
735,61	11,079
735,81	10,947
736,00	2,279
736,19	6,383
736,38	6,437
736,57	12,346
736,76	7,445
736,95	11,306
737,14	8,134
737,33	10,608
737,52	12,923
737,71	3,770
737,90	9,119
738,09	10,350
738,28	7,922
738,47	10,036
738,66	5,769
738,85	12,613
739,04	6,003
739,22	2,508
739,41	8,640
739,60	4,437
739,79	2,698
739,98	7,527
740,17	9,386
740,36	14,467
740,55	15,446
740,74	14,923
740,93	12,046
741,12	10,357
741,31	4,401
741,50	1,890
741,69	8,142
741,88	7,312
742,07	13,225
742,26	10,286
742,45	6,557
742,64	4,570
742,83	10,619
743,02	2,316
743,21	22,744
743,40	1,656
743,59	10,662
743,78	4,110
743,97	13,077
744,16	9,646
744,34	-6,061
744,53	13,814
744,72	11,065
744,91	3,571
745,10	9,224
745,29	4,234
745,48	8,182
745,67	8,656
745,86	13,024
746,05	8,294
746,24	16,495
746,43	7,923
746,62	14,440
746,81	15,056
747,00	13,129
747,18	15,468
747,37	18,105
747,56	6,118
747,75	1,724
747,94	11,893
748,13	17,226
748,32	11,667
748,51	11,421
748,70	12,555
748,89	8,899
749,08	1,163
749,26	9,031
749,45	13,137
749,64	9,068
749,83	20,000
750,02	20,652
750,21	11,959
750,40	16,397
750,59	8,043
750,78	16,209
750,96	8,564
751,15	15,187
751,34	11,080
751,53	3,552
751,72	6,479
751,91	16,062
752,10	12,827
752,29	17,600
752,47	2,579
752,66	27,619
752,85	21,311
753,04	16,760
753,23	17,647
753,42	19,946
753,61	17,555
753,80	7,216
753,98	23,232
754,17	20,669
754,36	13,226
754,55	14,458
754,74	22,078
754,93	22,865
755,12	21,068
755,30	13,636
755,49	13,081
755,68	23,620
755,87	10,355
756,06	7,986
756,25	17,325
756,43	1,678
756,62	21,739
756,81	16,887
757,00	12,500
757,19	19,792
757,38	14,286
757,56	16,400
757,75	11,604
757,94	11,027
758,13	13,699
758,32	19,585
758,51	17,508
758,69	13,900
758,88	9,764
759,07	21,856
759,26	9,894
759,45	18,596
759,63	22,944
759,82	27,368
760,01	24,176
760,20	24,843
760,39	26,814
760,57	22,300
760,76	22,997
760,95	26,389
761,14	28,102
761,33	25,484
761,51	13,929
761,70	27,509
761,89	21,778
762,08	29,740
762,27	18,773
762,45	16,667
762,64	11,055
762,83	47,410
763,02	14,783
763,21	6,000
763,39	20,629
763,58	27,509
763,77	11,814
763,96	31,474
764,14	22,083
764,33	11,905
764,52	31,250
764,71	20,000
764,89	24,554
765,08	4,926
765,27	27,234
765,46	15,247
765,65	18,431
765,83	37,557
766,02	7,143
766,21	30,055
766,40	17,899
766,58	20,635
766,77	24,312
766,96	29,675
767,15	35,714
767,33	21,739
767,52	20,961
767,71	17,544
767,90	5,025
768,08	46,108
768,27	24,390
768,46	21,491
768,64	21,759
768,83	16,667
769,02	12,808
769,21	27,083
769,39	45,714
769,58	46,753
769,77	44,681
769,96	33,333
770,14	33,880
770,33	33,645
770,52	69,784
770,70	27,568
770,89	49,189
771,08	28,916
771,27	24,737
771,45	16,471
771,64	32,727
771,83	34,804
772,01	54,639
772,20	40,299
772,39	18,354
772,57	31,343
772,76	18,243
772,95	10,345
773,14	37,415
773,32	5,650
773,51	31,548
773,70	14,388
773,88	34,839
774,07	28,934
774,26	2,419
774,44	64,662
774,63	17,964
774,82	40,260
775,00	28,505
775,19	37,500
775,38	27,660
775,56	65,217
775,75	32,967
775,94	35,833
776,12	30,719
776,31	34,586
776,50	30,137
776,68	13,441
776,87	55,502
777,06	49,686
777,24	31,092
777,43	48,663
777,62	52,247
777,80	33,962
777,99	45,000
778,18	33,908
778,36	33,898
778,55	44,068
778,74	44,531
778,92	35,802
779,11	62,727
779,29	6,383
779,48	49,645
779,67	43,243
779,85	14,035
780,04	34,783
780,23	8,333
780,41	72,034
780,60	19,463
780,79	42,742
780,97	30,719
781,16	23,936
781,34	54,730
781,53	67,857
781,72	57,658
781,90	27,545
782,09	82,558
782,28	65,306
782,46	85,714
782,65	32,394
782,83	33,333
783,02	35,965
783,21	50,376
783,39	43,697
783,58	66,957
783,76	46,939
783,95	38,028
784,14	60,526
784,32	45,882
784,51	62,838
784,69	17,187
784,88	51,402
785,06	54,967
785,25	39,716
785,44	9,677
785,62	64,286
785,81	51,852
785,99	51,880
786,18	52,252
786,37	67,033
786,55	50,000
786,74	57,273
786,92	42,657
787,11	23,611
787,29	57,143
787,48	20,430
787,67	21,698
787,85	88,608
788,04	60,360
788,22	41,584
788,41	81,890
788,59	33,553
788,78	63,736
788,96	52,066
789,15	64,167
789,34	73,077
789,52	46,774
789,71	65,468
789,89	27,273
790,08	96,250
790,26	63,057
790,45	116,667
790,63	28,736
790,82	70,769
791,00	31,858
791,19	40,800
791,38	29,524
791,56	70,909
791,75	61,111
791,93	75,000
792,12	80,870
792,30	37,226
792,49	18,182
792,67	44,118
792,86	88,000
793,04	50,926
793,23	66,316
793,41	62,319
793,60	61,111
793,78	32,381
793,97	65,972
794,15	95,489
794,34	57,333
794,52	30,108
794,71	57,364
794,89	28,788
795,08	40,000
795,26	73,333
795,45	58,333
795,63	53,226
795,82	86,813
796,00	53,000
796,19	32,520
796,37	37,405
796,56	21,359
796,74	0,000
796,93	56,061
797,11	89,157
797,30	64,444
797,48	31,250
797,67	50,407
797,85	47,692
798,04	16,102
798,22	103,846
798,41	24,038
798,59	87,619
798,77	54,217
798,96	56,173
799,14	74,194
799,33	59,633
799,51	54,167
799,70	64,615
799,88	77,982
800,07	93,130
800,25	57,831
800,44	112,963
800,62	90,278
800,80	47,887
800,99	160,274
801,17	40,517
801,36	63,571
801,54	65,000
801,73	27,368
801,91	47,934
802,10	48,235
802,28	87,200
802,46	40,789
802,65	41,007
802,83	58,667
803,02	58,871
803,20	103,614
803,39	74,713
803,57	36,220
803,75	26,016
803,94	61,905
804,12	82,069
804,31	42,029
804,49	43,200
804,67	16,176
804,86	42,478
805,04	73,494
805,23	69,912
805,41	48,333
805,59	71,233
805,78	83,200
805,96	72,289
806,15	101,980
806,33	71,053
806,51	61,333
806,70	35,338
806,88	77,907
807,07	69,369
807,25	56,044
807,43	52,679
807,62	67,257
807,80	60,000
807,99	55,385
808,17	43,307
808,35	47,000
808,54	81,884
808,72	46,847
808,90	60,959
809,09	51,087
809,27	102,667
809,46	92,308
809,64	115,854
809,82	68,212
810,01	42,187
810,19	54,545
810,37	46,875
810,56	130,000
810,74	46,753
810,92	30,667
811,11	58,772
811,29	45,283
811,48	44,615
811,66	83,146
811,84	61,538
812,03	67,213
812,21	47,368
812,39	55,652
812,58	63,158
812,76	68,345
812,94	54,217
813,13	39,362
813,31	74,000
813,49	62,963
813,68	42,727
813,86	48,315
814,04	64,463
814,23	37,349
814,41	21,348
814,59	44,660
814,78	34,559
814,96	45,912
815,14	81,308
815,33	23,256
815,51	37,008
815,69	73,333
815,87	67,327
816,06	51,304
816,24	47,826
816,42	59,559
816,61	53,459
816,79	66,379
816,97	78,409
817,16	27,219
817,34	53,175
817,52	83,471
817,70	83,168
817,89	45,926
818,07	34,932
818,25	51,020
818,44	107,692
818,62	0,775
818,80	48,872
818,98	51,592
819,17	87,395
819,35	54,787
819,53	55,970
819,72	74,051
819,90	71,318
820,08	15,385
820,26	30,172
820,45	22,819
820,63	70,536
820,81	56,000
820,99	39,716
821,18	65,306
821,36	71,519
821,54	75,172
821,73	26,667
821,91	57,895
822,09	49,194
822,27	38,065
822,46	36,765
822,64	60,000
822,82	55,249
823,00	20,994
823,19	76,923
823,37	44,242
823,55	44,318
823,73	39,310
823,91	51,449
824,10	55,914
824,28	56,784
824,46	0,971
824,64	42,105
824,83	55,280
825,01	50,000
825,19	32,258
825,37	33,043
825,56	56,132
825,74	45,408
825,92	22,930
826,10	68,182
826,28	23,214
826,47	24,737
826,65	52,482
826,83	34,483
827,01	41,040
827,19	57,738
827,38	44,444
827,56	26,705
827,74	44,134
827,92	47,093
828,10	29,487
828,29	61,538
828,47	35,366
828,65	40,000
828,83	12,121
829,01	44,022
829,20	62,637
829,38	43,750
829,56	47,283
829,74	35,220
829,92	30,556
830,10	30,460
830,29	25,628
830,47	24,121
830,65	31,707
830,83	40,625
831,01	37,500
831,20	38,835
831,38	18,182
831,56	29,767
831,74	35,545
831,92	44,079
832,10	44,286
832,29	6,757
832,47	12,921
832,65	36,765
832,83	38,967
833,01	33,000
833,19	29,864
833,37	47,511
833,56	35,021
833,74	47,059
833,92	25,463
834,10	36,515
834,28	31,646
834,46	21,267
834,64	46,296
834,83	34,091
835,01	43,568
835,19	30,400
835,37	23,140
835,55	32,292
835,73	31,034
835,91	43,542
836,09	18,251
836,28	35,055
836,46	26,800
836,64	30,451
836,82	26,244
837,00	25,725
837,18	15,242
837,36	36,255
837,54	40,909
837,72	16,379
837,91	21,642
838,09	10,757
838,27	24,333
838,45	27,305
838,63	16,176
838,81	17,722
838,99	42,339
839,17	36,486
839,35	31,560
839,53	24,211
839,72	30,075
839,90	27,148
840,08	27,692
840,26	18,254
840,44	12,085
840,62	25,517
840,80	35,714
840,98	16,078
841,16	12,548
841,34	30,100
841,52	29,358
841,70	26,462
841,89	16,129
842,07	15,361
842,25	33,621
842,43	9,914
842,61	21,053
842,79	30,226
842,97	23,453
843,15	27,723
843,33	23,659
843,51	20,181
843,69	35,613
843,87	20,149
844,05	15,805
844,23	21,321
844,41	17,241
844,59	22,478
844,77	12,605
844,95	17,630
845,13	25,538
845,31	7,849
845,50	26,178
845,68	28,296
845,86	17,529
846,04	21,229
846,22	14,169
846,40	16,667
846,58	17,379
846,76	25,000
846,94	24,938
847,12	12,953
847,30	3,866
847,48	21,053
847,66	19,704
847,84	15,301
848,02	16,667
848,20	16,279
848,38	5,983
848,56	18,750
848,74	31,981
848,92	2,494
849,10	7,000
849,28	21,660
849,46	16,000
849,64	12,471
849,82	5,556
850,00	25,467
850,18	15,319
850,36	9,934
850,54	7,268
850,72	23,136
850,90	21,957
851,08	16,411
851,26	16,193
851,44	16,372
851,62	14,419
851,80	21,806
851,98	18,901
852,16	16,785
852,34	15,670
852,52	7,143
852,70	7,062
852,87	7,763
853,05	11,696
853,23	11,959
853,41	11,338
853,59	18,257
853,77	9,325
853,95	21,519
854,13	17,920
854,31	17,043
854,49	12,774
854,67	13,607
854,85	12,629
855,03	19,238
855,21	13,263
855,39	2,616
855,57	5,376
855,75	12,956
855,93	5,686
856,11	16,441
856,28	13,838
856,46	18,149
856,64	10,095
856,82	10,653
857,00	9,533
857,18	14,440
857,36	17,875
857,54	16,263
857,72	16,316
857,90	1,292
858,08	10,980
858,26	8,696
858,44	12,086
858,61	12,544
858,79	17,474
858,97	8,496
859,15	16,873
859,33	12,969
859,51	8,543
859,69	10,912
859,87	9,390
860,05	-3,197
860,23	10,227
860,40	9,431
860,58	6,885
860,76	6,190
860,94	13,821
861,12	7,385
861,30	8,320
861,48	11,571
861,66	11,905
861,84	3,438
862,01	11,046
862,19	4,407
862,37	9,985
862,55	12,680
862,73	1,548
862,91	6,021
863,09	10,565
863,27	9,483
863,44	3,244
863,62	8,152
863,80	6,610
863,98	8,902
864,16	-0,145
864,34	12,871
864,52	9,786
864,69	9,064
864,87	6,512
865,05	6,531
865,23	5,229
865,41	11,694
865,59	9,690
865,76	12,419
865,94	9,690
866,12	8,387
866,30	0,140
866,48	12,485
866,66	4,167
866,83	16,794
867,01	7,161
867,19	8,843
867,37	5,821
867,55	9,797
867,73	7,572
867,90	6,228
868,08	6,771
868,26	7,108
868,44	2,814
868,62	8,354
868,79	11,455
868,97	4,408
869,15	2,088
869,33	9,768
869,51	7,085
869,69	5,976
869,86	4,678
870,04	14,828
870,22	9,589
870,40	4,561
870,57	4,960
870,75	9,171
870,93	10,947
871,11	8,225
871,29	9,247
871,46	5,408
871,64	11,192
871,82	5,382
872,00	13,580
872,18	3,692
872,35	11,238
872,53	8,553
872,71	10,408
872,89	15,499
873,06	7,477
873,24	5,626
873,42	6,548
873,60	5,690
873,77	4,294
873,95	2,896
874,13	2,854
874,31	5,057
874,49	6,970
874,66	10,056
874,84	6,419
875,02	8,983
875,20	7,094
875,37	9,010
875,55	7,156
875,73	5,420
875,91	3,810
876,08	2,377
876,26	4,240
876,44	7,298
876,61	7,494
876,79	9,711
876,97	5,383
877,15	4,405
877,32	7,161
877,50	4,553
877,68	7,541
877,86	3,059
878,03	6,865
878,21	3,800
878,39	4,812
878,56	1,653
878,74	6,728
878,92	2,421
879,10	4,612
879,27	7,016
879,45	6,105
879,63	2,795
879,80	7,784
879,98	2,257
880,16	5,386
880,34	10,096
880,51	2,997
880,69	1,339
880,87	5,807
881,04	4,993
881,22	7,319
881,40	3,569
881,57	4,424
881,75	4,017
881,93	6,528
882,10	4,989
882,28	4,000
882,46	3,288
882,63	3,181
882,81	6,213
882,99	5,215
883,16	3,745
883,34	4,211
883,52	1,744
883,69	7,006
883,87	0,716
884,05	3,776
884,22	3,131
884,40	5,241
884,58	2,257
884,75	4,267
884,93	3,224
885,11	5,882
885,28	4,367
885,46	2,153
885,64	3,794
885,81	3,180
885,99	2,912
886,17	0,815
886,34	1,115
886,52	0,466
886,70	4,588
886,87	1,196
887,05	4,882
887,22	1,217
887,40	5,495
887,58	3,367
887,75	6,566
887,93	4,070
888,11	5,388
888,28	2,548
888,46	4,430
888,63	2,458
888,81	3,387
888,99	4,141
889,16	6,842
889,34	1,938
889,51	4,352
889,69	2,823
889,87	3,628
890,04	3,399
890,22	3,462
890,39	2,581
890,57	4,112
890,75	2,618
890,92	3,200
891,10	3,283
891,27	1,986
891,45	2,784
891,63	3,784
891,80	3,399
891,98	0,736
892,15	2,290
892,33	2,723
892,51	4,932
892,68	4,121
892,86	2,827
893,03	2,471
893,21	4,440
893,38	1,815
893,56	1,903
893,74	2,925
893,91	5,146
894,09	4,150
894,26	3,614
894,44	3,374
894,61	3,020
894,79	2,675
894,96	1,834
895,14	3,305
895,32	3,161
895,49	2,769
895,67	4,265
895,84	2,708
896,02	0,988
896,19	1,943
896,37	3,202
896,54	1,443
896,72	0,933
896,89	2,750
897,07	5,444
897,25	3,586
897,42	2,704
897,60	5,086
897,77	3,218
897,95	3,066
898,12	3,591
898,30	1,972
898,47	-0,582
898,65	0,822
898,82	1,632
899,00	1,848
899,17	3,586
899,35	0,749
899,52	5,545
899,70	2,060
899,87	2,367
900,05	1,484
900,22	2,438
900,40	1,626
900,57	1,373
900,75	1,494
900,92	2,818
901,10	2,828
901,27	1,925
901,45	3,320
901,62	2,360
901,80	1,082
901,97	2,446
902,15	2,708
902,32	3,162
902,50	0,466
902,67	3,478
902,85	3,102
903,02	4,369
903,20	2,034
903,37	1,708
903,54	2,478
903,72	3,417
903,89	1,194
904,07	3,137
904,24	3,554
904,42	1,690
904,59	-0,071
904,77	2,158
904,94	1,301
905,12	1,240
905,29	-0,211
905,47	2,614
905,64	1,744
905,81	1,844
905,99	0,105
906,16	0,451
906,34	2,944
906,51	1,347
906,69	1,484
906,86	1,742
907,03	2,119
907,21	0,232
907,38	3,063
907,56	1,709
907,73	2,875
907,91	1,740
908,08	2,173
908,25	3,034
908,43	1,544
908,60	0,485
908,78	0,885
908,95	2,648
909,13	3,961
909,30	3,042
909,47	0,261
909,65	3,382
909,82	2,729
910,00	1,301
910,17	1,662
910,34	2,217
910,52	1,370
910,69	1,924
910,87	2,538
911,04	2,332
911,21	3,543
911,39	0,547
911,56	2,833
911,73	0,511
911,91	2,082
912,08	2,353
912,26	0,393
912,43	3,137
912,60	1,822
912,78	1,509
912,95	1,560
913,13	1,588
913,30	2,610
913,47	1,940
913,65	2,689
913,82	1,700
913,99	1,862
914,17	1,705
914,34	0,804
914,51	2,286
914,69	1,636
914,86	2,710
915,03	1,584
915,21	1,091
915,38	1,821
915,56	1,806
915,73	1,421
915,90	2,368
916,08	2,574
916,25	2,342
916,42	1,465
916,60	1,334
916,77	1,324
916,94	2,586
917,12	2,224
917,29	0,855
917,46	2,032
917,64	1,502
917,81	0,657
917,98	0,846
918,16	1,418
918,33	1,536
918,50	2,394
918,67	2,267
918,85	1,033
919,02	1,813
919,19	2,137
919,37	1,991
919,54	2,001
919,71	1,643
919,89	1,745
920,06	1,665
920,23	1,944
920,41	1,421
920,58	1,118
920,75	2,197
920,92	1,420
921,10	1,129
921,27	1,200
921,44	2,880
921,62	1,593
921,79	2,035
921,96	1,987
922,13	1,602
922,31	1,434
922,48	1,473
922,65	1,191
922,82	-0,148
923,00	2,849
923,17	0,636
923,34	1,285
923,52	1,100
923,69	1,477
923,86	1,635
924,03	2,147
924,21	1,701
924,38	1,779
924,55	2,384
924,72	1,488
924,90	1,141
925,07	1,749
925,24	1,014
925,41	1,341
925,59	0,708
925,76	1,154
925,93	1,794
926,10	2,495
926,28	1,203
926,45	1,271
926,62	1,623
926,79	1,298
926,96	1,855
927,14	2,488
927,31	1,677
927,48	1,386
927,65	1,384
927,83	1,545
928,00	2,111
928,17	1,999
928,34	2,017
928,51	1,578
928,69	2,073
928,86	1,333
929,03	0,966
929,20	1,356
929,37	1,085
929,55	1,480
929,72	1,734
929,89	1,717
930,06	0,793
930,23	2,049
930,41	1,790
930,58	1,073
930,75	0,498
930,92	1,951
931,09	1,106
931,27	0,908
931,44	0,593
931,61	1,352
931,78	2,131
931,95	1,224
932,12	0,962
932,30	1,403
932,47	0,784
932,64	1,766
932,81	1,339
932,98	1,385
933,16	1,048
933,33	1,499
933,50	1,669
933,67	1,374
933,84	2,966
934,01	1,953
934,18	2,209
934,36	1,459
934,53	1,831
934,70	1,006
934,87	1,558
935,04	2,453
935,21	1,184
935,38	0,922
935,56	1,860
935,73	0,399
935,90	2,162
936,07	1,610
936,24	1,959
936,41	1,045
936,58	0,810
936,76	1,258
936,93	1,299
937,10	2,074
937,27	1,972
937,44	1,394
937,61	1,849
937,78	1,742
937,95	1,981
938,13	0,991
938,30	1,604
938,47	1,505
938,64	1,040
938,81	0,954
938,98	1,097
939,15	1,005
939,32	1,162
939,49	0,876
939,66	1,372
939,84	1,252
940,01	1,135
940,18	1,397
940,35	0,719
940,52	1,233
940,69	0,648
940,86	1,360
941,03	1,649
941,20	0,344
941,37	0,691
941,54	1,618
941,71	1,715
941,89	1,253
942,06	1,300
942,23	2,818
942,40	0,926
942,57	1,283
942,74	1,233
942,91	1,459
943,08	1,666
943,25	2,241
943,42	1,110
943,59	2,743
943,76	1,441
943,93	0,695
944,10	0,270
944,27	0,802
944,44	0,806
944,61	1,426
944,79	2,619
944,96	2,691
945,13	1,476
945,30	1,474
945,47	2,317
945,64	1,480
945,81	1,852
945,98	2,010
946,15	1,993
946,32	3,459
946,49	2,357
946,66	1,427
946,83	0,364
947,00	2,062
947,17	1,875
947,34	2,053
947,51	1,998
947,68	2,414
947,85	1,405
948,02	2,357
948,19	0,899
948,36	3,053
948,53	0,320
948,70	1,391
948,87	1,389
949,04	2,887
949,21	1,344
949,38	3,873
949,55	3,672
949,72	1,855
949,89	2,816
950,06	1,196
950,23	1,446
950,40	1,085
950,57	1,431
950,74	2,680
950,91	2,238
951,08	2,908
951,25	2,458
951,42	2,411
951,59	2,850
951,76	2,388
951,93	1,719
952,10	1,854
952,27	1,605
952,44	4,191
952,61	2,590
952,77	2,139
952,94	3,036
953,11	2,845
953,28	2,825
953,45	4,986
953,62	3,792
953,79	3,111
953,96	4,972
954,13	3,926
954,30	3,983
954,47	4,782
954,64	1,944
954,81	5,935
954,98	3,539
955,15	2,539
955,32	0,522
955,49	4,044
955,65	2,812
955,82	5,804
955,99	6,345
956,16	8,778
956,33	3,745
956,50	3,909
956,67	1,307
956,84	8,127
957,01	3,134
957,18	7,605
957,35	7,261
957,52	5,058
957,68	5,281
957,85	5,792
958,02	3,161
958,19	3,749
958,36	7,192
958,53	8,026
958,70	9,116
958,87	6,587
959,04	7,260
959,21	9,990
959,37	10,478
959,54	7,958
959,71	9,419
959,88	2,442
960,05	11,641
960,22	6,164
960,39	5,653
960,56	10,486
960,72	7,202
960,89	15,168
961,06	11,634
961,23	3,823
961,40	7,636
961,57	7,508
961,74	8,909
961,90	13,208
962,07	8,520
962,24	12,841
962,41	11,379
962,58	7,525
962,75	11,111
962,92	6,667
963,08	11,875
963,25	3,785
963,42	16,867
963,59	7,598
963,76	20,080
963,93	13,035
964,10	2,036
964,26	10,952
964,43	8,140
964,60	9,977
964,77	16,331
964,94	10,123
965,10	2,507
965,27	9,777
965,44	18,413
965,61	17,466
965,78	18,323
965,95	17,662
966,11	13,939
966,28	6,704
966,45	22,876
966,62	4,878
966,79	22,526
966,95	26,335
967,12	20,952
967,29	23,148
967,46	33,096
967,63	20,000
967,79	35,235
967,96	21,101
968,13	17,619
968,30	34,156
968,47	30,000
968,63	33,333
968,80	37,931
968,97	32,948
969,14	37,853
969,31	27,041
969,47	41,848
969,64	27,473
969,81	21,935
969,98	25,263
970,14	31,183
970,31	36,478
970,48	64,430
970,65	28,926
970,81	21,678
970,98	36,979
971,15	65,455
971,32	53,788
971,48	51,190
971,65	62,914
971,82	45,455
971,99	60,759
972,15	51,163
972,32	60,417
972,49	46,721
972,66	47,107
972,82	76,712
972,99	71,250
973,16	66,887
973,33	50,370
973,49	68,293
973,66	57,143
973,83	81,481
974,00	69,620
974,16	98,182
974,33	85,333
974,50	74,747
974,67	47,619
974,83	72,449
975,00	96,364
975,17	124,194
975,33	73,563
975,50	121,311
975,67	180,769
975,84	103,659
976,00	73,684
976,17	136,957
976,34	110,588
976,50	73,626
976,67	136,905
976,84	143,750
977,00	128,205
977,17	64,444
977,34	130,769
977,50	97,619
977,67	117,647
977,84	169,492
978,01	93,243
978,17	122,414
978,34	218,519
978,51	204,000
978,67	126,531
978,84	112,727
979,01	157,895
979,17	38,571
979,34	193,478
979,51	204,545
979,67	195,833
979,84	147,458
980,01	103,846
980,17	276,471
980,34	78,082
980,51	655,556
980,67	97,778
980,84	130,000
981,01	276,471
981,17	113,235
981,34	104,286
981,50	107,368
981,67	145,238
981,84	171,429
982,00	7800,000
982,17	132,813
982,34	209,756
982,50	0,000
982,67	-800,000
982,84	380,000
983,00	174,074
983,17	-271,429
983,33	900,000
983,50	200,000
983,67	72,464
983,83	438,095
984,00	386,957
984,17	855,556
984,33	-371,429
984,50	229,730
984,66	200,000
984,83	587,500
985,00	307,692
985,16	232,258
985,33	4650,000
985,49	105,814
985,66	105,000
985,83	-2266,667
985,99	444,444
986,16	342,105
986,32	116,438
986,49	-940,000
986,66	260,000
986,82	260,606
986,99	-960,000
987,15	254,545
987,32	511,765
987,49	278,571
987,65	-204,348
987,82	-160,000
987,98	145,455
988,15	457,143
988,31	188,571
988,48	207,843
988,65	920,000
988,81	152,727
988,98	324,324
989,14	670,000
989,31	171,186
989,47	-60,714
989,64	411,111
989,80	146,809
989,97	185,455
990,14	621,429
990,30	-912,500
990,47	-145,833
990,63	276,316
990,80	1150,000
990,96	341,667
991,13	333,333
991,29	162,745
991,46	193,750
991,62	0,000
991,79	-400,000
991,95	429,412
992,12	2183,333
992,29	-395,238
992,45	190,476
992,62	-71,429
992,78	-1250,000
992,95	164,516
993,11	975,000
993,28	-4000,000
993,44	-189,655
993,61	226,316
993,77	0,000
993,94	312,821
994,10	971,429
994,27	-123,684
994,43	221,875
994,60	735,714
994,76	166,667
994,93	-660,000
995,09	-300,000
995,26	370,833
995,42	562,500
995,59	273,333
995,75	-566,667
995,92	-1300,000
996,08	-1040,000
996,25	230,303
996,41	1640,000
996,58	284,000
996,74	-640,000
996,91	177,419
997,07	224,000
997,23	117,647
997,40	1700,000
997,56	-2800,000
997,73	400,000
997,89	1800,000
998,06	168,421
998,22	238,298
998,39	175,510
998,55	473,684
998,72	-5700,000
998,88	136,000
999,05	593,333
999,21	670,588
999,37	223,256
999,54	254,839
999,70	380,952
999,87	1050,000
1000,03	273,333
1000,20	392,857
1000,36	-1000,000
1000,52	2450,000
1000,69	472,000
1000,85	-291,667
1001,02	280,952
1001,18	820,000
1001,35	0,000
1001,51	342,857
1001,67	365,000
1001,84	170,732
1002,00	-672,727
1002,17	1075,000
1002,33	-825,000
1002,50	725,000
1002,66	1062,500
1002,82	302,439
1002,99	-236,364
1003,15	-5100,000
1003,32	-400,000
1003,48	-1833,333
1003,64	265,217
1003,81	-36,842
1003,97	227,536
1004,14	-129,091
1004,30	454,545
1004,46	-7800,000
1004,63	-223,077
1004,79	143,243
1004,95	-1440,000
1005,12	-215,385
1005,28	216,667
1005,45	-1600,000
1005,61	469,231
1005,77	-1285,714
1005,94	232,609
1006,10	-760,000
1006,26	11,111
1006,43	421,212
1006,59	283,871
1006,76	-300,000
1006,92	278,261
1007,08	116,667
1007,25	261,111
1007,41	295,455
1007,57	-323,529
1007,74	465,217
1007,90	-407,143
1008,06	-480,000
1008,23	-373,684
1008,39	247,222
1008,55	95,294
1008,72	-700,000
1008,88	-262,857
1009,04	-722,222
1009,21	203,125
1009,37	393,548
1009,53	-295,000
1009,70	4,545
1009,86	84,211
1010,02	268,182
1010,19	513,333
1010,35	8500,000
1010,51	362,857
1010,68	340,909
1010,84	295,000
1011,00	321,429
1011,17	2233,333
1011,33	234,615
1011,49	375,000
1011,66	409,375
1011,82	-825,000
1011,98	833,333
1012,14	346,154
1012,31	304,545
1012,47	-871,429
1012,63	4600,000
1012,80	333,333
1012,96	261,111
1013,12	-40,741
1013,29	375,000
1013,45	-76,471
1013,61	-2060,000
1013,77	-355,556
1013,94	362,500
1014,10	5700,000
1014,26	-64,706
1014,43	286,842
1014,59	0,000
1014,75	710,000
1014,91	248,571
1015,08	311,538
1015,24	580,000
1015,40	700,000
1015,56	717,647
1015,73	208,163
1015,89	333,333
1016,05	248,649
1016,21	177,778
1016,38	210,526
1016,54	-80,000
1016,70	505,263
1016,86	-576,923
1017,03	0,000
1017,19	1225,000
1017,35	256,667
1017,51	1466,667
1017,68	628,571
1017,84	347,368
1018,00	333,333
1018,16	-518,750
1018,33	572,727
1018,49	614,286
1018,65	-445,455
1018,81	-121,951
1018,97	507,692
1019,14	-842,857
1019,30	400,000
1019,46	335,897
1019,62	2850,000
1019,79	-471,429
1019,95	-2550,000
1020,11	1320,000
1020,27	130,000
1020,43	-925,000
1020,60	0,000
1020,76	173,529
1020,92	10500,000
1021,08	-113,333
1021,24	-1850,000
1021,41	257,576
1021,57	-412,500
1021,73	0,000
1021,89	-272,727
1022,05	251,429
1022,21	-323,077
1022,38	442,105
1022,54	1120,000
1022,70	418,519
1022,86	-3200,000
1023,02	788,889
1023,19	-170,000
1023,35	145,283
1023,51	332,258
1023,67	97,368
1023,83	790,909
1023,99	285,714
1024,16	-6,154
1024,32	306,250
1024,48	214,286
1024,64	-360,000
1024,80	533,333
1024,96	500,000
1025,12	2233,333
1025,29	25,000
1025,45	325,000
1025,61	2466,667
1025,77	485,714
1025,93	-61,538
1026,09	2900,000
1026,26	-1171,429
1026,42	-1825,000
1026,58	176,923
1026,74	585,714
1026,90	478,947
1027,06	-870,000
1027,22	-541,667
1027,38	1033,333
1027,55	-264,000
1027,71	537,500
1027,87	282,500
1028,03	150,000
1028,19	-60,606
1028,35	98,649
1028,51	-77,419
1028,67	-840,000
1028,83	180,952
1029,00	578,571
1029,16	-600,000
1029,32	582,353
1029,48	3600,000
1029,64	1357,143
1029,80	2133,333
1029,96	239,216
1030,12	-325,000
1030,28	1950,000
1030,44	-3400,000
1030,61	256,250
1030,77	-286,957
1030,93	139,535
1031,09	-271,429
1031,25	-1166,667
1031,41	-1650,000
1031,57	-84,211
1031,73	536,364
1031,89	-181,818
1032,05	1542,857
1032,21	670,000
1032,37	-155,882
1032,53	-305,000
1032,69	-5700,000
1032,86	1250,000
1033,02	531,250
1033,18	-700,000
1033,34	-438,462
1033,50	341,935
1033,66	-555,556
1033,82	314,286
1033,98	-458,824
1034,14	1055,556
1034,30	-236,364
1034,46	300,000
1034,62	672,222
1034,78	74,603
1034,94	-112,903
1035,10	-150,000
1035,26	-944,444
1035,42	137,143
1035,58	720,000
1035,74	-183,333
1035,90	-766,667
1036,06	245,283
1036,22	-188,000
1036,38	666,667
1036,54	530,000
1036,70	-3150,000
1036,86	-385,714
1037,02	-1850,000
1037,18	-82,143
1037,34	513,043
1037,50	-426,667
1037,66	-2566,667
1037,82	-170,588
1037,98	609,524
1038,14	-213,793
1038,30	7,692
1038,46	214,583
1038,62	177,419
1038,78	292,857
1038,94	-139,474
1039,10	-358,333
1039,26	-300,000
1039,42	-1042,857
1039,58	154,717
1039,74	121,875
1039,90	-94,872
1040,06	517,647
>>>>>End Processed Spectral Data<<<<<
