SpectraSuite Data File
++++++++++++++++++++++++++++++++++++
Date: Thu Feb 02 17:56:08 EET 2017
User: optolab
Dark Spectrum Present: Yes
Reference Spectrum Present: Yes
Number of Sampled Component Spectra: 1
Spectrometers: USB4C02475
Integration Time (usec): 100000 (USB4C02475)
Spectra Averaged: 1 (USB4C02475)
Boxcar Smoothing: 0 (USB4C02475)
Correct for Electrical Dark: No (USB4C02475)
Strobe/Lamp Enabled: No (USB4C02475)
Correct for Detector Non-linearity: No (USB4C02475)
Correct for Stray Light: No (USB4C02475)
Number of Pixels in Processed Spectrum: 3648
>>>>>Begin Processed Spectral Data<<<<<
344,91	-1500,000
345,13	-1500,000
345,35	-1500,000
345,57	-70,588
345,79	19,565
346,00	-129,412
346,22	-1242,857
346,44	-166,667
346,66	306,383
346,87	291,304
347,09	615,385
347,31	7600,000
347,53	-2475,000
347,74	-132,558
347,96	-1642,857
348,18	320,588
348,40	464,706
348,61	-289,744
348,83	3700,000
349,05	202,564
349,27	294,118
349,48	-3900,000
349,70	557,143
349,92	357,143
350,14	178,378
350,35	-415,385
350,57	-711,111
350,79	-102,564
351,01	-293,333
351,22	720,000
351,44	508,333
351,66	222,222
351,87	1500,000
352,09	138,158
352,31	267,857
352,53	280,000
352,74	-785,714
352,96	289,474
353,18	184,375
353,40	-762,500
353,61	520,000
353,83	220,833
354,05	246,875
354,26	303,571
354,48	-1760,000
354,70	371,429
354,92	280,556
355,13	-158,140
355,35	155,556
355,57	178,125
355,78	78,571
356,00	208,511
356,22	72,727
356,44	232,558
356,65	600,000
356,87	191,667
357,09	288,571
357,30	172,727
357,52	-1350,000
357,74	283,871
357,95	228,571
358,17	97,101
358,39	220,000
358,60	166,667
358,82	436,364
359,04	282,051
359,26	184,091
359,47	-746,154
359,69	310,714
359,91	320,000
360,12	410,000
360,34	47,222
360,56	-150,000
360,77	911,111
360,99	312,500
361,21	382,609
361,42	-2925,000
361,64	-196,296
361,86	102,985
362,07	473,333
362,29	237,500
362,51	186,486
362,72	-560,000
362,94	203,704
363,16	80,000
363,37	945,455
363,59	-7600,000
363,81	1150,000
364,02	113,333
364,24	222,727
364,46	542,857
364,67	157,143
364,89	352,941
365,11	175,676
365,32	422,222
365,54	643,750
365,76	200,000
365,97	231,707
366,19	136,842
366,41	710,000
366,62	127,000
366,84	458,333
367,05	83,333
367,27	1140,000
367,49	248,718
367,70	744,444
367,92	187,500
368,14	-7,692
368,35	142,647
368,57	218,182
368,79	203,846
369,00	105,128
369,22	477,778
369,43	468,421
369,65	-162,069
369,87	-194,118
370,08	235,000
370,30	421,429
370,51	163,636
370,73	91,667
370,95	460,000
371,16	136,842
371,38	215,094
371,60	376,667
371,81	94,565
372,03	-775,000
372,24	-137,500
372,46	2100,000
372,68	170,588
372,89	90,826
373,11	209,302
373,32	94,118
373,54	681,818
373,76	433,333
373,97	309,091
374,19	-268,421
374,40	160,000
374,62	423,529
374,84	420,833
375,05	165,385
375,27	394,595
375,48	106,173
375,70	523,529
375,92	205,357
376,13	536,842
376,35	250,000
376,56	480,000
376,78	95,918
376,99	181,818
377,21	187,500
377,43	206,061
377,64	116,000
377,86	437,500
378,07	77,273
378,29	136,111
378,51	122,619
378,72	-395,455
378,94	202,174
379,15	150,000
379,37	337,500
379,58	156,667
379,80	50,000
380,01	164,000
380,23	91,304
380,45	145,833
380,66	90,278
380,88	202,703
381,09	313,043
381,31	346,154
381,52	286,957
381,74	166,071
381,95	364,286
382,17	288,000
382,39	137,097
382,60	623,529
382,82	255,172
383,03	3033,333
383,25	85,185
383,46	575,000
383,68	159,574
383,89	404,545
384,11	135,616
384,32	150,000
384,54	-1271,429
384,76	176,471
384,97	275,000
385,19	163,158
385,40	356,250
385,62	287,097
385,83	204,255
386,05	942,857
386,26	326,923
386,48	746,154
386,69	166,667
386,91	280,000
387,12	187,179
387,34	127,119
387,55	240,000
387,77	296,000
387,98	212,245
388,20	154,930
388,41	101,587
388,63	124,286
388,84	240,000
389,06	146,512
389,27	131,250
389,49	86,747
389,70	184,746
389,92	168,182
390,13	202,564
390,35	97,917
390,56	164,062
390,78	218,182
390,99	120,000
391,21	106,818
391,42	108,696
391,64	-210,000
391,85	196,552
392,07	-50,000
392,28	219,231
392,50	1420,000
392,71	5700,000
392,93	103,226
393,14	184,783
393,36	110,256
393,57	362,500
393,79	126,984
394,00	90,411
394,22	58,000
394,43	207,143
394,65	210,714
394,86	265,625
395,08	-800,000
395,29	76,596
395,50	-1500,000
395,72	1185,714
395,93	364,000
396,15	-157,143
396,36	226,667
396,58	-333,333
396,79	106,977
397,01	252,381
397,22	86,957
397,44	221,277
397,65	91,892
397,87	87,143
398,08	230,769
398,29	258,333
398,51	160,976
398,72	186,957
398,94	169,767
399,15	123,333
399,37	167,391
399,58	120,635
399,80	366,667
400,01	214,706
400,22	350,000
400,44	352,381
400,65	102,740
400,87	5100,000
401,08	87,640
401,30	92,000
401,51	123,636
401,72	104,839
401,94	104,878
402,15	134,694
402,37	129,545
402,58	248,837
402,80	187,500
403,01	50,000
403,22	122,892
403,44	216,667
403,65	85,714
403,87	114,667
404,08	125,000
404,30	212,500
404,51	55,714
404,72	836,364
404,94	96,386
405,15	126,866
405,37	85,714
405,58	277,419
405,79	342,857
406,01	87,407
406,22	65,476
406,44	84,211
406,65	64,286
406,86	119,000
407,08	13,580
407,29	92,000
407,51	44,231
407,72	79,208
407,93	98,734
408,15	78,409
408,36	205,714
408,58	84,167
408,79	24,031
409,00	69,504
409,22	47,059
409,43	41,441
409,64	48,718
409,86	54,545
410,07	48,696
410,29	52,000
410,50	57,143
410,71	73,387
410,93	31,683
411,14	40,187
411,35	52,083
411,57	53,472
411,78	33,824
412,00	24,000
412,21	27,876
412,42	54,634
412,64	55,000
412,85	33,161
413,06	43,304
413,28	35,294
413,49	33,023
413,70	33,476
413,92	39,048
414,13	19,763
414,34	21,933
414,56	30,213
414,77	11,808
414,98	28,622
415,20	35,842
415,41	35,390
415,63	27,066
415,84	32,133
416,05	11,446
416,27	20,334
416,48	23,460
416,69	15,698
416,91	15,467
417,12	9,955
417,33	15,576
417,55	23,600
417,76	18,182
417,97	16,667
418,19	13,389
418,40	8,102
418,61	17,839
418,83	7,923
419,04	17,674
419,25	11,643
419,46	19,583
419,68	4,130
419,89	13,834
420,10	13,038
420,32	13,510
420,53	10,859
420,74	7,646
420,96	7,464
421,17	12,429
421,38	7,436
421,60	7,074
421,81	6,206
422,02	5,692
422,23	11,513
422,45	5,646
422,66	9,197
422,87	9,330
423,09	8,841
423,30	14,988
423,51	14,052
423,73	14,340
423,94	18,917
424,15	19,231
424,36	22,230
424,58	23,822
424,79	24,528
425,00	27,792
425,22	29,118
425,43	31,493
425,64	34,906
425,85	33,427
426,07	34,561
426,28	37,213
426,49	37,843
426,71	34,647
426,92	36,823
427,13	37,389
427,34	38,412
427,56	41,279
427,77	37,557
427,98	38,992
428,19	37,728
428,41	40,906
428,62	39,898
428,83	38,857
429,04	40,034
429,26	39,187
429,47	42,003
429,68	40,342
429,89	37,450
430,11	42,448
430,32	42,397
430,53	41,211
430,74	41,777
430,96	39,217
431,17	39,904
431,38	38,822
431,59	38,961
431,81	38,675
432,02	39,236
432,23	39,562
432,44	38,195
432,66	38,306
432,87	37,772
433,08	38,737
433,29	39,314
433,51	39,278
433,72	39,477
433,93	39,703
434,14	40,068
434,35	40,007
434,57	39,632
434,78	40,754
434,99	40,199
435,20	41,510
435,42	40,513
435,63	39,830
435,84	41,290
436,05	39,261
436,26	40,277
436,48	39,502
436,69	39,204
436,90	38,127
437,11	38,765
437,32	39,421
437,54	39,895
437,75	40,493
437,96	41,219
438,17	41,878
438,38	41,040
438,60	42,582
438,81	43,855
439,02	43,815
439,23	43,118
439,44	41,729
439,66	42,663
439,87	41,847
440,08	40,662
440,29	39,917
440,50	40,791
440,72	40,173
440,93	40,336
441,14	39,597
441,35	39,921
441,56	40,090
441,77	40,232
441,99	41,433
442,20	40,794
442,41	39,624
442,62	40,470
442,83	39,596
443,04	38,886
443,26	38,494
443,47	37,727
443,68	35,763
443,89	33,861
444,10	31,864
444,31	29,795
444,53	27,682
444,74	25,603
444,95	23,134
445,16	21,121
445,37	18,306
445,58	16,098
445,80	14,587
446,01	12,768
446,22	11,239
446,43	10,071
446,64	8,089
446,85	6,553
447,06	5,821
447,28	5,088
447,49	4,399
447,70	4,206
447,91	3,666
448,12	2,672
448,33	2,402
448,54	2,182
448,76	1,926
448,97	1,547
449,18	1,705
449,39	1,460
449,60	1,262
449,81	1,456
450,02	1,283
450,23	1,141
450,45	0,841
450,66	0,716
450,87	0,844
451,08	0,505
451,29	0,820
451,50	0,382
451,71	0,638
451,92	0,538
452,13	0,516
452,35	0,490
452,56	0,578
452,77	0,545
452,98	0,634
453,19	0,564
453,40	0,698
453,61	0,853
453,82	0,496
454,03	0,474
454,25	0,545
454,46	0,426
454,67	0,680
454,88	0,472
455,09	0,762
455,30	0,429
455,51	0,376
455,72	0,502
455,93	0,724
456,14	0,508
456,35	0,234
456,56	0,316
456,78	0,653
456,99	0,951
457,20	0,614
457,41	0,229
457,62	0,352
457,83	0,347
458,04	0,824
458,25	0,303
458,46	0,319
458,67	0,612
458,88	0,499
459,09	0,358
459,30	0,329
459,51	0,467
459,73	0,162
459,94	0,626
460,15	0,400
460,36	0,298
460,57	0,525
460,78	0,424
460,99	0,330
461,20	0,525
461,41	0,532
461,62	0,148
461,83	0,235
462,04	0,352
462,25	0,429
462,46	0,480
462,67	0,359
462,88	0,441
463,09	0,217
463,30	0,360
463,51	0,163
463,72	0,507
463,93	0,260
464,15	0,526
464,36	0,266
464,57	0,132
464,78	0,244
464,99	0,467
465,20	0,260
465,41	0,452
465,62	0,370
465,83	0,309
466,04	0,243
466,25	0,381
466,46	0,305
466,67	0,200
466,88	0,567
467,09	0,199
467,30	0,357
467,51	0,331
467,72	0,201
467,93	0,278
468,14	0,353
468,35	0,393
468,56	0,446
468,77	0,184
468,98	0,446
469,19	0,215
469,40	0,260
469,61	0,194
469,82	0,309
470,03	0,306
470,24	0,114
470,45	0,362
470,66	0,637
470,87	0,333
471,08	0,466
471,29	0,197
471,50	0,364
471,71	0,305
471,92	0,348
472,13	0,340
472,34	0,317
472,55	0,541
472,76	0,388
472,97	0,228
473,18	0,328
473,39	0,303
473,60	0,155
473,81	0,239
474,01	0,479
474,22	0,276
474,43	0,384
474,64	0,580
474,85	0,269
475,06	0,540
475,27	0,505
475,48	0,350
475,69	0,347
475,90	0,420
476,11	0,350
476,32	0,408
476,53	0,396
476,74	0,339
476,95	0,385
477,16	0,433
477,37	0,568
477,58	0,489
477,79	0,582
478,00	0,405
478,21	0,409
478,41	0,423
478,62	0,409
478,83	0,266
479,04	0,409
479,25	0,303
479,46	0,258
479,67	0,206
479,88	0,339
480,09	0,354
480,30	0,364
480,51	0,741
480,72	0,227
480,93	0,452
481,14	0,322
481,34	0,592
481,55	0,297
481,76	0,614
481,97	0,065
482,18	0,308
482,39	0,377
482,60	0,386
482,81	0,154
483,02	0,396
483,23	0,385
483,44	0,387
483,65	0,297
483,85	0,248
484,06	0,613
484,27	0,446
484,48	0,423
484,69	0,437
484,90	0,207
485,11	0,461
485,32	0,406
485,53	0,212
485,73	0,482
485,94	0,398
486,15	0,456
486,36	0,474
486,57	0,479
486,78	0,399
486,99	0,432
487,20	0,401
487,41	0,460
487,61	0,254
487,82	0,210
488,03	0,400
488,24	0,443
488,45	0,377
488,66	0,332
488,87	0,292
489,08	0,549
489,28	0,335
489,49	0,524
489,70	0,269
489,91	0,490
490,12	0,253
490,33	0,245
490,54	0,456
490,74	0,579
490,95	0,424
491,16	0,315
491,37	0,471
491,58	0,454
491,79	0,523
492,00	0,287
492,20	0,636
492,41	0,693
492,62	0,770
492,83	0,559
493,04	0,762
493,25	0,958
493,45	0,771
493,66	1,284
493,87	1,289
494,08	1,269
494,29	1,585
494,50	1,855
494,70	2,199
494,91	2,800
495,12	3,366
495,33	4,031
495,54	4,891
495,75	5,342
495,95	6,294
496,16	7,020
496,37	7,922
496,58	8,954
496,79	10,088
496,99	11,365
497,20	12,619
497,41	13,898
497,62	15,074
497,83	16,497
498,04	17,975
498,24	19,880
498,45	21,188
498,66	23,162
498,87	24,627
499,08	26,450
499,28	27,301
499,49	29,069
499,70	30,914
499,91	32,394
500,12	33,026
500,32	34,419
500,53	35,685
500,74	36,734
500,95	37,410
501,15	37,255
501,36	38,322
501,57	38,378
501,78	38,253
501,99	38,827
502,19	39,339
502,40	39,100
502,61	39,270
502,82	39,431
503,02	40,253
503,23	40,281
503,44	40,743
503,65	41,110
503,86	41,258
504,06	41,527
504,27	42,612
504,48	42,691
504,69	43,607
504,89	43,361
505,10	43,848
505,31	44,549
505,52	45,322
505,72	45,752
505,93	44,863
506,14	44,966
506,35	45,364
506,55	45,816
506,76	45,435
506,97	45,513
507,18	45,250
507,38	44,365
507,59	44,829
507,80	44,205
508,01	43,589
508,21	42,327
508,42	42,393
508,63	40,380
508,84	40,671
509,04	39,842
509,25	38,800
509,46	37,709
509,67	36,989
509,87	36,181
510,08	35,224
510,29	34,077
510,49	33,612
510,70	32,410
510,91	31,933
511,12	30,760
511,32	30,009
511,53	28,621
511,74	28,071
511,94	27,288
512,15	26,033
512,36	25,840
512,57	25,215
512,77	24,082
512,98	23,281
513,19	22,550
513,39	21,558
513,60	20,884
513,81	19,768
514,01	19,363
514,22	18,475
514,43	17,564
514,64	17,296
514,84	16,498
515,05	16,044
515,26	14,656
515,46	14,205
515,67	13,129
515,88	12,539
516,08	11,855
516,29	10,766
516,50	9,207
516,70	9,047
516,91	8,393
517,12	7,696
517,32	6,232
517,53	5,388
517,74	5,052
517,95	4,254
518,15	3,714
518,36	3,084
518,57	2,265
518,77	1,804
518,98	1,466
519,19	1,098
519,39	1,104
519,60	0,743
519,80	0,562
520,01	0,581
520,22	0,406
520,42	0,518
520,63	0,363
520,84	0,286
521,04	0,313
521,25	0,367
521,46	0,461
521,66	0,311
521,87	0,232
522,08	0,339
522,28	0,397
522,49	0,438
522,70	0,319
522,90	0,352
523,11	0,196
523,31	0,320
523,52	0,309
523,73	0,293
523,93	0,461
524,14	0,258
524,35	0,430
524,55	0,366
524,76	0,321
524,97	0,390
525,17	0,251
525,38	0,468
525,58	0,337
525,79	0,323
526,00	0,197
526,20	0,484
526,41	0,202
526,61	0,315
526,82	0,231
527,03	0,225
527,23	0,333
527,44	0,219
527,64	0,283
527,85	0,124
528,06	0,491
528,26	0,267
528,47	0,313
528,68	0,422
528,88	0,148
529,09	0,301
529,29	0,406
529,50	0,218
529,70	0,331
529,91	0,310
530,12	0,253
530,32	0,414
530,53	0,257
530,73	0,277
530,94	0,310
531,15	0,384
531,35	0,513
531,56	0,458
531,76	0,421
531,97	0,324
532,17	0,397
532,38	0,359
532,59	0,280
532,79	0,567
533,00	0,178
533,20	0,326
533,41	0,228
533,61	0,185
533,82	0,152
534,03	0,343
534,23	0,246
534,44	0,326
534,64	0,296
534,85	0,318
535,05	0,218
535,26	0,226
535,46	0,322
535,67	0,083
535,88	0,240
536,08	0,420
536,29	0,441
536,49	0,351
536,70	0,335
536,90	0,375
537,11	0,144
537,31	0,327
537,52	0,349
537,72	0,420
537,93	0,368
538,13	0,353
538,34	0,318
538,55	0,435
538,75	0,178
538,96	0,142
539,16	0,171
539,37	0,268
539,57	0,175
539,78	0,337
539,98	0,327
540,19	0,534
540,39	0,352
540,60	0,363
540,80	0,350
541,01	0,312
541,21	0,358
541,42	0,396
541,62	0,552
541,83	0,326
542,03	0,300
542,24	0,387
542,44	0,367
542,65	0,303
542,85	0,427
543,06	0,421
543,26	0,290
543,47	0,416
543,67	0,347
543,88	0,452
544,08	0,192
544,29	0,388
544,49	0,321
544,70	0,222
544,90	0,423
545,11	0,291
545,31	0,293
545,52	0,392
545,72	0,278
545,93	0,316
546,13	0,338
546,34	0,413
546,54	0,355
546,75	0,301
546,95	0,478
547,15	0,261
547,36	0,361
547,56	0,142
547,77	0,356
547,97	0,138
548,18	0,252
548,38	0,258
548,59	0,262
548,79	0,417
549,00	0,310
549,20	0,230
549,41	0,342
549,61	0,285
549,81	0,273
550,02	0,361
550,22	0,235
550,43	0,330
550,63	0,374
550,84	0,358
551,04	0,366
551,25	0,416
551,45	0,474
551,65	0,386
551,86	0,276
552,06	0,462
552,27	0,277
552,47	0,400
552,68	0,456
552,88	0,303
553,08	0,312
553,29	0,373
553,49	0,446
553,70	0,522
553,90	0,436
554,11	0,442
554,31	0,321
554,51	0,613
554,72	0,376
554,92	0,432
555,13	0,610
555,33	0,787
555,53	0,750
555,74	0,981
555,94	0,836
556,15	1,092
556,35	1,023
556,56	1,365
556,76	1,695
556,96	1,803
557,17	2,423
557,37	2,582
557,58	2,828
557,78	3,342
557,98	3,819
558,19	4,481
558,39	5,229
558,59	5,933
558,80	6,857
559,00	7,638
559,21	8,462
559,41	9,525
559,61	10,308
559,82	11,431
560,02	12,714
560,23	13,735
560,43	15,107
560,63	16,334
560,84	17,575
561,04	18,927
561,24	19,881
561,45	21,357
561,65	22,379
561,85	23,497
562,06	24,401
562,26	25,516
562,47	26,468
562,67	26,663
562,87	27,101
563,08	26,918
563,28	27,772
563,48	28,353
563,69	28,365
563,89	29,365
564,09	30,486
564,30	30,482
564,50	31,085
564,70	32,306
564,91	32,813
565,11	33,386
565,31	34,482
565,52	35,671
565,72	36,733
565,92	37,813
566,13	37,924
566,33	38,702
566,53	40,341
566,74	40,235
566,94	41,309
567,14	42,483
567,35	42,926
567,55	42,781
567,75	42,647
567,96	42,939
568,16	43,250
568,36	43,117
568,57	43,961
568,77	44,294
568,97	44,700
569,18	44,583
569,38	44,505
569,58	45,351
569,79	45,364
569,99	45,513
570,19	45,484
570,39	45,873
570,60	45,699
570,80	46,328
571,00	47,258
571,21	46,914
571,41	46,835
571,61	46,998
571,82	45,883
572,02	46,216
572,22	45,435
572,42	46,580
572,63	45,384
572,83	45,766
573,03	44,894
573,24	45,549
573,44	45,155
573,64	45,139
573,84	44,929
574,05	43,918
574,25	44,082
574,45	43,704
574,66	44,108
574,86	44,373
575,06	44,537
575,26	44,691
575,47	44,623
575,67	44,585
575,87	44,598
576,07	44,918
576,28	44,874
576,48	45,287
576,68	44,842
576,88	44,757
577,09	44,323
577,29	44,874
577,49	44,653
577,69	44,069
577,90	43,676
578,10	42,939
578,30	42,407
578,50	42,261
578,71	41,616
578,91	40,563
579,11	40,476
579,31	40,643
579,52	39,788
579,72	38,924
579,92	39,217
580,12	37,951
580,33	37,936
580,53	36,882
580,73	37,145
580,93	36,198
581,13	36,099
581,34	34,764
581,54	34,688
581,74	34,494
581,94	34,043
582,15	33,312
582,35	31,973
582,55	31,632
582,75	30,326
582,95	29,374
583,16	28,450
583,36	27,312
583,56	25,578
583,76	24,949
583,96	22,913
584,17	22,235
584,37	20,789
584,57	19,350
584,77	17,737
584,97	16,370
585,18	15,177
585,38	13,520
585,58	12,087
585,78	11,131
585,98	9,571
586,19	8,291
586,39	7,208
586,59	6,386
586,79	5,400
586,99	4,540
587,20	3,830
587,40	3,451
587,60	2,490
587,80	2,184
588,00	1,828
588,20	1,649
588,41	1,478
588,61	1,266
588,81	0,813
589,01	0,793
589,21	0,739
589,41	0,512
589,62	0,442
589,82	0,450
590,02	0,434
590,22	0,460
590,42	0,453
590,62	0,418
590,83	0,201
591,03	0,127
591,23	0,225
591,43	0,448
591,63	0,343
591,83	0,366
592,03	0,369
592,24	0,271
592,44	0,182
592,64	0,270
592,84	0,320
593,04	0,228
593,24	0,377
593,44	0,410
593,65	0,466
593,85	0,357
594,05	0,205
594,25	0,058
594,45	0,270
594,65	0,288
594,85	0,047
595,06	0,153
595,26	0,415
595,46	0,083
595,66	0,155
595,86	0,136
596,06	0,202
596,26	0,301
596,46	0,281
596,66	0,131
596,87	0,278
597,07	0,130
597,27	0,160
597,47	0,190
597,67	0,116
597,87	0,130
598,07	0,220
598,27	0,213
598,47	0,385
598,67	0,128
598,88	0,165
599,08	0,410
599,28	0,380
599,48	0,211
599,68	0,272
599,88	0,167
600,08	0,315
600,28	0,218
600,48	0,226
600,68	0,257
600,88	0,306
601,09	0,210
601,29	0,306
601,49	0,094
601,69	0,293
601,89	0,079
602,09	0,234
602,29	0,192
602,49	0,193
602,69	0,183
602,89	0,072
603,09	0,201
603,29	0,490
603,49	0,268
603,69	0,332
603,90	0,111
604,10	0,304
604,30	0,309
604,50	0,255
604,70	0,227
604,90	0,259
605,10	0,221
605,30	0,203
605,50	0,253
605,70	0,259
605,90	0,088
606,10	0,284
606,30	0,265
606,50	0,348
606,70	0,216
606,90	0,070
607,10	0,262
607,30	0,345
607,50	0,170
607,70	0,249
607,90	0,269
608,10	0,332
608,30	0,181
608,50	0,231
608,70	0,301
608,90	0,182
609,11	0,179
609,31	0,326
609,51	0,143
609,71	0,364
609,91	0,276
610,11	0,352
610,31	0,215
610,51	0,377
610,71	0,207
610,91	0,149
611,11	0,204
611,31	0,196
611,51	0,223
611,71	-0,055
611,91	0,300
612,11	0,302
612,31	0,364
612,51	0,169
612,71	0,100
612,91	0,103
613,11	0,119
613,31	0,115
613,51	0,100
613,71	0,250
613,91	0,294
614,11	0,271
614,31	0,197
614,50	0,562
614,70	0,236
614,90	0,235
615,10	0,256
615,30	0,274
615,50	0,079
615,70	0,365
615,90	0,164
616,10	0,040
616,30	0,306
616,50	0,020
616,70	0,168
616,90	0,134
617,10	0,418
617,30	0,052
617,50	0,329
617,70	0,120
617,90	0,127
618,10	0,352
618,30	0,139
618,50	0,254
618,70	0,252
618,90	0,048
619,10	0,215
619,30	-0,060
619,49	0,194
619,69	0,257
619,89	0,162
620,09	0,206
620,29	0,123
620,49	0,218
620,69	0,095
620,89	0,159
621,09	0,160
621,29	0,335
621,49	0,231
621,69	0,133
621,89	0,324
622,09	0,336
622,29	0,070
622,48	0,219
622,68	0,156
622,88	0,276
623,08	0,194
623,28	0,136
623,48	0,234
623,68	0,102
623,88	0,217
624,08	0,187
624,28	0,363
624,48	0,332
624,67	0,217
624,87	0,172
625,07	0,307
625,27	0,038
625,47	0,266
625,67	0,138
625,87	0,118
626,07	0,179
626,27	0,126
626,47	0,310
626,66	0,079
626,86	0,287
627,06	0,385
627,26	0,180
627,46	0,157
627,66	0,249
627,86	0,224
628,06	0,191
628,25	0,226
628,45	0,327
628,65	0,187
628,85	0,183
629,05	0,310
629,25	-0,004
629,45	0,116
629,65	0,167
629,84	0,090
630,04	0,277
630,24	0,282
630,44	0,147
630,64	0,216
630,84	0,134
631,04	0,305
631,23	0,177
631,43	0,023
631,63	0,151
631,83	0,286
632,03	0,250
632,23	0,338
632,42	0,208
632,62	0,344
632,82	0,245
633,02	0,257
633,22	0,343
633,42	0,261
633,62	0,082
633,81	0,149
634,01	0,201
634,21	0,358
634,41	0,373
634,61	0,325
634,80	0,339
635,00	0,289
635,20	0,298
635,40	0,024
635,60	0,172
635,80	0,295
635,99	0,453
636,19	0,226
636,39	-0,010
636,59	0,154
636,79	0,221
636,98	0,533
637,18	0,069
637,38	0,329
637,58	0,188
637,78	0,416
637,97	0,083
638,17	0,221
638,37	0,338
638,57	0,146
638,77	0,426
638,96	0,263
639,16	0,392
639,36	0,229
639,56	0,244
639,76	0,183
639,95	0,431
640,15	0,203
640,35	0,030
640,55	0,139
640,75	0,488
640,94	0,206
641,14	0,444
641,34	0,296
641,54	0,132
641,73	0,369
641,93	0,399
642,13	0,219
642,33	-0,007
642,53	0,292
642,72	0,461
642,92	0,306
643,12	0,060
643,32	0,481
643,51	0,581
643,71	0,007
643,91	0,352
644,11	0,603
644,30	0,158
644,50	0,488
644,70	0,362
644,90	0,556
645,09	0,354
645,29	0,319
645,49	0,157
645,69	0,251
645,88	0,526
646,08	0,413
646,28	0,628
646,48	0,354
646,67	0,211
646,87	0,340
647,07	0,552
647,26	0,768
647,46	0,476
647,66	0,425
647,86	0,431
648,05	0,584
648,25	0,755
648,45	0,302
648,65	0,451
648,84	0,031
649,04	0,868
649,24	0,563
649,43	0,599
649,63	0,319
649,83	0,329
650,03	0,495
650,22	0,502
650,42	0,421
650,62	0,665
650,81	0,677
651,01	0,423
651,21	0,349
651,40	0,525
651,60	0,138
651,80	0,310
652,00	0,268
652,19	0,426
652,39	0,480
652,59	0,757
652,78	0,296
652,98	0,182
653,18	0,335
653,37	0,284
653,57	0,517
653,77	0,853
653,96	0,178
654,16	0,698
654,36	0,415
654,55	0,337
654,75	0,561
654,95	0,289
655,14	0,699
655,34	0,812
655,54	0,818
655,73	0,261
655,93	0,576
656,13	0,304
656,32	0,053
656,52	0,397
656,72	0,556
656,91	0,785
657,11	0,362
657,31	0,522
657,50	0,526
657,70	0,764
657,90	0,669
658,09	0,720
658,29	0,709
658,49	0,681
658,68	0,243
658,88	0,366
659,07	0,340
659,27	0,227
659,47	0,531
659,66	0,168
659,86	0,524
660,06	0,069
660,25	0,195
660,45	0,495
660,64	0,413
660,84	0,479
661,04	0,613
661,23	0,636
661,43	0,615
661,63	0,370
661,82	0,026
662,02	0,738
662,21	0,575
662,41	0,804
662,61	0,777
662,80	0,316
663,00	0,000
663,19	0,541
663,39	0,155
663,59	0,715
663,78	0,662
663,98	0,693
664,17	0,511
664,37	0,388
664,57	0,540
664,76	0,722
664,96	0,502
665,15	0,451
665,35	0,288
665,55	0,256
665,74	0,531
665,94	0,312
666,13	0,574
666,33	0,574
666,53	0,635
666,72	0,590
666,92	0,635
667,11	0,258
667,31	0,099
667,50	0,281
667,70	0,452
667,90	0,278
668,09	0,344
668,29	0,106
668,48	0,463
668,68	0,317
668,87	0,274
669,07	0,192
669,26	0,665
669,46	0,304
669,66	0,253
669,85	0,655
670,05	0,576
670,24	0,312
670,44	0,496
670,63	0,460
670,83	0,382
671,02	0,399
671,22	0,682
671,42	0,154
671,61	0,471
671,81	0,562
672,00	0,499
672,20	0,357
672,39	0,323
672,59	0,383
672,78	0,279
672,98	0,444
673,17	0,007
673,37	0,345
673,56	0,443
673,76	-0,131
673,95	0,467
674,15	0,419
674,34	0,121
674,54	0,485
674,73	0,270
674,93	0,426
675,13	0,349
675,32	0,687
675,52	0,588
675,71	0,672
675,91	0,490
676,10	0,247
676,30	0,432
676,49	0,292
676,69	0,662
676,88	0,547
677,08	0,275
677,27	0,541
677,47	0,696
677,66	0,420
677,86	0,679
678,05	0,537
678,24	0,470
678,44	0,617
678,63	0,566
678,83	0,458
679,02	0,387
679,22	0,617
679,41	0,595
679,61	0,588
679,80	0,580
680,00	0,326
680,19	0,456
680,39	0,499
680,58	0,442
680,78	0,522
680,97	0,564
681,17	0,861
681,36	0,396
681,56	0,472
681,75	0,766
681,94	0,650
682,14	0,723
682,33	0,846
682,53	0,319
682,72	0,500
682,92	0,667
683,11	0,632
683,31	0,687
683,50	0,527
683,69	0,530
683,89	0,627
684,08	0,486
684,28	0,306
684,47	0,291
684,67	0,461
684,86	0,627
685,06	0,454
685,25	0,385
685,44	0,460
685,64	0,659
685,83	0,532
686,03	0,244
686,22	0,460
686,42	0,407
686,61	0,368
686,80	0,337
687,00	0,198
687,19	0,182
687,39	0,436
687,58	0,238
687,77	0,374
687,97	0,387
688,16	0,291
688,36	0,104
688,55	0,269
688,74	0,162
688,94	0,064
689,13	0,181
689,33	0,108
689,52	0,132
689,71	0,294
689,91	0,121
690,10	0,318
690,30	-0,032
690,49	0,040
690,68	0,381
690,88	0,111
691,07	0,162
691,27	0,047
691,46	0,166
691,65	0,253
691,85	0,122
692,04	0,234
692,23	0,135
692,43	0,325
692,62	0,323
692,82	0,212
693,01	0,314
693,20	0,210
693,40	0,112
693,59	0,154
693,78	0,242
693,98	0,057
694,17	0,249
694,36	0,328
694,56	0,223
694,75	0,269
694,94	0,034
695,14	0,170
695,33	0,378
695,53	0,266
695,72	0,375
695,91	-0,023
696,11	0,259
696,30	0,293
696,49	0,113
696,69	0,213
696,88	0,305
697,07	0,359
697,27	0,447
697,46	0,341
697,65	0,182
697,85	0,187
698,04	0,307
698,23	0,328
698,43	0,437
698,62	0,058
698,81	0,296
699,01	0,390
699,20	0,372
699,39	0,411
699,58	0,038
699,78	0,023
699,97	0,479
700,16	-0,024
700,36	0,576
700,55	0,440
700,74	0,236
700,94	0,189
701,13	0,379
701,32	-0,019
701,52	0,169
701,71	0,235
701,90	0,577
702,09	0,976
702,29	0,773
702,48	-0,080
702,67	0,952
702,87	0,727
703,06	0,588
703,25	0,649
703,44	0,403
703,64	0,967
703,83	0,845
704,02	0,778
704,22	0,502
704,41	0,635
704,60	0,997
704,79	1,010
704,99	1,307
705,18	1,253
705,37	1,431
705,56	0,941
705,76	1,590
705,95	1,496
706,14	0,929
706,33	0,237
706,53	1,217
706,72	0,356
706,91	1,261
707,11	0,924
707,30	1,033
707,49	1,483
707,68	0,364
707,88	1,043
708,07	1,024
708,26	1,044
708,45	0,493
708,64	2,259
708,84	1,294
709,03	1,298
709,22	1,560
709,41	2,348
709,61	2,609
709,80	1,246
709,99	1,412
710,18	3,176
710,38	0,409
710,57	0,159
710,76	1,803
710,95	2,197
711,14	0,695
711,34	2,271
711,53	1,995
711,72	3,105
711,91	1,956
712,11	3,213
712,30	-0,115
712,49	1,110
712,68	1,899
712,87	2,327
713,07	2,328
713,26	1,791
713,45	0,624
713,64	1,004
713,83	0,264
714,03	1,701
714,22	3,982
714,41	2,793
714,60	1,424
714,79	0,432
714,99	2,084
715,18	3,026
715,37	4,682
715,56	1,747
715,75	1,751
715,94	4,183
716,14	4,295
716,33	3,642
716,52	3,826
716,71	3,507
716,90	3,052
717,10	0,780
717,29	2,645
717,48	2,614
717,67	3,440
717,86	2,941
718,05	3,864
718,24	2,081
718,44	5,109
718,63	1,521
718,82	4,247
719,01	3,736
719,20	3,365
719,39	5,752
719,59	0,391
719,78	2,004
719,97	3,079
720,16	6,384
720,35	2,065
720,54	1,607
720,73	6,348
720,93	3,109
721,12	0,718
721,31	2,624
721,50	7,345
721,69	4,015
721,88	4,531
722,07	3,001
722,27	5,308
722,46	3,898
722,65	3,257
722,84	2,016
723,03	2,930
723,22	7,252
723,41	4,900
723,60	2,208
723,79	7,756
723,99	4,359
724,18	4,734
724,37	0,454
724,56	6,474
724,75	5,217
724,94	6,419
725,13	1,717
725,32	6,841
725,51	0,930
725,71	4,880
725,90	5,671
726,09	4,292
726,28	3,337
726,47	2,959
726,66	1,805
726,85	4,739
727,04	1,427
727,23	4,680
727,42	11,329
727,61	5,658
727,81	-0,108
728,00	4,886
728,19	8,451
728,38	3,057
728,57	5,313
728,76	6,116
728,95	6,354
729,14	4,762
729,33	4,839
729,52	6,524
729,71	6,725
729,90	6,484
730,09	5,035
730,28	8,413
730,48	7,111
730,67	9,487
730,86	12,884
731,05	2,684
731,24	0,732
731,43	4,878
731,62	6,186
731,81	4,654
732,00	13,293
732,19	7,572
732,38	6,026
732,57	4,156
732,76	8,618
732,95	5,019
733,14	3,874
733,33	-3,704
733,52	5,197
733,71	6,456
733,90	2,684
734,09	6,757
734,28	4,856
734,47	9,167
734,66	10,027
734,85	-3,143
735,04	5,991
735,23	13,445
735,42	12,978
735,61	5,248
735,81	6,361
736,00	2,991
736,19	5,471
736,38	4,940
736,57	12,071
736,76	16,204
736,95	6,688
737,14	8,931
737,33	12,164
737,52	5,692
737,71	2,459
737,90	9,737
738,09	9,285
738,28	11,211
738,47	2,555
738,66	4,327
738,85	11,261
739,04	6,175
739,22	3,679
739,41	9,191
739,60	3,242
739,79	6,475
739,98	7,348
740,17	11,775
740,36	9,222
740,55	16,561
740,74	9,091
740,93	4,971
741,12	6,250
741,31	9,331
741,50	4,348
741,69	8,850
741,88	3,755
742,07	10,688
742,26	6,095
742,45	12,910
742,64	2,925
742,83	10,265
743,02	2,316
743,21	15,162
743,40	1,656
743,59	6,066
743,78	9,589
743,97	10,577
744,16	8,268
744,34	4,196
744,53	13,402
744,72	6,889
744,91	7,773
745,10	20,126
745,29	14,315
745,48	11,136
745,67	7,745
745,86	4,415
746,05	12,085
746,24	11,340
746,43	16,916
746,62	16,164
746,81	6,966
747,00	11,379
747,18	9,150
747,37	23,368
747,56	14,353
747,75	4,433
747,94	7,524
748,13	21,700
748,32	12,381
748,51	19,797
748,70	19,383
748,89	5,386
749,08	-1,163
749,26	17,401
749,45	14,477
749,64	13,602
749,83	14,831
750,02	26,087
750,21	9,415
750,40	20,243
750,59	11,796
750,78	9,975
750,96	17,127
751,15	11,449
751,34	7,386
751,53	21,858
751,72	1,972
751,91	20,207
752,10	10,733
752,29	22,400
752,47	9,742
752,66	15,873
752,85	16,120
753,04	16,760
753,23	13,932
753,42	19,946
753,61	17,241
753,80	21,993
753,98	18,687
754,17	11,854
754,36	14,194
754,55	15,964
754,74	16,883
754,93	29,752
755,12	14,837
755,30	12,987
755,49	26,163
755,68	19,018
755,87	13,905
756,06	11,458
756,25	17,325
756,43	8,389
756,62	28,571
756,81	20,861
757,00	11,842
757,19	25,347
757,38	0,772
757,56	13,600
757,75	23,549
757,94	11,027
758,13	11,644
758,32	18,991
758,51	24,916
758,69	10,039
758,88	7,407
759,07	17,365
759,26	25,088
759,45	20,702
759,63	25,108
759,82	14,737
760,01	4,762
760,20	36,164
760,39	23,975
760,57	24,390
760,76	24,042
760,95	20,833
761,14	18,978
761,33	21,613
761,51	21,429
761,70	31,599
761,89	12,000
762,08	35,316
762,27	26,715
762,45	17,754
762,64	38,693
762,83	26,693
763,02	27,826
763,21	4,000
763,39	22,727
763,58	29,740
763,77	22,785
763,96	29,084
764,14	8,750
764,33	20,952
764,52	14,732
764,71	21,311
764,89	36,161
765,08	30,542
765,27	22,979
765,46	30,493
765,65	34,510
765,83	33,484
766,02	14,286
766,21	23,497
766,40	27,626
766,58	18,519
766,77	33,486
766,96	21,138
767,15	20,588
767,33	14,976
767,52	45,415
767,71	22,807
767,90	27,136
768,08	23,952
768,27	28,049
768,46	40,351
768,64	26,389
768,83	31,373
769,02	10,837
769,21	27,083
769,39	22,143
769,58	37,229
769,77	20,213
769,96	27,477
770,14	41,530
770,33	28,037
770,52	56,835
770,70	16,757
770,89	40,541
771,08	27,108
771,27	25,263
771,45	42,353
771,64	45,455
771,83	37,255
772,01	47,423
772,20	31,841
772,39	36,709
772,57	25,373
772,76	66,216
772,95	40,230
773,14	44,898
773,32	15,819
773,51	10,119
773,70	48,201
773,88	17,419
774,07	47,716
774,26	24,194
774,44	54,887
774,63	45,509
774,82	22,078
775,00	35,514
775,19	32,143
775,38	38,298
775,56	60,248
775,75	51,648
775,94	28,333
776,12	35,294
776,31	19,549
776,50	0,685
776,68	33,333
776,87	55,981
777,06	64,151
777,24	15,966
777,43	23,529
777,62	57,865
777,80	62,893
777,99	47,500
778,18	28,736
778,36	45,763
778,55	33,898
778,74	59,375
778,92	21,605
779,11	66,364
779,29	10,638
779,48	36,170
779,67	47,748
779,85	26,316
780,04	42,754
780,23	46,429
780,41	50,847
780,60	36,242
780,79	35,484
780,97	53,595
781,16	37,766
781,34	44,595
781,53	51,786
781,72	11,712
781,90	33,533
782,09	33,721
782,28	51,020
782,46	55,714
782,65	53,521
782,83	33,333
783,02	67,544
783,21	32,331
783,39	49,580
783,58	48,696
783,76	49,660
783,95	64,085
784,14	17,105
784,32	69,412
784,51	62,162
784,69	27,344
784,88	25,234
785,06	54,967
785,25	38,298
785,44	127,419
785,62	37,143
785,81	50,926
785,99	57,895
786,18	44,144
786,37	46,154
786,55	84,028
786,74	71,818
786,92	58,741
787,11	34,722
787,29	48,214
787,48	40,860
787,67	67,925
787,85	74,684
788,04	46,847
788,22	52,475
788,41	45,669
788,59	50,658
788,78	70,330
788,96	36,364
789,15	70,833
789,34	57,692
789,52	53,226
789,71	64,748
789,89	37,662
790,08	86,250
790,26	55,414
790,45	122,222
790,63	59,770
790,82	54,615
791,00	61,062
791,19	44,800
791,38	27,619
791,56	53,636
791,75	59,722
791,93	38,000
792,12	61,739
792,30	60,584
792,49	19,192
792,67	40,441
792,86	50,400
793,04	66,667
793,23	57,895
793,41	59,420
793,60	72,222
793,78	49,524
793,97	48,611
794,15	78,947
794,34	48,000
794,52	49,462
794,71	43,411
794,89	25,000
795,08	53,600
795,26	69,333
795,45	126,389
795,63	43,548
795,82	57,143
796,00	59,000
796,19	67,480
796,37	16,794
796,56	-0,971
796,74	26,316
796,93	96,970
797,11	75,904
797,30	56,111
797,48	50,781
797,67	35,772
797,85	46,923
798,04	35,593
798,22	142,308
798,41	27,885
798,59	42,857
798,77	89,157
798,96	67,284
799,14	47,581
799,33	55,963
799,51	65,278
799,70	60,000
799,88	64,220
800,07	61,832
800,25	54,217
800,44	83,333
800,62	100,000
800,80	28,169
800,99	153,425
801,17	56,897
801,36	79,286
801,54	88,000
801,73	32,632
801,91	63,636
802,10	31,765
802,28	68,800
802,46	61,842
802,65	41,727
802,83	109,333
803,02	69,355
803,20	87,952
803,39	95,402
803,57	42,520
803,75	59,350
803,94	48,413
804,12	93,103
804,31	-4,348
804,49	40,800
804,67	36,765
804,86	33,628
805,04	34,940
805,23	78,761
805,41	55,000
805,59	91,781
805,78	79,200
805,96	31,325
806,15	46,535
806,33	89,474
806,51	81,333
806,70	67,669
806,88	103,488
807,07	54,955
807,25	71,429
807,43	88,393
807,62	53,097
807,80	26,667
807,99	86,154
808,17	22,835
808,35	79,000
808,54	53,623
808,72	62,162
808,90	46,575
809,09	78,261
809,27	61,333
809,46	74,725
809,64	85,366
809,82	34,437
810,01	53,125
810,19	53,535
810,37	39,844
810,56	140,000
810,74	103,896
810,92	42,000
811,11	27,193
811,29	50,000
811,48	67,692
811,66	60,674
811,84	47,253
812,03	69,672
812,21	64,912
812,39	62,609
812,58	114,737
812,76	66,187
812,94	87,952
813,13	41,489
813,31	91,000
813,49	43,519
813,68	47,273
813,86	41,573
814,04	68,595
814,23	55,422
814,41	56,180
814,59	75,728
814,78	52,941
814,96	54,088
815,14	67,290
815,33	66,667
815,51	53,543
815,69	45,714
815,87	87,129
816,06	54,783
816,24	62,112
816,42	39,706
816,61	71,698
816,79	45,690
816,97	47,727
817,16	43,195
817,34	48,413
817,52	70,248
817,70	61,386
817,89	44,444
818,07	45,890
818,25	24,490
818,44	107,692
818,62	24,031
818,80	36,090
818,98	45,223
819,17	74,790
819,35	62,766
819,53	64,179
819,72	71,519
819,90	30,233
820,08	5,128
820,26	23,276
820,45	39,597
820,63	55,357
820,81	53,600
820,99	32,624
821,18	39,456
821,36	55,696
821,54	48,276
821,73	62,222
821,91	35,965
822,09	32,258
822,27	61,935
822,46	52,941
822,64	36,800
822,82	30,387
823,00	24,309
823,19	51,099
823,37	46,061
823,55	21,591
823,73	73,793
823,91	48,551
824,10	50,000
824,28	51,256
824,46	15,534
824,64	65,789
824,83	41,615
825,01	56,000
825,19	38,710
825,37	24,348
825,56	33,019
825,74	51,020
825,92	57,325
826,10	61,364
826,28	33,333
826,47	22,632
826,65	58,156
826,83	32,759
827,01	35,260
827,19	54,762
827,38	43,210
827,56	40,909
827,74	30,726
827,92	37,791
828,10	17,949
828,29	39,053
828,47	38,211
828,65	26,154
828,83	40,000
829,01	53,804
829,20	49,451
829,38	55,682
829,56	38,587
829,74	11,321
829,92	31,349
830,10	13,218
830,29	31,658
830,47	37,186
830,65	19,512
830,83	9,821
831,01	53,571
831,20	20,388
831,38	24,402
831,56	38,140
831,74	53,555
831,92	53,947
832,10	28,095
832,29	37,162
832,47	18,539
832,65	45,588
832,83	31,925
833,01	48,500
833,19	41,176
833,37	43,439
833,56	31,224
833,74	58,824
833,92	32,870
834,10	23,651
834,28	49,789
834,46	40,724
834,64	32,870
834,83	33,636
835,01	53,942
835,19	31,200
835,37	40,909
835,55	19,271
835,73	28,079
835,91	39,852
836,09	37,262
836,28	19,557
836,46	14,400
836,64	41,729
836,82	31,674
837,00	36,232
837,18	20,446
837,36	22,709
837,54	27,727
837,72	23,707
837,91	17,537
838,09	16,733
838,27	31,333
838,45	18,085
838,63	19,853
838,81	11,392
838,99	16,935
839,17	26,689
839,35	20,213
839,53	28,070
839,72	22,932
839,90	26,117
840,08	26,769
840,26	22,222
840,44	32,628
840,62	17,931
840,80	37,415
840,98	20,784
841,16	22,053
841,34	10,033
841,52	28,440
841,70	24,308
841,89	25,000
842,07	28,527
842,25	39,655
842,43	11,207
842,61	28,070
842,79	28,249
842,97	23,779
843,15	25,413
843,33	8,517
843,51	28,614
843,69	32,194
843,87	18,657
844,05	22,796
844,23	27,628
844,41	10,345
844,59	19,308
844,77	12,885
844,95	19,364
845,13	20,308
845,31	14,244
845,50	24,346
845,68	17,363
845,86	19,828
846,04	25,698
846,22	15,259
846,40	11,828
846,58	19,658
846,76	31,989
846,94	23,441
847,12	16,839
847,30	5,928
847,48	17,647
847,66	9,606
847,84	13,388
848,02	20,290
848,20	17,054
848,38	18,234
848,56	21,023
848,74	26,014
848,92	5,985
849,10	19,750
849,28	16,194
849,46	24,800
849,64	23,788
849,82	5,247
850,00	21,262
850,18	30,000
850,36	9,272
850,54	15,789
850,72	16,710
850,90	18,913
851,08	12,254
851,26	13,129
851,44	19,912
851,62	16,047
851,80	20,485
851,98	15,165
852,16	22,931
852,34	9,278
852,52	10,045
852,70	10,023
852,87	15,068
853,05	9,162
853,23	13,814
853,41	14,966
853,59	20,124
853,77	7,937
853,95	23,418
854,13	17,920
854,31	16,838
854,49	15,369
854,67	6,911
854,85	9,524
855,03	24,649
855,21	19,579
855,39	11,670
855,57	9,140
855,75	8,759
855,93	13,922
856,11	20,116
856,28	15,129
856,46	16,370
856,64	10,095
856,82	14,089
857,00	5,274
857,18	10,830
857,36	15,683
857,54	13,322
857,72	5,088
857,90	7,934
858,08	6,863
858,26	-1,035
858,44	6,628
858,61	6,272
858,79	16,955
858,97	7,611
859,15	14,087
859,33	17,031
859,51	6,533
859,69	7,156
859,87	8,237
860,05	-1,776
860,23	12,338
860,40	12,989
860,58	15,574
860,76	11,111
860,94	14,309
861,12	11,385
861,30	8,634
861,48	10,429
861,66	10,794
861,84	5,979
862,01	13,549
862,19	9,492
862,37	6,051
862,55	10,519
862,73	8,514
862,91	6,755
863,09	13,839
863,27	10,057
863,44	6,488
863,62	7,609
863,80	6,610
863,98	7,864
864,16	4,913
864,34	8,769
864,52	10,590
864,69	6,725
864,87	6,223
865,05	5,578
865,23	10,196
865,41	12,231
865,59	10,633
865,76	9,314
865,94	9,561
866,12	8,645
866,30	6,732
866,48	14,933
866,66	4,704
866,83	11,959
867,01	8,312
867,19	9,883
867,37	6,210
867,55	9,438
867,73	8,894
867,90	6,347
868,08	5,683
868,26	6,740
868,44	0,938
868,62	11,916
868,79	7,102
868,97	3,023
869,15	7,309
869,33	6,349
869,51	7,666
869,69	5,244
869,86	7,602
870,04	12,874
870,22	11,802
870,40	10,526
870,57	6,690
870,75	7,072
870,93	6,842
871,11	8,874
871,29	7,420
871,46	3,642
871,64	6,695
871,82	10,549
872,00	9,671
872,18	5,169
872,35	11,134
872,53	3,728
872,71	8,673
872,89	13,163
873,06	11,734
873,24	9,796
873,42	4,960
873,60	6,955
873,77	3,681
873,95	9,307
874,13	5,497
874,31	9,494
874,49	9,971
874,66	4,135
874,84	3,611
875,02	10,082
875,20	9,951
875,37	7,315
875,55	6,107
875,73	2,622
875,91	4,368
876,08	3,473
876,26	4,594
876,44	6,429
876,61	5,882
876,79	5,774
876,97	2,828
877,15	1,762
877,32	5,627
877,50	4,305
877,68	3,171
877,86	2,379
878,03	8,768
878,21	8,155
878,39	6,816
878,56	2,314
878,74	8,104
878,92	2,421
879,10	6,764
879,27	5,705
879,45	9,428
879,63	4,658
879,80	6,587
879,98	2,935
880,16	8,079
880,34	7,885
880,51	3,549
880,69	3,720
880,87	5,312
881,04	2,315
881,22	6,019
881,40	7,278
881,57	5,056
881,75	5,402
881,93	6,528
882,10	6,465
882,28	4,414
882,46	5,205
882,63	3,645
882,81	6,082
882,99	6,649
883,16	3,942
883,34	4,078
883,52	4,225
883,69	5,816
883,87	2,669
884,05	4,750
884,22	4,110
884,40	7,374
884,58	2,257
884,75	3,185
884,93	5,596
885,11	6,974
885,28	2,870
885,46	1,599
885,64	2,371
885,81	3,710
885,99	1,115
886,17	4,016
886,34	4,348
886,52	4,138
886,70	4,181
886,87	4,676
887,05	3,872
887,22	0,553
887,40	3,626
887,58	3,848
887,75	2,357
887,93	3,960
888,11	2,800
888,28	2,335
888,46	5,011
888,63	1,792
888,81	3,908
888,99	4,495
889,16	5,575
889,34	2,734
889,51	2,351
889,69	1,260
889,87	5,417
890,04	2,069
890,22	3,315
890,39	2,779
890,57	5,237
890,75	1,964
890,92	3,200
891,10	4,550
891,27	4,019
891,45	3,303
891,63	4,199
891,80	4,456
891,98	2,207
892,15	2,703
892,33	2,538
892,51	4,086
892,68	3,442
892,86	2,417
893,03	1,144
893,21	5,437
893,38	2,178
893,56	3,590
893,74	4,365
893,91	4,631
894,09	3,675
894,26	4,011
894,44	3,979
894,61	4,083
894,79	2,420
894,96	3,328
895,14	3,517
895,32	3,369
895,49	2,940
895,67	2,534
895,84	1,947
896,02	1,804
896,19	1,351
896,37	3,119
896,54	2,845
896,72	2,760
896,89	2,871
897,07	4,175
897,25	2,689
897,42	2,505
897,60	3,684
897,77	3,339
897,95	2,208
898,12	3,591
898,30	2,918
898,47	1,320
898,65	2,584
898,82	2,642
899,00	1,612
899,17	4,255
899,35	1,931
899,52	4,187
899,70	2,060
899,87	0,191
900,05	2,207
900,22	3,390
900,40	1,475
900,57	3,006
900,75	2,017
900,92	3,152
901,10	1,935
901,27	2,406
901,45	3,534
901,62	3,410
901,80	1,903
901,97	1,799
902,15	2,533
902,32	3,737
902,50	2,583
902,67	3,514
902,85	2,531
903,02	3,312
903,20	2,212
903,37	1,744
903,54	2,227
903,72	3,901
903,89	2,388
904,07	1,176
904,24	2,864
904,42	3,063
904,59	1,357
904,77	2,759
904,94	1,370
905,12	0,709
905,29	2,037
905,47	0,244
905,64	3,174
905,81	2,088
905,99	1,505
906,16	0,832
906,34	1,541
906,51	1,969
906,69	2,761
906,86	1,742
907,03	2,523
907,21	0,465
907,38	3,540
907,56	2,366
907,73	1,605
907,91	1,482
908,08	1,805
908,25	3,163
908,43	1,946
908,60	1,165
908,78	1,082
908,95	3,035
909,13	3,285
909,30	3,490
909,47	1,827
909,65	1,723
909,82	3,301
910,00	2,354
910,17	2,685
910,34	2,833
910,52	1,775
910,69	1,735
910,87	1,598
911,04	0,575
911,21	3,483
911,39	1,337
911,56	3,549
911,73	2,314
911,91	2,052
912,08	2,085
912,26	0,755
912,43	3,906
912,60	1,852
912,78	1,161
912,95	2,340
913,13	1,617
913,30	3,499
913,47	2,954
913,65	1,995
913,82	2,795
913,99	1,600
914,17	1,426
914,34	1,349
914,51	4,087
914,69	2,554
914,86	3,481
915,03	2,304
915,21	1,722
915,38	2,920
915,56	3,001
915,73	1,563
915,90	2,675
916,08	2,772
916,25	2,008
916,42	3,297
916,60	1,612
916,77	2,841
916,94	2,503
917,12	2,111
917,29	1,186
917,46	3,103
917,64	2,225
917,81	2,382
917,98	1,638
918,16	1,846
918,33	3,362
918,50	1,264
918,67	3,104
918,85	2,147
919,02	2,564
919,19	1,955
919,37	2,357
919,54	2,422
919,71	3,159
919,89	1,771
920,06	2,331
920,23	2,226
920,41	1,222
920,58	1,092
920,75	3,258
920,92	2,409
921,10	2,567
921,27	2,274
921,44	2,880
921,62	2,695
921,79	2,581
921,96	1,791
922,13	1,752
922,31	1,410
922,48	1,178
922,65	1,726
922,82	1,184
923,00	2,970
923,17	1,149
923,34	1,594
923,52	1,615
923,69	1,852
923,86	1,948
924,03	1,321
924,21	1,252
924,38	1,945
924,55	3,436
924,72	0,614
924,90	0,862
925,07	2,576
925,24	1,438
925,41	1,459
925,59	1,667
925,76	1,016
925,93	1,726
926,10	2,291
926,28	0,681
926,45	1,634
926,62	1,646
926,79	1,685
926,96	2,937
927,14	3,082
927,31	2,207
927,48	1,690
927,65	1,622
927,83	2,162
928,00	1,809
928,17	2,020
928,34	1,475
928,51	1,687
928,69	1,239
928,86	2,098
929,03	1,932
929,20	1,485
929,37	1,127
929,55	2,022
929,72	1,777
929,89	1,026
930,06	1,440
930,23	1,925
930,41	1,291
930,58	2,146
930,75	0,747
930,92	1,748
931,09	1,085
931,27	1,383
931,44	1,473
931,61	2,199
931,78	1,664
931,95	1,776
932,12	2,425
932,30	1,505
932,47	0,825
932,64	1,604
932,81	1,217
932,98	1,158
933,16	1,491
933,33	2,351
933,50	1,710
933,67	2,465
933,84	2,265
934,01	0,886
934,18	1,827
934,36	2,087
934,53	2,093
934,70	1,287
934,87	1,680
935,04	1,675
935,21	1,933
935,38	1,242
935,56	2,208
935,73	1,038
935,90	1,885
936,07	1,885
936,24	1,646
936,41	1,459
936,58	0,553
936,76	1,926
936,93	0,788
937,10	1,624
937,27	2,539
937,44	1,852
937,61	2,110
937,78	1,566
937,95	2,417
938,13	1,069
938,30	1,842
938,47	2,207
938,64	1,440
938,81	1,491
938,98	1,655
939,15	2,152
939,32	1,733
939,49	1,214
939,66	2,167
939,84	1,757
940,01	1,824
940,18	1,417
940,35	1,027
940,52	2,116
940,69	1,032
940,86	2,172
941,03	1,793
941,20	2,390
941,37	1,403
941,54	2,551
941,71	2,469
941,89	2,208
942,06	2,201
942,23	3,097
942,40	2,778
942,57	2,881
942,74	2,976
942,91	3,797
943,08	3,974
943,25	2,730
943,42	2,776
943,59	3,680
943,76	3,670
943,93	2,803
944,10	2,678
944,27	2,154
944,44	3,111
944,61	4,255
944,79	3,105
944,96	3,682
945,13	3,022
945,30	3,462
945,47	3,403
945,64	2,985
945,81	4,241
945,98	4,443
946,15	3,960
946,32	4,547
946,49	3,458
946,66	4,257
946,83	2,366
947,00	3,893
947,17	2,527
947,34	4,808
947,51	4,428
947,68	4,609
947,85	3,720
948,02	3,343
948,19	2,348
948,36	4,551
948,53	2,678
948,70	3,757
948,87	5,403
949,04	5,233
949,21	3,389
949,38	5,132
949,55	7,152
949,72	3,970
949,89	5,761
950,06	5,085
950,23	3,330
950,40	4,476
950,57	5,043
950,74	6,012
950,91	4,879
951,08	5,190
951,25	5,214
951,42	5,087
951,59	5,319
951,76	4,138
951,93	6,370
952,10	5,643
952,27	6,041
952,44	6,915
952,61	5,882
952,77	6,242
952,94	4,462
953,11	8,209
953,28	7,153
953,45	7,176
953,62	7,772
953,79	7,062
953,96	9,091
954,13	7,901
954,30	8,438
954,47	6,878
954,64	7,090
954,81	10,246
954,98	7,978
955,15	7,618
955,32	8,474
955,49	8,537
955,65	8,498
955,82	10,347
955,99	11,434
956,16	12,897
956,33	11,997
956,50	9,513
956,67	9,441
956,84	13,074
957,01	11,119
957,18	13,536
957,35	13,284
957,52	15,174
957,68	15,182
957,85	15,332
958,02	14,223
958,19	15,745
958,36	16,898
958,53	14,353
958,70	14,977
958,87	11,078
959,04	15,031
959,21	19,381
959,37	21,058
959,54	16,963
959,71	23,001
959,88	16,279
960,05	26,077
960,22	20,126
960,39	21,608
960,56	24,808
960,72	22,299
960,89	20,000
961,06	19,391
961,23	15,749
961,40	19,236
961,57	23,003
961,74	18,433
961,90	19,594
962,07	24,215
962,24	28,090
962,41	26,724
962,58	24,415
962,75	24,786
962,92	24,386
963,08	23,333
963,25	22,112
963,42	31,124
963,59	21,150
963,76	28,231
963,93	27,495
964,10	17,195
964,26	36,905
964,43	17,442
964,60	28,074
964,77	39,150
964,94	26,173
965,10	20,334
965,27	24,860
965,44	27,302
965,61	30,822
965,78	27,640
965,95	40,796
966,11	31,818
966,28	28,212
966,45	46,405
966,62	34,495
966,79	29,352
966,95	36,655
967,12	22,222
967,29	30,864
967,46	43,060
967,63	38,824
967,79	47,651
967,96	27,982
968,13	41,905
968,30	60,905
968,47	41,154
968,63	45,588
968,80	54,023
968,97	44,509
969,14	31,073
969,31	66,837
969,47	44,565
969,64	24,725
969,81	54,839
969,98	42,632
970,14	29,032
970,31	50,943
970,48	44,966
970,65	66,116
970,81	66,434
970,98	47,396
971,15	97,576
971,32	53,788
971,48	76,190
971,65	44,371
971,82	110,000
971,99	66,456
972,15	73,256
972,32	79,167
972,49	72,131
972,66	98,347
972,82	71,918
972,99	92,500
973,16	82,119
973,33	72,593
973,49	102,439
973,66	91,429
973,83	113,580
974,00	69,620
974,16	85,455
974,33	136,000
974,50	93,939
974,67	85,714
974,83	113,265
975,00	169,091
975,17	138,710
975,33	137,931
975,50	163,934
975,67	173,077
975,84	85,366
976,00	75,000
976,17	117,391
976,34	100,000
976,50	29,670
976,67	97,619
976,84	197,917
977,00	128,205
977,17	113,333
977,34	225,000
977,50	110,714
977,67	75,294
977,84	152,542
978,01	109,459
978,17	203,448
978,34	203,704
978,51	304,000
978,67	167,347
978,84	85,455
979,01	42,105
979,17	35,714
979,34	191,304
979,51	168,182
979,67	383,333
979,84	186,441
980,01	117,308
980,17	111,765
980,34	95,890
980,51	522,222
980,67	55,556
980,84	44,286
981,01	220,588
981,17	116,176
981,34	160,000
981,50	130,526
981,67	311,905
981,84	167,857
982,00	4800,000
982,17	121,875
982,34	190,244
982,50	0,000
982,67	-1200,000
982,84	480,000
983,00	179,630
983,17	-642,857
983,33	400,000
983,50	158,537
983,67	113,043
983,83	371,429
984,00	165,217
984,17	855,556
984,33	-328,571
984,50	124,324
984,66	131,250
984,83	612,500
985,00	376,923
985,16	100,000
985,33	3500,000
985,49	105,814
985,66	190,000
985,83	-2000,000
985,99	722,222
986,16	389,474
986,32	112,329
986,49	-540,000
986,66	1540,000
986,82	233,333
986,99	-1680,000
987,15	206,061
987,32	288,235
987,49	246,429
987,65	-226,087
987,82	-65,000
987,98	143,939
988,15	614,286
988,31	231,429
988,48	198,039
988,65	960,000
988,81	150,909
988,98	289,189
989,14	630,000
989,31	242,373
989,47	-157,143
989,64	533,333
989,80	123,404
989,97	220,000
990,14	671,429
990,30	-675,000
990,47	-183,333
990,63	242,105
990,80	733,333
990,96	950,000
991,13	233,333
991,29	133,333
991,46	206,250
991,62	0,000
991,79	-440,000
991,95	517,647
992,12	1500,000
992,29	-428,571
992,45	242,857
992,62	-235,714
992,78	-1183,333
992,95	216,129
993,11	950,000
993,28	-3000,000
993,44	-262,069
993,61	157,895
993,77	0,000
993,94	317,949
994,10	1714,286
994,27	-118,421
994,43	365,625
994,60	528,571
994,76	224,242
994,93	-380,000
995,09	-450,000
995,26	341,667
995,42	600,000
995,59	193,333
995,75	-666,667
995,92	-1285,714
996,08	-1540,000
996,25	275,758
996,41	1300,000
996,58	436,000
996,74	-400,000
996,91	145,161
997,07	340,000
997,23	154,902
997,40	1600,000
997,56	-2333,333
997,73	530,435
997,89	1460,000
998,06	191,228
998,22	204,255
998,39	240,816
998,55	242,105
998,72	-6900,000
998,88	136,000
999,05	693,333
999,21	405,882
999,37	348,837
999,54	287,097
999,70	319,048
999,87	950,000
1000,03	406,667
1000,20	492,857
1000,36	-1350,000
1000,52	2600,000
1000,69	324,000
1000,85	-308,333
1001,02	195,238
1001,18	1360,000
1001,35	0,000
1001,51	400,000
1001,67	400,000
1001,84	226,829
1002,00	-627,273
1002,17	2125,000
1002,33	-687,500
1002,50	783,333
1002,66	1237,500
1002,82	182,927
1002,99	-322,727
1003,15	-6900,000
1003,32	-0,000
1003,48	-1766,667
1003,64	469,565
1003,81	-184,211
1003,97	171,014
1004,14	-92,727
1004,30	581,818
1004,46	-8900,000
1004,63	-338,462
1004,79	159,459
1004,95	-1340,000
1005,12	-15,385
1005,28	263,889
1005,45	-566,667
1005,61	353,846
1005,77	-1342,857
1005,94	204,348
1006,10	-600,000
1006,26	-85,185
1006,43	227,273
1006,59	325,806
1006,76	-272,000
1006,92	382,609
1007,08	172,727
1007,25	247,222
1007,41	181,818
1007,57	-517,647
1007,74	247,826
1007,90	-385,714
1008,06	-393,333
1008,23	-284,211
1008,39	272,222
1008,55	102,353
1008,72	-900,000
1008,88	-168,571
1009,04	-966,667
1009,21	187,500
1009,37	503,226
1009,53	-325,000
1009,70	-34,848
1009,86	384,211
1010,02	206,818
1010,19	673,333
1010,35	10700,000
1010,51	280,000
1010,68	313,636
1010,84	465,000
1011,00	807,143
1011,17	2666,667
1011,33	373,077
1011,49	612,500
1011,66	434,375
1011,82	-1058,333
1011,98	586,667
1012,14	453,846
1012,31	279,545
1012,47	-485,714
1012,63	9700,000
1012,80	300,000
1012,96	86,111
1013,12	-251,852
1013,29	425,000
1013,45	-102,941
1013,61	-1200,000
1013,77	-777,778
1013,94	275,000
1014,10	4300,000
1014,26	-76,471
1014,43	268,421
1014,59	0,000
1014,75	880,000
1014,91	165,714
1015,08	188,462
1015,24	580,000
1015,40	440,000
1015,56	700,000
1015,73	287,755
1015,89	533,333
1016,05	243,243
1016,21	288,889
1016,38	202,632
1016,54	-396,000
1016,70	431,579
1016,86	-576,923
1017,03	0,000
1017,19	1012,500
1017,35	253,333
1017,51	1300,000
1017,68	1242,857
1017,84	426,316
1018,00	557,143
1018,16	-518,750
1018,33	454,545
1018,49	157,143
1018,65	-495,455
1018,81	-134,146
1018,97	669,231
1019,14	-1428,571
1019,30	295,238
1019,46	258,974
1019,62	3150,000
1019,79	-457,143
1019,95	-1725,000
1020,11	700,000
1020,27	235,000
1020,43	-750,000
1020,60	0,000
1020,76	138,235
1020,92	7800,000
1021,08	-80,000
1021,24	-3150,000
1021,41	224,242
1021,57	-312,500
1021,73	0,000
1021,89	-422,727
1022,05	400,000
1022,21	-592,308
1022,38	631,579
1022,54	1800,000
1022,70	311,111
1022,86	-2450,000
1023,02	766,667
1023,19	-365,000
1023,35	211,321
1023,51	245,161
1023,67	207,895
1023,83	509,091
1023,99	202,857
1024,16	-55,385
1024,32	506,250
1024,48	220,408
1024,64	-1300,000
1024,80	425,000
1024,96	415,385
1025,12	2800,000
1025,29	-725,000
1025,45	237,500
1025,61	3200,000
1025,77	228,571
1025,93	-369,231
1026,09	4850,000
1026,26	-1314,286
1026,42	-900,000
1026,58	151,923
1026,74	600,000
1026,90	400,000
1027,06	-800,000
1027,22	-433,333
1027,38	611,111
1027,55	-388,000
1027,71	725,000
1027,87	170,000
1028,03	81,818
1028,19	-157,576
1028,35	81,081
1028,51	-72,581
1028,67	-580,000
1028,83	216,667
1029,00	821,429
1029,16	-673,333
1029,32	541,176
1029,48	4300,000
1029,64	1357,143
1029,80	1433,333
1029,96	203,922
1030,12	-200,000
1030,28	2375,000
1030,44	-2950,000
1030,61	434,375
1030,77	-260,870
1030,93	232,558
1031,09	-307,143
1031,25	-900,000
1031,41	-1750,000
1031,57	-26,316
1031,73	709,091
1031,89	-190,909
1032,05	1414,286
1032,21	680,000
1032,37	-129,412
1032,53	-20,000
1032,69	-4200,000
1032,86	1583,333
1033,02	381,250
1033,18	-653,846
1033,34	-476,923
1033,50	300,000
1033,66	-488,889
1033,82	300,000
1033,98	-435,294
1034,14	1277,778
1034,30	-204,545
1034,46	325,000
1034,62	733,333
1034,78	130,159
1034,94	-38,710
1035,10	-468,182
1035,26	-877,778
1035,42	114,286
1035,58	1200,000
1035,74	-143,333
1035,90	-425,000
1036,06	156,604
1036,22	-288,000
1036,38	500,000
1036,54	470,000
1036,70	-2350,000
1036,86	-228,571
1037,02	-2850,000
1037,18	-139,286
1037,34	321,739
1037,50	-346,667
1037,66	-2700,000
1037,82	-217,647
1037,98	500,000
1038,14	-165,517
1038,30	73,077
1038,46	187,500
1038,62	254,839
1038,78	233,333
1038,94	-92,105
1039,10	-295,833
1039,26	-200,000
1039,42	-928,571
1039,58	158,491
1039,74	275,000
1039,90	-112,821
1040,06	500,000
>>>>>End Processed Spectral Data<<<<<
