SpectraSuite Data File
++++++++++++++++++++++++++++++++++++
Date: Thu Feb 02 17:56:46 EET 2017
User: optolab
Dark Spectrum Present: Yes
Reference Spectrum Present: Yes
Number of Sampled Component Spectra: 1
Spectrometers: USB4C02475
Integration Time (usec): 100000 (USB4C02475)
Spectra Averaged: 1 (USB4C02475)
Boxcar Smoothing: 0 (USB4C02475)
Correct for Electrical Dark: No (USB4C02475)
Strobe/Lamp Enabled: No (USB4C02475)
Correct for Detector Non-linearity: No (USB4C02475)
Correct for Stray Light: No (USB4C02475)
Number of Pixels in Processed Spectrum: 3648
>>>>>Begin Processed Spectral Data<<<<<
344,91	-1475,000
345,13	-1475,000
345,35	-1475,000
345,57	-164,706
345,79	-30,435
346,00	-191,176
346,22	-1328,571
346,44	-90,909
346,66	238,298
346,87	282,609
347,09	876,923
347,31	8900,000
347,53	-2225,000
347,74	-158,140
347,96	-1371,429
348,18	394,118
348,40	676,471
348,61	-151,282
348,83	9300,000
349,05	238,462
349,27	447,059
349,48	-5400,000
349,70	621,429
349,92	242,857
350,14	194,595
350,35	-438,462
350,57	-388,889
350,79	-69,231
351,01	-653,333
351,22	370,000
351,44	600,000
351,66	261,111
351,87	1200,000
352,09	122,368
352,31	271,429
352,53	262,857
352,74	-314,286
352,96	363,158
353,18	128,125
353,40	-650,000
353,61	500,000
353,83	233,333
354,05	371,875
354,26	314,286
354,48	-1180,000
354,70	414,286
354,92	275,000
355,13	-141,860
355,35	174,074
355,57	185,937
355,78	150,000
356,00	208,511
356,22	140,909
356,44	286,047
356,65	364,286
356,87	277,778
357,09	294,286
357,30	131,818
357,52	-1383,333
357,74	238,710
357,95	228,571
358,17	168,116
358,39	204,000
358,60	244,444
358,82	250,000
359,04	266,667
359,26	100,000
359,47	-276,923
359,69	389,286
359,91	324,000
360,12	400,000
360,34	180,556
360,56	-2250,000
360,77	833,333
360,99	512,500
361,21	339,130
361,42	-2050,000
361,64	-162,963
361,86	141,791
362,07	580,000
362,29	170,000
362,51	243,243
362,72	-1520,000
362,94	314,815
363,16	124,286
363,37	1200,000
363,59	-6300,000
363,81	600,000
364,02	178,667
364,24	213,636
364,46	623,810
364,67	190,476
364,89	347,059
365,11	140,541
365,32	318,519
365,54	362,500
365,76	172,727
365,97	214,634
366,19	128,070
366,41	850,000
366,62	127,000
366,84	733,333
367,05	85,294
367,27	1500,000
367,49	235,897
367,70	777,778
367,92	112,500
368,14	115,385
368,35	164,706
368,57	115,152
368,79	319,231
369,00	94,872
369,22	422,222
369,43	426,316
369,65	-210,345
369,87	-447,059
370,08	430,000
370,30	450,000
370,51	363,636
370,73	183,333
370,95	280,000
371,16	103,509
371,38	226,415
371,60	306,667
371,81	100,000
372,03	-1775,000
372,24	-237,500
372,46	2900,000
372,68	129,412
372,89	97,248
373,11	197,674
373,32	78,151
373,54	509,091
373,76	483,333
373,97	269,697
374,19	-405,263
374,40	182,857
374,62	429,412
374,84	375,000
375,05	200,000
375,27	297,297
375,48	93,827
375,70	352,941
375,92	208,929
376,13	389,474
376,35	270,833
376,56	395,000
376,78	124,490
376,99	354,545
377,21	281,250
377,43	145,455
377,64	122,000
377,86	543,750
378,07	109,091
378,29	130,556
378,51	146,429
378,72	-372,727
378,94	176,087
379,15	109,091
379,37	406,250
379,58	186,667
379,80	120,455
380,01	114,000
380,23	269,565
380,45	206,250
380,66	152,778
380,88	345,946
381,09	391,304
381,31	217,949
381,52	243,478
381,74	175,000
381,95	367,857
382,17	408,000
382,39	143,548
382,60	529,412
382,82	244,828
383,03	1133,333
383,25	96,296
383,46	650,000
383,68	229,787
383,89	213,636
384,11	110,959
384,32	328,947
384,54	-1257,143
384,76	235,294
384,97	-15,000
385,19	268,421
385,40	303,125
385,62	206,452
385,83	170,213
386,05	128,571
386,26	426,923
386,48	338,462
386,69	263,889
386,91	460,000
387,12	212,821
387,34	142,373
387,55	234,286
387,77	212,000
387,98	169,388
388,20	180,282
388,41	92,063
388,63	137,143
388,84	207,500
389,06	155,814
389,27	143,750
389,49	109,639
389,70	169,492
389,92	204,545
390,13	200,000
390,35	105,208
390,56	190,625
390,78	327,273
390,99	128,889
391,21	147,727
391,42	69,565
391,64	-450,000
391,85	143,103
392,07	-71,429
392,28	196,154
392,50	1700,000
392,71	5300,000
392,93	96,774
393,14	215,217
393,36	170,513
393,57	354,167
393,79	130,159
394,00	64,384
394,22	134,000
394,43	328,571
394,65	328,571
394,86	215,625
395,08	-937,500
395,29	97,872
395,50	-3300,000
395,72	1028,571
395,93	296,000
396,15	-214,286
396,36	236,667
396,58	-371,429
396,79	162,791
397,01	190,476
397,22	152,174
397,44	242,553
397,65	98,649
397,87	118,571
398,08	153,846
398,29	383,333
398,51	182,927
398,72	76,087
398,94	197,674
399,15	76,667
399,37	189,130
399,58	96,825
399,80	246,667
400,01	279,412
400,22	285,714
400,44	233,333
400,65	119,178
400,87	4800,000
401,08	123,596
401,30	128,000
401,51	130,909
401,72	129,032
401,94	239,024
402,15	144,898
402,37	190,909
402,58	95,349
402,80	375,000
403,01	91,667
403,22	87,952
403,44	50,000
403,65	89,796
403,87	113,333
404,08	117,308
404,30	96,875
404,51	110,000
404,72	436,364
404,94	90,361
405,15	144,776
405,37	63,736
405,58	193,548
405,79	471,429
406,01	68,148
406,22	96,429
406,44	108,772
406,65	97,619
406,86	132,000
407,08	83,951
407,29	28,000
407,51	36,538
407,72	86,139
407,93	87,342
408,15	68,182
408,36	277,143
408,58	67,500
408,79	68,217
409,00	66,667
409,22	86,275
409,43	30,631
409,64	42,308
409,86	53,409
410,07	26,957
410,29	29,333
410,50	26,984
410,71	12,903
410,93	64,356
411,14	71,963
411,35	39,583
411,57	18,750
411,78	41,176
412,00	30,000
412,21	34,956
412,42	21,951
412,64	58,889
412,85	33,161
413,06	43,750
413,28	36,078
413,49	33,023
413,70	51,073
413,92	33,333
414,13	25,692
414,34	20,446
414,56	48,511
414,77	26,199
414,98	25,088
415,20	31,900
415,41	25,649
415,63	34,473
415,84	29,086
416,05	18,373
416,27	17,549
416,48	34,597
416,69	23,547
416,91	17,867
417,12	20,362
417,33	25,959
417,55	33,200
417,76	24,524
417,97	35,768
418,19	17,573
418,40	19,829
418,61	31,046
418,83	33,627
419,04	25,891
419,25	26,794
419,46	36,437
419,68	30,383
419,89	34,124
420,10	28,226
420,32	33,510
420,53	29,117
420,74	34,050
420,96	32,227
421,17	32,041
421,38	32,630
421,60	31,618
421,81	32,332
422,02	31,796
422,23	32,350
422,45	30,622
422,66	33,696
422,87	28,923
423,09	30,644
423,30	32,716
423,51	32,342
423,73	36,571
423,94	34,801
424,15	32,098
424,36	33,447
424,58	34,724
424,79	30,904
425,00	31,452
425,22	33,294
425,43	29,518
425,64	31,034
425,85	28,918
426,07	29,248
426,28	33,155
426,49	29,044
426,71	28,479
426,92	30,112
427,13	28,565
427,34	30,175
427,56	29,890
427,77	26,211
427,98	28,282
428,19	25,708
428,41	28,173
428,62	27,170
428,83	24,478
429,04	27,671
429,26	25,888
429,47	28,627
429,68	25,412
429,89	29,410
430,11	28,501
430,32	29,761
430,53	29,547
430,74	30,952
430,96	30,537
431,17	32,067
431,38	32,030
431,59	29,275
431,81	30,495
432,02	30,302
432,23	30,823
432,44	31,575
432,66	32,259
432,87	30,755
433,08	32,097
433,29	32,650
433,51	32,666
433,72	31,740
433,93	31,774
434,14	31,025
434,35	29,638
434,57	30,167
434,78	29,394
434,99	29,258
435,20	29,388
435,42	29,298
435,63	29,325
435,84	30,920
436,05	29,875
436,26	31,682
436,48	32,862
436,69	31,254
436,90	31,006
437,11	31,161
437,32	29,971
437,54	29,955
437,75	28,789
437,96	26,162
438,17	23,481
438,38	20,599
438,60	17,998
438,81	15,762
439,02	12,545
439,23	10,398
439,44	8,541
439,66	7,566
439,87	6,198
440,08	5,093
440,29	4,830
440,50	3,834
440,72	2,831
440,93	3,112
441,14	2,439
441,35	2,150
441,56	2,097
441,77	2,150
441,99	1,593
442,20	1,833
442,41	1,535
442,62	1,058
442,83	1,589
443,04	1,264
443,26	1,189
443,47	1,183
443,68	0,695
443,89	0,843
444,10	0,671
444,31	1,119
444,53	0,910
444,74	0,451
444,95	0,481
445,16	0,464
445,37	0,496
445,58	0,475
445,80	0,288
446,01	0,668
446,22	0,667
446,43	0,565
446,64	0,410
446,85	0,340
447,06	0,301
447,28	0,479
447,49	0,463
447,70	0,554
447,91	0,694
448,12	0,062
448,33	0,198
448,54	0,293
448,76	0,437
448,97	0,282
449,18	0,501
449,39	0,474
449,60	0,486
449,81	0,418
450,02	0,594
450,23	0,249
450,45	0,469
450,66	0,586
450,87	0,288
451,08	0,171
451,29	0,571
451,50	0,476
451,71	0,452
451,92	0,424
452,13	0,495
452,35	0,315
452,56	0,469
452,77	0,688
452,98	0,661
453,19	0,428
453,40	0,644
453,61	0,496
453,82	0,524
454,03	0,363
454,25	0,419
454,46	0,185
454,67	0,347
454,88	0,329
455,09	0,599
455,30	0,556
455,51	0,383
455,72	0,612
455,93	0,467
456,14	0,762
456,35	0,522
456,56	0,511
456,78	0,369
456,99	0,713
457,20	0,524
457,41	0,312
457,62	0,377
457,83	0,548
458,04	0,704
458,25	0,388
458,46	0,601
458,67	0,493
458,88	0,410
459,09	0,548
459,30	0,069
459,51	0,422
459,73	0,151
459,94	0,735
460,15	0,383
460,36	0,250
460,57	0,460
460,78	0,288
460,99	0,335
461,20	0,278
461,41	0,462
461,62	0,349
461,83	0,230
462,04	0,286
462,25	0,524
462,46	0,314
462,67	0,164
462,88	0,454
463,09	0,289
463,30	0,507
463,51	0,317
463,72	0,446
463,93	0,364
464,15	0,295
464,36	0,333
464,57	0,227
464,78	0,256
464,99	0,471
465,20	0,313
465,41	0,258
465,62	0,382
465,83	0,143
466,04	0,324
466,25	0,219
466,46	0,328
466,67	0,212
466,88	0,188
467,09	0,250
467,30	0,225
467,51	0,303
467,72	0,308
467,93	0,388
468,14	0,152
468,35	0,350
468,56	0,250
468,77	0,324
468,98	0,320
469,19	0,302
469,40	0,376
469,61	0,294
469,82	0,242
470,03	0,342
470,24	0,394
470,45	0,526
470,66	0,531
470,87	0,449
471,08	0,392
471,29	0,242
471,50	0,484
471,71	0,425
471,92	0,240
472,13	0,466
472,34	0,097
472,55	0,553
472,76	0,478
472,97	0,474
473,18	0,453
473,39	0,446
473,60	0,280
473,81	0,551
474,01	0,621
474,22	0,596
474,43	0,313
474,64	0,509
474,85	0,442
475,06	0,415
475,27	0,527
475,48	0,473
475,69	0,598
475,90	0,251
476,11	0,355
476,32	0,334
476,53	0,563
476,74	0,334
476,95	0,479
477,16	0,419
477,37	0,474
477,58	0,272
477,79	0,391
478,00	0,315
478,21	0,541
478,41	0,399
478,62	0,301
478,83	0,451
479,04	0,470
479,25	0,199
479,46	0,329
479,67	0,240
479,88	0,353
480,09	0,483
480,30	0,478
480,51	0,622
480,72	0,279
480,93	0,300
481,14	0,457
481,34	0,333
481,55	0,523
481,76	0,469
481,97	0,276
482,18	0,257
482,39	0,479
482,60	0,381
482,81	0,377
483,02	0,332
483,23	0,578
483,44	0,578
483,65	0,242
483,85	0,417
484,06	0,795
484,27	0,598
484,48	0,418
484,69	0,620
484,90	0,467
485,11	0,714
485,32	0,652
485,53	0,894
485,73	1,207
485,94	1,089
486,15	1,151
486,36	1,612
486,57	2,002
486,78	2,621
486,99	2,819
487,20	3,084
487,41	3,893
487,61	4,172
487,82	5,244
488,03	6,002
488,24	7,093
488,45	7,791
488,66	8,666
488,87	9,860
489,08	11,060
489,28	11,616
489,49	13,024
489,70	13,653
489,91	14,984
490,12	16,060
490,33	17,242
490,54	18,012
490,74	18,823
490,95	19,664
491,16	20,652
491,37	20,822
491,58	21,402
491,79	21,459
492,00	21,651
492,20	22,981
492,41	22,800
492,62	22,470
492,83	22,743
493,04	23,251
493,25	23,005
493,45	23,173
493,66	23,420
493,87	23,585
494,08	23,476
494,29	24,142
494,50	24,445
494,70	24,724
494,91	25,050
495,12	25,978
495,33	26,382
495,54	26,979
495,75	27,784
495,95	27,887
496,16	28,047
496,37	28,027
496,58	29,508
496,79	29,568
496,99	29,709
497,20	30,332
497,41	30,287
497,62	30,088
497,83	30,075
498,04	30,027
498,24	30,720
498,45	30,697
498,66	30,417
498,87	29,739
499,08	29,397
499,28	29,175
499,49	28,570
499,70	28,106
499,91	27,301
500,12	26,907
500,32	26,195
500,53	25,473
500,74	24,741
500,95	23,887
501,15	22,785
501,36	22,389
501,57	21,919
501,78	20,994
501,99	20,321
502,19	20,382
502,40	19,804
502,61	19,478
502,82	19,082
503,02	18,803
503,23	18,792
503,44	18,579
503,65	17,628
503,86	17,514
504,06	17,018
504,27	17,160
504,48	17,008
504,69	16,984
504,89	16,707
505,10	16,974
505,31	17,314
505,52	16,894
505,72	16,784
505,93	15,860
506,14	14,678
506,35	14,256
506,55	13,538
506,76	12,188
506,97	11,458
507,18	10,714
507,38	10,370
507,59	10,019
507,80	9,562
508,01	9,375
508,21	9,094
508,42	8,805
508,63	8,347
508,84	7,852
509,04	6,523
509,25	5,955
509,46	5,049
509,67	4,082
509,87	3,398
510,08	2,621
510,29	1,936
510,49	1,658
510,70	1,334
510,91	0,965
511,12	0,781
511,32	0,573
511,53	0,704
511,74	0,444
511,94	0,350
512,15	0,317
512,36	0,193
512,57	0,441
512,77	0,474
512,98	0,377
513,19	0,495
513,39	0,412
513,60	0,160
513,81	0,417
514,01	0,512
514,22	0,393
514,43	0,265
514,64	0,354
514,84	0,484
515,05	0,320
515,26	0,388
515,46	0,168
515,67	0,227
515,88	0,338
516,08	0,514
516,29	0,073
516,50	0,349
516,70	0,415
516,91	0,365
517,12	0,401
517,32	0,162
517,53	0,090
517,74	0,431
517,95	0,390
518,15	0,518
518,36	0,276
518,57	0,179
518,77	0,362
518,98	0,431
519,19	0,279
519,39	0,221
519,60	0,216
519,80	0,235
520,01	0,340
520,22	0,349
520,42	0,279
520,63	0,314
520,84	0,274
521,04	0,280
521,25	0,318
521,46	0,255
521,66	0,133
521,87	0,268
522,08	0,290
522,28	0,348
522,49	0,406
522,70	0,258
522,90	0,077
523,11	0,012
523,31	0,234
523,52	0,245
523,73	0,169
523,93	0,343
524,14	0,258
524,35	0,340
524,55	0,333
524,76	0,334
524,97	0,325
525,17	0,148
525,38	0,292
525,58	0,160
525,79	0,250
526,00	0,328
526,20	0,312
526,41	0,304
526,61	0,384
526,82	0,033
527,03	0,311
527,23	0,280
527,44	0,223
527,64	0,242
527,85	0,214
528,06	0,360
528,26	0,221
528,47	0,268
528,68	0,360
528,88	0,247
529,09	0,215
529,29	0,560
529,50	0,243
529,70	0,249
529,91	0,326
530,12	0,265
530,32	0,287
530,53	0,331
530,73	0,268
530,94	0,318
531,15	0,223
531,35	0,459
531,56	0,396
531,76	0,413
531,97	0,353
532,17	0,270
532,38	0,347
532,59	0,329
532,79	0,534
533,00	0,137
533,20	0,375
533,41	0,307
533,61	0,259
533,82	0,156
534,03	0,103
534,23	0,131
534,44	0,338
534,64	0,304
534,85	0,285
535,05	0,260
535,26	0,246
535,46	0,351
535,67	0,248
535,88	0,322
536,08	0,280
536,29	0,359
536,49	0,405
536,70	0,347
536,90	0,305
537,11	0,283
537,31	0,347
537,52	0,362
537,72	0,424
537,93	0,278
538,13	0,235
538,34	0,269
538,55	0,333
538,75	0,154
538,96	0,317
539,16	0,310
539,37	0,337
539,57	0,236
539,78	0,370
539,98	0,392
540,19	0,546
540,39	0,194
540,60	0,269
540,80	0,394
541,01	0,372
541,21	0,488
541,42	0,324
541,62	0,459
541,83	0,310
542,03	0,430
542,24	0,326
542,44	0,281
542,65	0,061
542,85	0,564
543,06	0,303
543,26	0,363
543,47	0,460
543,67	0,572
543,88	0,295
544,08	0,347
544,29	0,380
544,49	0,369
544,70	0,230
544,90	0,528
545,11	0,542
545,31	0,390
545,52	0,497
545,72	0,572
545,93	0,813
546,13	0,761
546,34	0,930
546,54	0,831
546,75	0,932
546,95	1,286
547,15	1,207
547,36	1,662
547,56	1,718
547,77	1,964
547,97	2,369
548,18	2,658
548,38	3,155
548,59	3,855
548,79	4,329
549,00	5,056
549,20	5,656
549,41	6,598
549,61	7,268
549,81	8,072
550,02	8,971
550,22	9,638
550,43	10,614
550,63	11,636
550,84	13,057
551,04	14,053
551,25	15,064
551,45	16,229
551,65	17,342
551,86	18,378
552,06	19,405
552,27	19,904
552,47	20,544
552,68	21,405
552,88	20,864
553,08	20,743
553,29	20,746
553,49	19,766
553,70	20,319
553,90	19,987
554,11	20,221
554,31	19,969
554,51	20,516
554,72	21,090
554,92	21,744
555,13	22,845
555,33	23,588
555,53	24,973
555,74	26,180
555,94	27,126
556,15	28,216
556,35	29,388
556,56	30,493
556,76	31,005
556,96	32,363
557,17	32,857
557,37	34,184
557,58	34,131
557,78	34,397
557,98	34,766
558,19	35,167
558,39	34,588
558,59	34,914
558,80	34,935
559,00	34,348
559,21	34,646
559,41	34,042
559,61	34,739
559,82	34,872
560,02	34,796
560,23	34,776
560,43	34,688
560,63	35,026
560,84	35,685
561,04	36,286
561,24	36,448
561,45	36,573
561,65	36,539
561,85	37,708
562,06	37,068
562,26	37,065
562,47	37,348
562,67	37,271
562,87	37,181
563,08	36,888
563,28	36,443
563,48	36,076
563,69	35,584
563,89	35,544
564,09	34,871
564,30	34,159
564,50	33,875
564,70	34,021
564,91	34,335
565,11	33,895
565,31	33,777
565,52	34,795
565,72	34,206
565,92	34,676
566,13	34,707
566,33	35,148
566,53	35,454
566,74	35,087
566,94	35,932
567,14	36,099
567,35	36,114
567,55	36,153
567,75	35,554
567,96	35,649
568,16	35,625
568,36	35,044
568,57	34,318
568,77	33,994
568,97	33,594
569,18	33,124
569,38	32,059
569,58	32,162
569,79	31,372
569,99	30,717
570,19	30,614
570,39	29,906
570,60	28,738
570,80	28,682
571,00	28,824
571,21	28,091
571,41	28,091
571,61	27,657
571,82	27,631
572,02	27,719
572,22	27,253
572,42	27,476
572,63	26,590
572,83	26,362
573,03	25,811
573,24	25,385
573,44	24,349
573,64	23,039
573,84	22,412
574,05	20,908
574,25	19,705
574,45	18,396
574,66	17,625
574,86	16,508
575,06	14,837
575,26	13,803
575,47	12,565
575,67	11,538
575,87	10,419
576,07	9,361
576,28	8,453
576,48	7,253
576,68	6,578
576,88	5,643
577,09	4,924
577,29	4,283
577,49	3,375
577,69	2,520
577,90	2,141
578,10	1,751
578,30	1,589
578,50	1,122
578,71	0,977
578,91	0,772
579,11	0,795
579,31	0,660
579,52	0,664
579,72	0,365
579,92	0,472
580,12	0,434
580,33	0,403
580,53	0,182
580,73	0,431
580,93	0,469
581,13	0,464
581,34	0,312
581,54	0,373
581,74	0,377
581,94	0,445
582,15	0,428
582,35	0,210
582,55	0,319
582,75	0,380
582,95	0,353
583,16	0,217
583,36	0,177
583,56	0,380
583,76	0,188
583,96	0,298
584,17	0,189
584,37	0,228
584,57	0,193
584,77	0,162
584,97	0,099
585,18	0,339
585,38	0,229
585,58	0,250
585,78	0,277
585,98	0,222
586,19	0,237
586,39	0,408
586,59	0,118
586,79	0,355
586,99	0,099
587,20	0,128
587,40	0,260
587,60	0,129
587,80	0,117
588,00	0,242
588,20	0,357
588,41	0,373
588,61	0,391
588,81	0,212
589,01	0,295
589,21	0,318
589,41	0,207
589,62	0,270
589,82	0,256
590,02	0,179
590,22	0,256
590,42	0,511
590,62	0,183
590,83	0,164
591,03	0,000
591,23	0,243
591,43	0,393
591,63	0,325
591,83	0,148
592,03	0,237
592,24	0,344
592,44	0,262
592,64	0,173
592,84	0,222
593,04	0,181
593,24	0,254
593,44	0,163
593,65	0,235
593,85	0,343
594,05	0,364
594,25	0,124
594,45	0,299
594,65	0,133
594,85	0,076
595,06	0,269
595,26	0,346
595,46	0,156
595,66	0,281
595,86	0,258
596,06	0,123
596,26	0,345
596,46	0,313
596,66	0,207
596,87	0,311
597,07	0,170
597,27	0,207
597,47	0,102
597,67	0,076
597,87	0,025
598,07	0,165
598,27	0,198
598,47	0,341
598,67	0,121
598,88	0,231
599,08	0,129
599,28	0,306
599,48	0,207
599,68	0,227
599,88	0,197
600,08	0,315
600,28	0,258
600,48	0,193
600,68	0,101
600,88	0,220
601,09	0,251
601,29	0,254
601,49	0,071
601,69	0,245
601,89	0,083
602,09	0,272
602,29	0,132
602,49	0,061
602,69	0,240
602,89	0,080
603,09	0,182
603,29	0,334
603,49	0,353
603,69	0,305
603,90	0,146
604,10	0,254
604,30	0,367
604,50	0,182
604,70	0,185
604,90	0,392
605,10	0,243
605,30	0,280
605,50	0,249
605,70	0,302
605,90	0,107
606,10	0,169
606,30	0,148
606,50	0,364
606,70	0,301
606,90	0,128
607,10	0,174
607,30	0,229
607,50	0,244
607,70	0,350
607,90	0,311
608,10	0,207
608,30	0,320
608,50	0,208
608,70	0,375
608,90	0,217
609,11	-0,031
609,31	0,260
609,51	0,258
609,71	0,051
609,91	0,074
610,11	0,294
610,31	0,371
610,51	0,338
610,71	0,184
610,91	0,102
611,11	0,215
611,31	0,250
611,51	0,329
611,71	0,123
611,91	0,331
612,11	0,145
612,31	0,384
612,51	0,208
612,71	0,227
612,91	0,099
613,11	0,123
613,31	0,103
613,51	0,123
613,71	0,099
613,91	0,266
614,11	0,387
614,31	0,181
614,50	0,451
614,70	0,122
614,90	0,315
615,10	0,067
615,30	0,405
615,50	0,175
615,70	0,349
615,90	0,264
616,10	0,200
616,30	0,226
616,50	0,059
616,70	0,104
616,90	0,241
617,10	0,278
617,30	0,119
617,50	0,273
617,70	0,124
617,90	0,226
618,10	0,206
618,30	0,285
618,50	0,218
618,70	0,150
618,90	0,175
619,10	0,098
619,30	-0,068
619,49	0,257
619,69	0,099
619,89	0,198
620,09	0,056
620,29	0,371
620,49	0,353
620,69	0,138
620,89	0,099
621,09	0,222
621,29	0,165
621,49	0,196
621,69	0,137
621,89	0,384
622,09	0,367
622,29	0,187
622,48	0,211
622,68	0,172
622,88	0,167
623,08	0,120
623,28	0,050
623,48	0,121
623,68	0,086
623,88	0,139
624,08	0,219
624,28	0,321
624,48	0,251
624,67	0,143
624,87	0,195
625,07	0,357
625,27	0,073
625,47	0,277
625,67	0,146
625,87	0,153
626,07	0,229
626,27	0,240
626,47	0,208
626,66	0,124
626,86	0,238
627,06	0,273
627,26	0,240
627,46	0,041
627,66	0,230
627,86	0,195
628,06	0,101
628,25	0,081
628,45	0,275
628,65	0,176
628,85	0,089
629,05	0,351
629,25	0,145
629,45	0,214
629,65	0,123
629,84	0,199
630,04	0,183
630,24	0,166
630,44	0,166
630,64	0,299
630,84	0,069
631,04	0,385
631,23	0,177
631,43	0,204
631,63	-0,032
631,83	0,168
632,03	0,227
632,23	0,293
632,42	0,244
632,62	0,196
632,82	0,282
633,02	0,282
633,22	0,173
633,42	0,167
633,62	0,043
633,81	0,149
634,01	0,429
634,21	0,161
634,41	0,360
634,61	0,220
634,80	0,270
635,00	0,326
635,20	0,414
635,40	-0,029
635,60	0,074
635,80	0,266
635,99	0,458
636,19	0,181
636,39	0,055
636,59	0,046
636,79	0,391
636,98	0,381
637,18	0,121
637,38	0,159
637,58	0,199
637,78	0,535
637,97	0,418
638,17	0,166
638,37	0,216
638,57	0,477
638,77	0,477
638,96	0,195
639,16	0,537
639,36	0,166
639,56	0,268
639,76	0,265
639,95	0,313
640,15	0,245
640,35	0,152
640,55	0,278
640,75	0,475
640,94	0,345
641,14	0,438
641,34	0,383
641,54	0,309
641,73	0,319
641,93	0,462
642,13	0,387
642,33	0,221
642,53	0,408
642,72	0,312
642,92	0,338
643,12	0,146
643,32	0,402
643,51	0,414
643,71	0,087
643,91	0,203
644,11	0,452
644,30	0,082
644,50	0,621
644,70	0,530
644,90	0,401
645,09	0,659
645,29	0,376
645,49	0,606
645,69	0,302
645,88	0,360
646,08	0,297
646,28	0,453
646,48	0,324
646,67	0,189
646,87	0,273
647,07	0,515
647,26	0,664
647,46	0,340
647,66	0,410
647,86	0,401
648,05	0,523
648,25	0,908
648,45	0,317
648,65	0,520
648,84	-0,084
649,04	0,563
649,24	0,825
649,43	0,528
649,63	0,365
649,83	0,626
650,03	0,715
650,22	0,643
650,42	0,333
650,62	0,657
650,81	0,226
651,01	0,192
651,21	0,826
651,40	0,307
651,60	0,114
651,80	0,376
652,00	0,284
652,19	0,680
652,39	0,464
652,59	0,724
652,78	0,427
652,98	0,190
653,18	0,401
653,37	0,468
653,57	0,700
653,77	0,468
653,96	0,144
654,16	0,580
654,36	0,610
654,55	0,455
654,75	0,707
654,95	0,724
655,14	0,138
655,34	0,769
655,54	0,499
655,73	-0,156
655,93	0,166
656,13	0,287
656,32	0,044
656,52	0,600
656,72	0,643
656,91	0,776
657,11	0,543
657,31	0,122
657,50	0,638
657,70	0,417
657,90	0,721
658,09	0,729
658,29	0,441
658,49	0,384
658,68	0,661
658,88	0,793
659,07	0,505
659,27	0,401
659,47	0,627
659,66	0,477
659,86	0,227
660,06	0,251
660,25	0,265
660,45	0,807
660,64	0,536
660,84	0,715
661,04	0,674
661,23	1,005
661,43	0,861
661,63	0,946
661,82	0,234
662,02	0,573
662,21	0,750
662,41	0,997
662,61	1,042
662,80	0,439
663,00	0,624
663,19	0,917
663,39	0,432
663,59	0,637
663,78	0,559
663,98	0,701
664,17	0,758
664,37	0,663
664,57	0,591
664,76	0,773
664,96	0,153
665,15	0,502
665,35	0,728
665,55	0,555
665,74	0,649
665,94	0,574
666,13	0,457
666,33	0,616
666,53	0,760
666,72	0,582
666,92	0,338
667,11	0,566
667,31	0,611
667,50	0,786
667,70	0,789
667,90	0,466
668,09	0,558
668,29	0,712
668,48	0,601
668,68	0,431
668,87	0,475
669,07	0,360
669,26	0,753
669,46	0,969
669,66	0,570
669,85	0,876
670,05	0,521
670,24	0,600
670,44	0,724
670,63	0,514
670,83	0,593
671,02	0,571
671,22	0,511
671,42	0,363
671,61	0,165
671,81	0,769
672,00	0,462
672,20	0,273
672,39	0,608
672,59	0,203
672,78	0,181
672,98	0,467
673,17	0,230
673,37	0,367
673,56	0,573
673,76	-0,058
673,95	0,394
674,15	0,585
674,34	0,207
674,54	0,563
674,73	0,505
674,93	0,213
675,13	0,523
675,32	0,729
675,52	0,399
675,71	0,405
675,91	0,354
676,10	0,556
676,30	0,226
676,49	0,014
676,69	0,508
676,88	0,402
677,08	0,242
677,27	0,091
677,47	0,351
677,66	0,453
677,86	0,563
678,05	0,217
678,24	0,242
678,44	0,728
678,63	0,442
678,83	0,254
679,02	0,400
679,22	0,296
679,41	0,547
679,61	0,109
679,80	0,243
680,00	0,385
680,19	0,369
680,39	0,232
680,58	0,424
680,78	0,287
680,97	0,319
681,17	0,476
681,36	0,062
681,56	0,314
681,75	0,201
681,94	0,165
682,14	0,449
682,33	0,537
682,53	0,195
682,72	0,081
682,92	0,485
683,11	0,168
683,31	0,451
683,50	0,110
683,69	0,015
683,89	0,298
684,08	0,182
684,28	0,015
684,47	0,341
684,67	0,198
684,86	0,430
685,06	0,163
685,25	0,395
685,44	0,285
685,64	0,356
685,83	0,366
686,03	0,098
686,22	0,177
686,42	0,347
686,61	0,241
686,80	0,182
687,00	0,054
687,19	0,235
687,39	0,156
687,58	0,362
687,77	0,343
687,97	0,552
688,16	0,317
688,36	0,113
688,55	0,221
688,74	0,136
688,94	0,013
689,13	0,168
689,33	0,167
689,52	0,078
689,71	0,248
689,91	0,162
690,10	0,183
690,30	-0,052
690,49	0,103
690,68	0,389
690,88	0,004
691,07	0,198
691,27	0,208
691,46	0,225
691,65	0,233
691,85	0,275
692,04	0,182
692,23	0,139
692,43	0,202
692,62	0,323
692,82	0,180
693,01	0,143
693,20	0,145
693,40	0,024
693,59	0,158
693,78	0,214
693,98	0,053
694,17	0,145
694,36	0,469
694,56	0,249
694,75	0,226
694,94	0,342
695,14	0,288
695,33	0,281
695,53	0,325
695,72	0,288
695,91	-0,028
696,11	0,245
696,30	0,173
696,49	0,435
696,69	0,254
696,88	0,015
697,07	0,192
697,27	0,223
697,46	0,319
697,65	0,182
697,85	-0,035
698,04	0,325
698,23	0,213
698,43	0,580
698,62	-0,026
698,81	0,473
699,01	0,294
699,20	0,386
699,39	0,570
699,58	0,390
699,78	0,176
699,97	0,401
700,16	0,113
700,36	0,359
700,55	0,535
700,74	0,727
700,94	0,368
701,13	0,076
701,32	0,223
701,52	0,897
701,71	0,502
701,90	0,448
702,09	0,922
702,29	0,953
702,48	0,011
702,67	1,094
702,87	0,887
703,06	0,238
703,25	0,870
703,44	0,645
703,64	0,705
703,83	0,759
704,02	0,922
704,22	1,284
704,41	0,743
704,60	0,639
704,79	1,555
704,99	1,787
705,18	1,677
705,37	1,534
705,56	0,815
705,76	1,824
705,95	1,552
706,14	0,697
706,33	0,493
706,53	1,196
706,72	0,607
706,91	1,787
707,11	1,182
707,30	0,988
707,49	1,300
707,68	1,500
707,88	1,092
708,07	0,414
708,26	0,671
708,45	0,649
708,64	2,389
708,84	1,186
709,03	2,406
709,22	0,251
709,41	2,768
709,61	1,769
709,80	1,899
709,99	2,494
710,18	2,929
710,38	0,189
710,57	0,858
710,76	-0,229
710,95	2,400
711,14	1,953
711,34	3,063
711,53	2,520
711,72	2,320
711,91	2,103
712,11	2,671
712,30	-0,539
712,49	1,991
712,68	1,622
712,87	2,000
713,07	2,449
713,26	3,623
713,45	0,291
713,64	2,139
713,83	2,507
714,03	1,701
714,22	2,217
714,41	2,607
714,60	2,326
714,79	1,248
714,99	1,421
715,18	4,295
715,37	4,634
715,56	2,696
715,75	3,752
715,94	3,839
716,14	5,205
716,33	4,527
716,52	5,294
716,71	4,091
716,90	2,719
717,10	2,450
717,29	3,827
717,48	2,948
717,67	4,512
717,86	3,922
718,05	4,801
718,24	3,983
718,44	3,614
718,63	0,730
718,82	3,810
719,01	2,117
719,20	3,556
719,39	2,288
719,59	-0,651
719,78	3,206
719,97	3,681
720,16	5,040
720,35	0,895
720,54	3,215
720,73	5,597
720,93	1,229
721,12	1,365
721,31	5,539
721,50	5,236
721,69	5,725
721,88	7,373
722,07	3,151
722,27	2,342
722,46	4,723
722,65	1,906
722,84	3,065
723,03	5,860
723,22	3,626
723,41	4,983
723,60	5,397
723,79	9,323
723,99	6,119
724,18	6,678
724,37	0,545
724,56	4,344
724,75	4,435
724,94	3,970
725,13	7,124
725,32	7,831
725,51	5,395
725,71	7,808
725,90	6,805
726,09	9,498
726,28	2,097
726,47	6,114
726,66	4,513
726,85	6,256
727,04	2,243
727,23	2,865
727,42	8,548
727,61	5,350
727,81	-0,108
728,00	4,574
728,19	5,200
728,38	-0,764
728,57	6,250
728,76	5,687
728,95	9,688
729,14	6,710
729,33	10,968
729,52	6,637
729,71	4,881
729,90	10,879
730,09	6,557
730,28	6,816
730,48	8,804
730,67	7,924
730,86	5,792
731,05	9,452
731,24	4,756
731,43	8,130
731,62	5,498
731,81	4,200
732,00	6,587
732,19	7,212
732,38	6,026
732,57	3,056
732,76	1,094
732,95	2,445
733,14	1,148
733,33	2,910
733,52	10,534
733,71	5,882
733,90	8,475
734,09	8,514
734,28	2,756
734,47	10,278
734,66	7,353
734,85	-0,286
735,04	5,278
735,23	11,345
735,42	11,612
735,61	6,560
735,81	6,657
736,00	4,843
736,19	8,967
736,38	7,934
736,57	13,717
736,76	7,737
736,95	9,236
737,14	10,367
737,33	12,023
737,52	5,846
737,71	2,951
737,90	12,210
738,09	6,697
738,28	12,257
738,47	6,022
738,66	1,442
738,85	8,859
739,04	5,660
739,22	9,699
739,41	2,022
739,60	6,143
739,79	9,712
739,98	3,943
740,17	15,529
740,36	6,872
740,55	10,669
740,74	14,923
740,93	7,648
741,12	12,500
741,31	9,683
741,50	-0,189
741,69	13,097
741,88	-0,395
742,07	8,696
742,26	7,238
742,45	9,016
742,64	11,152
742,83	11,327
743,02	6,105
743,21	12,094
743,40	7,246
743,59	11,213
743,78	16,438
743,97	16,923
744,16	7,283
744,34	-1,865
744,53	10,928
744,72	14,405
744,91	3,571
745,10	15,514
745,29	14,919
745,48	14,773
745,67	10,023
745,86	20,530
746,05	5,687
746,24	11,546
746,43	14,133
746,62	12,069
746,81	19,775
747,00	14,661
747,18	15,251
747,37	17,474
747,56	17,176
747,75	8,128
747,94	23,301
748,13	29,530
748,32	5,238
748,51	18,528
748,70	14,978
748,89	6,557
749,08	3,198
749,26	12,335
749,45	3,753
749,64	16,625
749,83	15,730
750,02	24,728
750,21	15,522
750,40	20,648
750,59	14,745
750,78	17,706
750,96	9,945
751,15	9,813
751,34	0,284
751,53	10,383
751,72	18,028
751,91	17,098
752,10	6,283
752,29	21,067
752,47	11,461
752,66	7,937
752,85	25,137
753,04	13,687
753,23	16,099
753,42	18,059
753,61	23,197
753,80	8,935
753,98	17,172
754,17	-3,951
754,36	13,871
754,55	0,000
754,74	20,779
754,93	22,314
755,12	23,442
755,30	9,091
755,49	22,384
755,68	28,528
755,87	18,047
756,06	22,222
756,25	31,003
756,43	10,067
756,62	14,286
756,81	20,861
757,00	12,829
757,19	8,333
757,38	15,058
757,56	-6,400
757,75	11,604
757,94	19,392
758,13	7,877
758,32	15,430
758,51	9,428
758,69	12,741
758,88	10,774
759,07	21,856
759,26	14,134
759,45	25,965
759,63	1,732
759,82	26,667
760,01	30,769
760,20	31,447
760,39	31,230
760,57	20,209
760,76	22,997
760,95	17,708
761,14	14,234
761,33	16,774
761,51	25,357
761,70	24,164
761,89	10,222
762,08	37,918
762,27	18,412
762,45	18,116
762,64	20,101
762,83	41,833
763,02	28,261
763,21	15,000
763,39	25,175
763,58	28,625
763,77	25,738
763,96	34,661
764,14	23,333
764,33	16,667
764,52	30,357
764,71	23,934
764,89	41,071
765,08	15,271
765,27	21,277
765,46	33,632
765,65	33,725
765,83	30,317
766,02	13,333
766,21	14,208
766,40	41,245
766,58	30,688
766,77	27,064
766,96	22,358
767,15	39,496
767,33	24,638
767,52	36,245
767,71	14,035
767,90	9,548
768,08	35,329
768,27	32,114
768,46	44,737
768,64	22,685
768,83	20,588
769,02	6,404
769,21	27,083
769,39	15,714
769,58	32,035
769,77	38,298
769,96	32,432
770,14	26,230
770,33	28,505
770,52	41,727
770,70	24,324
770,89	37,838
771,08	13,855
771,27	21,579
771,45	11,765
771,64	12,121
771,83	32,843
772,01	33,505
772,20	42,786
772,39	41,139
772,57	13,930
772,76	12,838
772,95	34,483
773,14	45,578
773,32	30,508
773,51	33,929
773,70	33,813
773,88	36,129
774,07	32,487
774,26	6,452
774,44	70,677
774,63	38,922
774,82	20,779
775,00	43,925
775,19	14,881
775,38	34,043
775,56	45,342
775,75	28,571
775,94	42,500
776,12	35,948
776,31	34,586
776,50	30,137
776,68	43,011
776,87	55,981
777,06	61,006
777,24	50,420
777,43	51,337
777,62	50,000
777,80	61,006
777,99	24,167
778,18	48,851
778,36	60,169
778,55	-14,407
778,74	38,281
778,92	34,568
779,11	57,273
779,29	-7,801
779,48	44,681
779,67	61,261
779,85	30,702
780,04	73,913
780,23	36,310
780,41	33,898
780,60	22,148
780,79	10,484
780,97	32,026
781,16	49,468
781,34	51,351
781,53	68,750
781,72	11,712
781,90	32,335
782,09	34,884
782,28	43,537
782,46	72,857
782,65	64,085
782,83	11,321
783,02	64,912
783,21	59,398
783,39	59,664
783,58	42,609
783,76	57,823
783,95	76,056
784,14	64,474
784,32	20,000
784,51	63,514
784,69	36,719
784,88	86,916
785,06	56,291
785,25	39,716
785,44	109,677
785,62	59,286
785,81	64,815
785,99	77,444
786,18	58,559
786,37	71,429
786,55	57,639
786,74	78,182
786,92	20,979
787,11	34,722
787,29	47,321
787,48	63,441
787,67	49,057
787,85	105,063
788,04	45,045
788,22	32,673
788,41	55,118
788,59	58,553
788,78	61,538
788,96	51,240
789,15	100,000
789,34	69,231
789,52	48,387
789,71	89,928
789,89	32,468
790,08	83,750
790,26	43,949
790,45	77,778
790,63	58,621
790,82	56,154
791,00	64,602
791,19	27,200
791,38	40,952
791,56	77,273
791,75	-19,444
791,93	64,000
792,12	47,826
792,30	45,255
792,49	33,333
792,67	29,412
792,86	60,000
793,04	67,593
793,23	56,842
793,41	57,971
793,60	33,333
793,78	82,857
793,97	59,722
794,15	87,218
794,34	68,000
794,52	44,086
794,71	70,543
794,89	56,818
795,08	49,600
795,26	69,333
795,45	54,167
795,63	67,742
795,82	84,615
796,00	85,000
796,19	69,919
796,37	45,802
796,56	28,155
796,74	74,737
796,93	13,636
797,11	95,181
797,30	59,444
797,48	50,781
797,67	52,846
797,85	52,308
798,04	56,780
798,22	137,179
798,41	47,115
798,59	55,238
798,77	50,602
798,96	27,778
799,14	112,903
799,33	60,550
799,51	72,222
799,70	76,154
799,88	59,633
800,07	61,832
800,25	68,675
800,44	74,074
800,62	116,667
800,80	54,930
800,99	127,397
801,17	81,034
801,36	96,429
801,54	44,000
801,73	64,211
801,91	66,942
802,10	49,412
802,28	60,000
802,46	67,105
802,65	81,295
802,83	96,000
803,02	66,935
803,20	122,892
803,39	45,977
803,57	37,795
803,75	60,163
803,94	78,571
804,12	102,759
804,31	49,275
804,49	55,200
804,67	46,324
804,86	54,867
805,04	42,169
805,23	65,487
805,41	43,333
805,59	84,932
805,78	93,600
805,96	49,398
806,15	77,228
806,33	44,737
806,51	110,667
806,70	48,872
806,88	45,349
807,07	83,784
807,25	64,835
807,43	63,393
807,62	55,752
807,80	48,571
807,99	61,538
808,17	37,008
808,35	51,000
808,54	31,884
808,72	55,856
808,90	31,507
809,09	72,826
809,27	72,000
809,46	81,319
809,64	54,878
809,82	43,046
810,01	57,031
810,19	77,778
810,37	51,563
810,56	97,778
810,74	38,961
810,92	39,333
811,11	12,281
811,29	62,264
811,48	76,154
811,66	58,427
811,84	32,967
812,03	41,803
812,21	50,877
812,39	26,957
812,58	57,895
812,76	51,079
812,94	38,554
813,13	34,043
813,31	52,000
813,49	37,963
813,68	56,364
813,86	66,292
814,04	52,066
814,23	40,964
814,41	38,202
814,59	76,699
814,78	58,088
814,96	38,365
815,14	35,514
815,33	68,992
815,51	30,709
815,69	68,571
815,87	51,485
816,06	62,609
816,24	36,646
816,42	44,853
816,61	57,862
816,79	53,448
816,97	75,000
817,16	46,746
817,34	53,175
817,52	56,198
817,70	39,604
817,89	51,852
818,07	37,671
818,25	43,878
818,44	70,513
818,62	59,690
818,80	51,128
818,98	74,522
819,17	51,261
819,35	46,277
819,53	56,716
819,72	68,987
819,90	45,736
820,08	4,274
820,26	48,276
820,45	44,295
820,63	83,036
820,81	44,000
820,99	49,645
821,18	42,177
821,36	72,785
821,54	88,276
821,73	68,889
821,91	56,140
822,09	66,129
822,27	48,387
822,46	50,735
822,64	56,000
822,82	40,884
823,00	22,099
823,19	47,802
823,37	74,545
823,55	20,455
823,73	60,000
823,91	46,377
824,10	45,699
824,28	54,774
824,46	28,155
824,64	58,553
824,83	49,068
825,01	53,333
825,19	32,258
825,37	47,826
825,56	33,019
825,74	63,265
825,92	39,490
826,10	60,227
826,28	33,929
826,47	23,158
826,65	63,830
826,83	47,414
827,01	58,960
827,19	57,143
827,38	33,951
827,56	36,364
827,74	32,961
827,92	48,837
828,10	47,436
828,29	47,929
828,47	35,366
828,65	9,231
828,83	2,424
829,01	41,848
829,20	34,615
829,38	62,500
829,56	64,674
829,74	23,899
829,92	35,714
830,10	45,977
830,29	36,683
830,47	28,141
830,65	12,195
830,83	24,554
831,01	54,167
831,20	43,204
831,38	31,579
831,56	42,791
831,74	53,555
831,92	51,316
832,10	38,095
832,29	13,514
832,47	8,989
832,65	20,098
832,83	44,601
833,01	27,500
833,19	33,484
833,37	66,516
833,56	14,346
833,74	41,176
833,92	18,519
834,10	36,100
834,28	35,021
834,46	36,199
834,64	53,241
834,83	36,818
835,01	32,365
835,19	29,200
835,37	22,727
835,55	10,938
835,73	22,660
835,91	22,509
836,09	31,179
836,28	28,413
836,46	35,200
836,64	36,842
836,82	31,222
837,00	22,101
837,18	17,100
837,36	28,685
837,54	24,091
837,72	18,534
837,91	25,000
838,09	24,303
838,27	39,000
838,45	25,532
838,63	23,897
838,81	20,675
838,99	25,403
839,17	23,986
839,35	34,752
839,53	30,877
839,72	30,451
839,90	21,649
840,08	39,077
840,26	16,270
840,44	24,773
840,62	13,103
840,80	30,952
840,98	24,314
841,16	16,730
841,34	20,736
841,52	31,498
841,70	25,846
841,89	25,403
842,07	25,705
842,25	31,322
842,43	25,431
842,61	24,912
842,79	27,401
842,97	16,287
843,15	33,003
843,33	14,826
843,51	17,771
843,69	34,473
843,87	10,821
844,05	13,374
844,23	24,625
844,41	19,436
844,59	20,461
844,77	15,686
844,95	14,451
845,13	20,000
845,31	5,814
845,50	24,869
845,68	17,363
845,86	6,609
846,04	22,067
846,22	10,627
846,40	21,774
846,58	18,519
846,76	18,817
846,94	16,708
847,12	11,140
847,30	11,856
847,48	6,192
847,66	14,286
847,84	16,120
848,02	16,908
848,20	21,189
848,38	12,821
848,56	18,750
848,74	32,458
848,92	16,459
849,10	8,250
849,28	11,336
849,46	19,467
849,64	22,864
849,82	7,716
850,00	28,505
850,18	21,915
850,36	13,687
850,54	27,068
850,72	24,936
850,90	28,478
851,08	6,565
851,26	9,628
851,44	18,584
851,62	20,698
851,80	14,537
851,98	13,846
852,16	26,005
852,34	13,196
852,52	17,634
852,70	5,923
852,87	6,164
853,05	9,747
853,23	15,876
853,41	10,884
853,59	13,900
853,77	15,675
853,95	23,418
854,13	9,735
854,31	13,552
854,49	20,758
854,67	11,447
854,85	12,629
855,03	21,643
855,21	20,211
855,39	13,682
855,57	11,828
855,75	18,248
855,93	12,745
856,11	24,178
856,28	13,838
856,46	14,235
856,64	22,286
856,82	11,684
857,00	12,170
857,18	3,971
857,36	9,612
857,54	11,073
857,72	3,509
857,90	7,011
858,08	13,529
858,26	7,453
858,44	1,170
858,61	7,840
858,79	17,474
858,97	19,823
859,15	15,325
859,33	10,469
859,51	9,548
859,69	5,903
859,87	8,402
860,05	9,947
860,23	11,364
860,40	9,075
860,58	9,180
860,76	7,302
860,94	12,846
861,12	12,308
861,30	9,105
861,48	11,286
861,66	9,365
861,84	1,943
862,01	13,697
862,19	7,288
862,37	7,110
862,55	14,409
862,73	7,121
862,91	12,041
863,09	8,482
863,27	10,345
863,44	10,860
863,62	9,647
863,80	5,485
863,98	7,715
864,16	5,491
864,34	11,457
864,52	11,260
864,69	13,743
864,87	2,171
865,05	8,844
865,23	9,935
865,41	10,753
865,59	6,864
865,76	9,314
865,94	9,690
866,12	13,161
866,30	8,135
866,48	14,443
866,66	6,586
866,83	9,288
867,01	8,824
867,19	10,533
867,37	3,105
867,55	6,810
867,73	5,769
867,90	5,749
868,08	6,409
868,26	6,005
868,44	4,689
868,62	6,265
868,79	3,207
868,97	11,083
869,15	5,452
869,33	8,669
869,51	5,807
869,69	10,854
869,86	3,275
870,04	12,299
870,22	10,116
870,40	5,965
870,57	9,112
870,75	5,967
870,93	8,000
871,11	6,494
871,29	5,822
871,46	5,408
871,64	10,669
871,82	8,181
872,00	10,597
872,18	4,430
872,35	11,030
872,53	6,360
872,71	8,265
872,89	12,102
873,06	9,761
873,24	12,027
873,42	4,563
873,60	6,849
873,77	0,818
873,95	4,137
874,13	2,643
874,31	4,747
874,49	6,389
874,66	5,545
874,84	3,410
875,02	9,349
875,20	6,897
875,37	8,831
875,55	6,870
875,73	3,147
875,91	6,227
876,08	5,484
876,26	3,004
876,44	6,082
876,61	6,205
876,79	10,061
876,97	3,011
877,15	6,696
877,32	7,161
877,50	3,228
877,68	2,999
877,86	2,039
878,03	6,865
878,21	3,563
878,39	7,298
878,56	4,298
878,74	10,168
878,92	0,726
879,10	5,304
879,27	7,941
879,45	8,655
879,63	5,047
879,80	5,614
879,98	5,418
880,16	8,952
880,34	5,601
880,51	3,155
880,69	3,348
880,87	6,799
881,04	3,546
881,22	5,677
881,40	2,519
881,57	5,056
881,75	4,917
881,93	4,711
882,10	5,481
882,28	7,034
882,46	6,438
882,63	5,368
882,81	6,540
882,99	4,172
883,16	4,534
883,34	2,807
883,52	4,024
883,69	5,288
883,87	0,716
884,05	5,177
884,22	2,544
884,40	6,338
884,58	1,612
884,75	4,627
884,93	4,745
885,11	6,913
885,28	2,682
885,46	0,554
885,64	5,987
885,81	2,532
885,99	2,540
886,17	4,773
886,34	2,508
886,52	4,254
886,70	5,343
886,87	5,057
887,05	6,453
887,22	3,099
887,40	4,725
887,58	2,138
887,75	4,545
887,93	3,300
888,11	2,958
888,28	3,822
888,46	4,167
888,63	3,994
888,81	2,762
888,99	4,091
889,16	5,018
889,34	0,696
889,51	4,102
889,69	2,218
889,87	6,262
890,04	1,724
890,22	1,804
890,39	2,680
890,57	5,335
890,75	2,010
890,92	4,537
891,10	4,597
891,27	2,648
891,45	3,256
891,63	4,845
891,80	3,445
891,98	2,759
892,15	4,123
892,33	3,230
892,51	3,617
892,68	3,986
892,86	2,554
893,03	1,556
893,21	4,078
893,38	2,178
893,56	2,422
893,74	2,385
893,91	3,259
894,09	4,194
894,26	4,143
894,44	3,330
894,61	2,977
894,79	3,567
894,96	0,768
895,14	4,280
895,32	3,328
895,49	3,068
895,67	3,632
895,84	2,116
896,02	2,706
896,19	2,787
896,37	3,784
896,54	2,969
896,72	2,597
896,89	4,286
897,07	6,181
897,25	2,567
897,42	3,897
897,60	4,445
897,77	3,620
897,95	3,843
898,12	4,450
898,30	4,022
898,47	2,795
898,65	2,310
898,82	2,059
899,00	2,006
899,17	2,837
899,35	0,946
899,52	4,737
899,70	4,311
899,87	1,642
900,05	2,702
900,22	2,667
900,40	3,177
900,57	2,635
900,75	2,316
900,92	1,669
901,10	3,424
901,27	2,332
901,45	5,177
901,62	3,822
901,80	1,493
901,97	3,453
902,15	3,236
902,32	3,342
902,50	3,265
902,67	4,589
902,85	3,458
903,02	4,017
903,20	3,675
903,37	1,637
903,54	3,843
903,72	3,901
903,89	2,879
904,07	1,283
904,24	4,106
904,42	2,218
904,59	1,071
904,77	2,901
904,94	2,500
905,12	2,410
905,29	1,791
905,47	2,231
905,64	3,732
905,81	3,062
905,99	0,875
906,16	1,942
906,34	2,191
906,51	1,313
906,69	3,865
906,86	3,618
907,03	2,825
907,21	0,896
907,38	2,042
907,56	2,498
907,73	1,772
907,91	2,255
908,08	3,544
908,25	3,099
908,43	3,087
908,60	1,165
908,78	2,721
908,95	3,939
909,13	3,156
909,30	2,498
909,47	0,000
909,65	2,967
909,82	2,317
910,00	1,641
910,17	1,342
910,34	2,741
910,52	2,491
910,69	1,893
910,87	2,788
911,04	2,483
911,21	3,786
911,39	0,304
911,56	1,619
911,73	2,674
911,91	2,354
912,08	3,306
912,26	0,846
912,43	4,054
912,60	1,673
912,78	2,438
912,95	3,269
913,13	2,771
913,30	3,648
913,47	4,257
913,65	2,689
913,82	3,572
913,99	1,542
914,17	2,013
914,34	1,866
914,51	3,087
914,69	3,300
914,86	4,137
915,03	2,967
915,21	1,952
915,38	2,689
915,56	2,640
915,73	1,848
915,90	2,313
916,08	3,395
916,25	2,733
916,42	3,099
916,60	2,223
916,77	2,179
916,94	2,447
917,12	2,506
917,29	2,399
917,46	1,538
917,64	2,976
917,81	1,999
917,98	2,238
918,16	2,917
918,33	3,733
918,50	2,341
918,67	2,240
918,85	1,875
919,02	2,331
919,19	2,737
919,37	1,205
919,54	3,211
919,71	3,791
919,89	2,344
920,06	2,843
920,23	2,047
920,41	2,968
920,58	2,365
920,75	3,813
920,92	2,384
921,10	3,234
921,27	3,449
921,44	3,052
921,62	3,259
921,79	3,475
921,96	2,992
922,13	2,978
922,31	1,483
922,48	3,314
922,65	3,574
922,82	2,910
923,00	3,646
923,17	3,153
923,34	2,855
923,52	2,247
923,69	3,586
923,86	3,752
924,03	3,539
924,21	3,496
924,38	4,150
924,55	3,623
924,72	3,921
924,90	3,960
925,07	3,096
925,24	3,961
925,41	3,035
925,59	3,334
925,76	3,186
925,93	4,406
926,10	4,287
926,28	3,653
926,45	3,540
926,62	3,765
926,79	4,737
926,96	5,630
927,14	5,372
927,31	4,502
927,48	4,636
927,65	5,016
927,83	5,274
928,00	4,609
928,17	5,279
928,34	3,991
928,51	4,252
928,69	5,107
928,86	5,027
929,03	4,523
929,20	4,455
929,37	5,127
929,55	4,856
929,72	5,266
929,89	4,984
930,06	5,301
930,23	5,319
930,41	5,287
930,58	5,239
930,75	4,482
930,92	5,528
931,09	6,205
931,27	5,014
931,44	4,439
931,61	6,153
931,78	5,032
931,95	5,041
932,12	5,731
932,30	5,898
932,47	4,828
932,64	5,806
932,81	6,247
932,98	5,418
933,16	5,984
933,33	6,768
933,50	5,660
933,67	6,426
933,84	7,415
934,01	5,879
934,18	6,345
934,36	6,544
934,53	7,545
934,70	6,134
934,87	6,294
935,04	6,062
935,21	6,490
935,38	7,013
935,56	8,272
935,73	7,405
935,90	7,042
936,07	8,147
936,24	7,915
936,41	8,460
936,58	7,551
936,76	9,078
936,93	8,565
937,10	9,215
937,27	9,861
937,44	9,938
937,61	10,932
937,78	10,609
937,95	10,479
938,13	9,948
938,30	12,200
938,47	10,832
938,64	11,382
938,81	10,992
938,98	11,787
939,15	12,125
939,32	12,325
939,49	11,587
939,66	12,048
939,84	13,631
940,01	13,637
940,18	13,259
940,35	14,485
940,52	14,074
940,69	14,225
940,86	14,677
941,03	13,644
941,20	15,131
941,37	13,858
941,54	16,155
941,71	16,799
941,89	17,495
942,06	16,537
942,23	15,724
942,40	16,354
942,57	16,593
942,74	16,624
942,91	17,657
943,08	17,731
943,25	16,644
943,42	17,366
943,59	17,484
943,76	17,920
943,93	16,726
944,10	17,102
944,27	16,178
944,44	17,304
944,61	17,249
944,79	18,030
944,96	17,465
945,13	16,678
945,30	17,287
945,47	16,940
945,64	16,185
945,81	17,280
945,98	16,605
946,15	17,036
946,32	16,234
946,49	16,445
946,66	16,289
946,83	15,445
947,00	17,195
947,17	15,679
947,34	15,181
947,51	15,227
947,68	16,543
947,85	15,734
948,02	14,442
948,19	16,377
948,36	14,948
948,53	12,402
948,70	14,053
948,87	13,739
949,04	15,188
949,21	12,702
949,38	13,728
949,55	14,623
949,72	12,496
949,89	13,463
950,06	12,363
950,23	12,647
950,40	13,191
950,57	13,526
950,74	12,966
950,91	12,216
951,08	12,403
951,25	12,104
951,42	11,304
951,59	9,233
951,76	9,988
951,93	11,919
952,10	11,205
952,27	9,801
952,44	12,490
952,61	12,774
952,77	13,182
952,94	12,466
953,11	10,821
953,28	13,030
953,45	12,395
953,62	11,283
953,79	11,852
953,96	11,954
954,13	12,884
954,30	13,470
954,47	11,822
954,64	13,265
954,81	14,390
954,98	11,404
955,15	12,213
955,32	12,826
955,49	11,874
955,65	12,524
955,82	14,322
955,99	14,871
956,16	20,662
956,33	12,829
956,50	15,192
956,67	14,234
956,84	14,488
957,01	13,284
957,18	14,981
957,35	16,007
957,52	15,837
957,68	17,492
957,85	17,206
958,02	16,769
958,19	18,088
958,36	22,790
958,53	16,903
958,70	19,349
958,87	15,070
959,04	20,041
959,21	24,476
959,37	23,805
959,54	19,581
959,71	20,263
959,88	16,279
960,05	23,399
960,22	18,742
960,39	19,598
960,56	18,031
960,72	25,346
960,89	25,101
961,06	21,330
961,23	16,820
961,40	25,404
961,57	20,607
961,74	30,568
961,90	26,270
962,07	23,169
962,24	25,201
962,41	27,586
962,58	23,077
962,75	28,205
962,92	28,596
963,08	23,958
963,25	17,928
963,42	35,542
963,59	23,203
963,76	33,002
963,93	26,273
964,10	37,104
964,26	41,905
964,43	25,814
964,60	39,211
964,77	29,306
964,94	30,864
965,10	23,398
965,27	24,022
965,44	30,476
965,61	44,863
965,78	35,714
965,95	30,846
966,11	26,364
966,28	26,816
966,45	42,810
966,62	28,571
966,79	24,573
966,95	52,313
967,12	33,333
967,29	50,617
967,46	42,705
967,63	55,686
967,79	48,658
967,96	40,826
968,13	57,143
968,30	42,387
968,47	48,462
968,63	61,275
968,80	50,192
968,97	58,960
969,14	40,678
969,31	44,388
969,47	55,435
969,64	42,308
969,81	65,161
969,98	71,053
970,14	34,409
970,31	41,509
970,48	46,309
970,65	86,777
970,81	30,070
970,98	67,187
971,15	81,818
971,32	58,333
971,48	94,048
971,65	54,967
971,82	99,091
971,99	65,190
972,15	88,372
972,32	57,639
972,49	90,164
972,66	66,116
972,82	67,123
972,99	77,500
973,16	97,351
973,33	30,370
973,49	101,220
973,66	75,238
973,83	107,407
974,00	26,582
974,16	185,455
974,33	109,333
974,50	101,010
974,67	70,238
974,83	107,143
975,00	114,545
975,17	148,387
975,33	102,299
975,50	198,361
975,67	119,231
975,84	80,488
976,00	117,105
976,17	156,522
976,34	108,235
976,50	94,505
976,67	110,714
976,84	75,000
977,00	103,846
977,17	122,222
977,34	219,231
977,50	121,429
977,67	95,294
977,84	138,983
978,01	125,676
978,17	112,069
978,34	100,000
978,51	348,000
978,67	187,755
978,84	114,545
979,01	160,526
979,17	44,286
979,34	160,870
979,51	163,636
979,67	387,500
979,84	189,831
980,01	171,154
980,17	317,647
980,34	94,521
980,51	611,111
980,67	126,667
980,84	102,857
981,01	232,353
981,17	147,059
981,34	114,286
981,50	105,263
981,67	238,095
981,84	142,857
982,00	10400,000
982,17	153,125
982,34	246,341
982,50	0,000
982,67	-385,714
982,84	720,000
983,00	59,259
983,17	-442,857
983,33	622,222
983,50	160,976
983,67	143,478
983,83	385,714
984,00	269,565
984,17	1188,889
984,33	-200,000
984,50	197,297
984,66	318,750
984,83	875,000
985,00	223,077
985,16	116,129
985,33	5450,000
985,49	124,419
985,66	170,000
985,83	-2933,333
985,99	388,889
986,16	442,105
986,32	117,808
986,49	-1040,000
986,66	500,000
986,82	263,636
986,99	-700,000
987,15	266,667
987,32	576,471
987,49	300,000
987,65	-247,826
987,82	-45,000
987,98	178,788
988,15	585,714
988,31	268,571
988,48	229,412
988,65	600,000
988,81	120,000
988,98	308,108
989,14	350,000
989,31	101,695
989,47	-82,143
989,64	416,667
989,80	104,255
989,97	232,727
990,14	507,143
990,30	-612,500
990,47	-166,667
990,63	336,842
990,80	1233,333
990,96	800,000
991,13	260,000
991,29	160,784
991,46	177,083
991,62	0,000
991,79	-790,000
991,95	288,235
992,12	883,333
992,29	-228,571
992,45	157,143
992,62	-175,000
992,78	-733,333
992,95	264,516
993,11	1312,500
993,28	-5600,000
993,44	-237,931
993,61	191,228
993,77	0,000
993,94	256,410
994,10	857,143
994,27	-76,316
994,43	281,250
994,60	821,429
994,76	118,182
994,93	-610,000
995,09	-618,750
995,26	466,667
995,42	825,000
995,59	233,333
995,75	-533,333
995,92	-1357,143
996,08	-1460,000
996,25	227,273
996,41	1260,000
996,58	488,000
996,74	-900,000
996,91	170,968
997,07	300,000
997,23	74,510
997,40	833,333
997,56	-1233,333
997,73	434,783
997,89	1440,000
998,06	161,404
998,22	168,085
998,39	289,796
998,55	584,211
998,72	-8400,000
998,88	210,000
999,05	566,667
999,21	329,412
999,37	162,791
999,54	300,000
999,70	409,524
999,87	666,667
1000,03	343,333
1000,20	464,286
1000,36	-775,000
1000,52	3850,000
1000,69	528,000
1000,85	-275,000
1001,02	309,524
1001,18	1860,000
1001,35	0,000
1001,51	621,429
1001,67	380,000
1001,84	185,366
1002,00	-636,364
1002,17	1525,000
1002,33	-575,000
1002,50	425,000
1002,66	1337,500
1002,82	265,854
1002,99	-345,455
1003,15	-6400,000
1003,32	-264,286
1003,48	-2300,000
1003,64	356,522
1003,81	-131,579
1003,97	172,464
1004,14	-80,000
1004,30	336,364
1004,46	-6100,000
1004,63	-315,385
1004,79	200,000
1004,95	-880,000
1005,12	-269,231
1005,28	383,333
1005,45	-1066,667
1005,61	246,154
1005,77	-871,429
1005,94	260,870
1006,10	-560,000
1006,26	-166,667
1006,43	275,758
1006,59	338,710
1006,76	-432,000
1006,92	295,652
1007,08	143,939
1007,25	183,333
1007,41	354,545
1007,57	-423,529
1007,74	304,348
1007,90	-457,143
1008,06	-186,667
1008,23	-263,158
1008,39	227,778
1008,55	104,706
1008,72	-1162,500
1008,88	-111,429
1009,04	-811,111
1009,21	259,375
1009,37	396,774
1009,53	-240,000
1009,70	-7,576
1009,86	405,263
1010,02	245,455
1010,19	760,000
1010,35	6500,000
1010,51	282,857
1010,68	409,091
1010,84	250,000
1011,00	357,143
1011,17	3200,000
1011,33	253,846
1011,49	450,000
1011,66	334,375
1011,82	-866,667
1011,98	573,333
1012,14	315,385
1012,31	236,364
1012,47	-228,571
1012,63	5200,000
1012,80	516,667
1012,96	219,444
1013,12	-166,667
1013,29	466,667
1013,45	-88,235
1013,61	-940,000
1013,77	-422,222
1013,94	387,500
1014,10	7100,000
1014,26	-223,529
1014,43	378,947
1014,59	0,000
1014,75	1240,000
1014,91	162,857
1015,08	250,000
1015,24	500,000
1015,40	413,333
1015,56	447,059
1015,73	236,735
1015,89	477,778
1016,05	332,432
1016,21	285,185
1016,38	171,053
1016,54	-212,000
1016,70	552,632
1016,86	-376,923
1017,03	0,000
1017,19	775,000
1017,35	233,333
1017,51	1333,333
1017,68	771,429
1017,84	542,105
1018,00	204,762
1018,16	-443,750
1018,33	581,818
1018,49	542,857
1018,65	-354,545
1018,81	-58,537
1018,97	869,231
1019,14	-685,714
1019,30	428,571
1019,46	171,795
1019,62	2300,000
1019,79	-428,571
1019,95	-1275,000
1020,11	540,000
1020,27	205,000
1020,43	-512,500
1020,60	0,000
1020,76	133,824
1020,92	8900,000
1021,08	-26,667
1021,24	-1050,000
1021,41	369,697
1021,57	-420,833
1021,73	0,000
1021,89	-336,364
1022,05	285,714
1022,21	-438,462
1022,38	484,211
1022,54	640,000
1022,70	322,222
1022,86	-3550,000
1023,02	811,111
1023,19	-390,000
1023,35	220,755
1023,51	290,323
1023,67	221,053
1023,83	718,182
1023,99	222,857
1024,16	-24,615
1024,32	593,750
1024,48	267,347
1024,64	-520,000
1024,80	825,000
1024,96	500,000
1025,12	2533,333
1025,29	-225,000
1025,45	320,833
1025,61	2266,667
1025,77	300,000
1025,93	-507,692
1026,09	4950,000
1026,26	-1085,714
1026,42	-1725,000
1026,58	146,154
1026,74	671,429
1026,90	368,421
1027,06	-920,000
1027,22	-766,667
1027,38	877,778
1027,55	-268,000
1027,71	812,500
1027,87	237,500
1028,03	134,848
1028,19	-333,333
1028,35	81,081
1028,51	-20,968
1028,67	-800,000
1028,83	238,095
1029,00	814,286
1029,16	-533,333
1029,32	252,941
1029,48	3900,000
1029,64	1042,857
1029,80	1383,333
1029,96	200,000
1030,12	-412,500
1030,28	2025,000
1030,44	-2150,000
1030,61	234,375
1030,77	-191,304
1030,93	288,372
1031,09	-471,429
1031,25	-655,556
1031,41	-3900,000
1031,57	-263,158
1031,73	654,545
1031,89	-69,697
1032,05	1442,857
1032,21	910,000
1032,37	-67,647
1032,53	-220,000
1032,69	-8000,000
1032,86	1266,667
1033,02	312,500
1033,18	-869,231
1033,34	-415,385
1033,50	241,935
1033,66	-77,778
1033,82	414,286
1033,98	-470,588
1034,14	1055,556
1034,30	-281,818
1034,46	383,333
1034,62	472,222
1034,78	146,032
1034,94	-158,065
1035,10	-486,364
1035,26	-844,444
1035,42	228,571
1035,58	1500,000
1035,74	-186,667
1035,90	-633,333
1036,06	209,434
1036,22	-232,000
1036,38	600,000
1036,54	570,000
1036,70	-3400,000
1036,86	-400,000
1037,02	-2900,000
1037,18	-107,143
1037,34	426,087
1037,50	-473,333
1037,66	-2400,000
1037,82	-358,824
1037,98	533,333
1038,14	-117,241
1038,30	-11,538
1038,46	104,167
1038,62	283,871
1038,78	202,381
1038,94	-115,789
1039,10	-316,667
1039,26	-221,053
1039,42	-928,571
1039,58	145,283
1039,74	209,375
1039,90	-194,872
1040,06	452,941
>>>>>End Processed Spectral Data<<<<<
